point1
Integration time [ms]:  30.000
Averaging Nr. [scans]: 15
Smoothing Nr. [pixels]: 0
Data measured with spectrometer [name]: 1307077U2
Wave   ;Sample   ;Dark     ;Reference;Scope Corrected for Dark
[nm]   ;[counts] ;[counts] ;[counts] 

 350.80;    4.933;   -8.467;    0.000;13.40000
 351.10;    8.333;   -4.133;    0.000;12.46667
 351.39;   18.400;   10.733;    0.000; 7.66667
 351.69;   12.733;  -17.000;    0.000;29.73333
 351.99;   -5.600;  -22.067;    0.000;16.46667
 352.28;    5.600;   -1.733;    0.000; 7.33333
 352.58;    3.400;  -16.200;    0.000;19.60000
 352.88;   -6.333;    1.867;    0.000;-8.20000
 353.17;   -5.933;    6.267;    0.000;-12.20000
 353.47;    3.467;   -4.800;    0.000; 8.26667
 353.76;    8.600;    8.667;    0.000;-0.06667
 354.06;   27.600;   -2.733;    0.000;30.33333
 354.36;    0.400;    6.200;    0.000;-5.80000
 354.65;   37.867;    1.200;    0.000;36.66666
 354.95;   -4.600;   -5.733;    0.000; 1.13333
 355.24;   -3.600;   -3.467;    0.000;-0.13333
 355.54;   -6.200;   -9.867;    0.000; 3.66667
 355.84;   20.867;    2.133;    0.000;18.73333
 356.13;   28.267;   35.267;    0.000;-7.00000
 356.43;    2.000;   -2.000;    0.000; 4.00000
 356.72;   -8.467;  -24.733;    0.000;16.26667
 357.02;    9.267;    7.267;    0.000; 2.00000
 357.31;   32.933;    4.400;    0.000;28.53333
 357.61;   12.400;   10.000;    0.000; 2.40000
 357.91;  -23.200;  -10.400;    0.000;-12.80000
 358.20;   19.733;  -11.067;    0.000;30.80000
 358.50;   13.667;   -0.133;    0.000;13.80000
 358.79;   -6.733;   -5.667;    0.000;-1.06667
 359.09;    2.667;   -7.000;    0.000; 9.66667
 359.38;   23.733;  -11.800;    0.000;35.53333
 359.68;  -14.333;  -19.400;    0.000; 5.06667
 359.98;   17.733;  -12.067;    0.000;29.80000
 360.27;   -0.133;  -20.467;    0.000;20.33333
 360.57;   10.800;  -24.467;    0.000;35.26667
 360.86;    9.867;  -13.467;    0.000;23.33333
 361.16;   -0.400;  -10.933;    0.000;10.53333
 361.45;  -24.600;    0.933;    0.000;-25.53333
 361.75;   -8.867;  -14.467;    0.000; 5.60000
 362.04;   32.200;   20.200;    0.000;12.00000
 362.34;   25.400;    7.200;    0.000;18.20000
 362.64;   10.000;   -3.600;    0.000;13.60000
 362.93;   -2.933;  -22.667;    0.000;19.73333
 363.23;  -24.400;  -26.267;    0.000; 1.86667
 363.52;    1.467;  -31.067;    0.000;32.53333
 363.82;   -5.733;  -15.667;    0.000; 9.93333
 364.11;    5.067;    2.867;    0.000; 2.20000
 364.41;  -30.467;  -19.200;    0.000;-11.26667
 364.70;  -15.400;  -11.067;    0.000;-4.33333
 365.00;  -20.733;   -4.333;    0.000;-16.40000
 365.29;    0.933;   -9.133;    0.000;10.06667
 365.59;  -12.533;   -4.267;    0.000;-8.26667
 365.88;   -8.400;   -8.867;    0.000; 0.46667
 366.18;  -13.200;   -2.200;    0.000;-11.00000
 366.47;    2.467;    6.000;    0.000;-3.53333
 366.77;  -28.133;   15.800;    0.000;-43.93333
 367.06;    3.867;  -16.267;    0.000;20.13333
 367.36;   -2.133;   -4.267;    0.000; 2.13333
 367.65;    5.133;   -1.400;    0.000; 6.53333
 367.95;  -10.333;   -3.333;    0.000;-7.00000
 368.24;   -3.467;   -7.667;    0.000; 4.20000
 368.54;  -12.333;  -20.133;    0.000; 7.80000
 368.83;   20.333;    2.667;    0.000;17.66667
 369.13;   -1.667;   10.533;    0.000;-12.20000
 369.42;   -3.733;   -4.867;    0.000; 1.13333
 369.72;   -5.133;  -13.400;    0.000; 8.26667
 370.01;    5.267;   -8.267;    0.000;13.53333
 370.31;    8.000;    5.600;    0.000; 2.40000
 370.60;   34.733;   26.333;    0.000; 8.40000
 370.90;    2.200;  -20.200;    0.000;22.40000
 371.19;    3.067;  -26.200;    0.000;29.26667
 371.49;  -12.733;    3.400;    0.000;-16.13333
 371.78;   -5.867;    3.133;    0.000;-9.00000
 372.08;   -0.467;   -7.267;    0.000; 6.80000
 372.37;   20.400;  -14.667;    0.000;35.06667
 372.67;    4.133;    6.067;    0.000;-1.93333
 372.96;   -5.200;    0.000;    0.000;-5.20000
 373.26;  -16.267;  -11.133;    0.000;-5.13333
 373.55;  -10.067;   -1.933;    0.000;-8.13333
 373.85;   -8.867;  -13.267;    0.000; 4.40000
 374.14;    9.067;    4.933;    0.000; 4.13333
 374.43;   -8.733;   -6.867;    0.000;-1.86667
 374.73;  -20.200;  -10.333;    0.000;-9.86667
 375.02;   10.800;    7.600;    0.000; 3.20000
 375.32;   -4.600;  -20.267;    0.000;15.66667
 375.61;   -8.067;  -15.067;    0.000; 7.00000
 375.91;  -15.467;  -30.467;    0.000;15.00000
 376.20;  -31.600;  -10.400;    0.000;-21.20000
 376.50;  -19.400;  -20.133;    0.000; 0.73333
 376.79;  -27.867;  -22.667;    0.000;-5.20000
 377.08;  -22.733;  -28.533;    0.000; 5.80000
 377.38;  -24.933;  -18.667;    0.000;-6.26667
 377.67;   -6.600;   16.333;    0.000;-22.93333
 377.97;  -25.467;  -18.200;    0.000;-7.26667
 378.26;   -1.333;  -10.133;    0.000; 8.80000
 378.56;  -23.800;  -34.867;    0.000;11.06667
 378.85;    5.200;   -6.600;    0.000;11.80000
 379.14;    1.067;  -29.133;    0.000;30.20000
 379.44;    7.200;  -13.533;    0.000;20.73333
 379.73;  -13.733;  -14.267;    0.000; 0.53333
 380.03;    0.667;   14.000;    0.000;-13.33333
 380.32;  -13.800;   -6.133;    0.000;-7.66667
 380.62;   -7.800;   -9.267;    0.000; 1.46667
 380.91;    7.867;   -4.733;    0.000;12.60000
 381.20;   -0.467;    3.067;    0.000;-3.53333
 381.50;  -10.533;  -14.600;    0.000; 4.06667
 381.79;   -8.200;  -19.400;    0.000;11.20000
 382.09;  -12.533;  -19.600;    0.000; 7.06667
 382.38;   -4.600;  -23.667;    0.000;19.06667
 382.67;  -19.000;  -19.000;    0.000; 0.00000
 382.97;   -5.933;  -16.267;    0.000;10.33333
 383.26;  -11.600;  -24.533;    0.000;12.93333
 383.56;   10.933;    7.333;    0.000; 3.60000
 383.85;   -4.200;  -13.667;    0.000; 9.46667
 384.14;    3.467;    2.600;    0.000; 0.86667
 384.44;    1.400;  -26.267;    0.000;27.66667
 384.73;    5.533;    8.533;    0.000;-3.00000
 385.02;   -5.333;  -23.800;    0.000;18.46667
 385.32;   16.067;   -4.933;    0.000;21.00000
 385.61;  -20.400;  -17.333;    0.000;-3.06667
 385.91;    7.467;   -6.933;    0.000;14.40000
 386.20;  -18.800;  -30.267;    0.000;11.46667
 386.49;  -11.133;  -30.467;    0.000;19.33333
 386.79;   -5.933;    7.867;    0.000;-13.80000
 387.08;   -2.267;  -30.600;    0.000;28.33333
 387.37;  -16.533;  -20.267;    0.000; 3.73333
 387.67;   -1.800;  -21.600;    0.000;19.80000
 387.96;  -10.867;  -13.133;    0.000; 2.26667
 388.25;   19.467;   11.600;    0.000; 7.86667
 388.55;  -20.600;  -20.200;    0.000;-0.40000
 388.84;    5.200;  -14.533;    0.000;19.73333
 389.14;  -10.400;  -10.333;    0.000;-0.06667
 389.43;    3.333;   -7.467;    0.000;10.80000
 389.72;  -10.067;  -21.200;    0.000;11.13333
 390.02;  -10.267;    8.333;    0.000;-18.60000
 390.31;   -5.600;  -17.333;    0.000;11.73333
 390.60;   -5.667;  -17.933;    0.000;12.26667
 390.90;  -25.400;  -15.533;    0.000;-9.86667
 391.19;  -25.800;  -21.133;    0.000;-4.66667
 391.48;    1.867;  -18.733;    0.000;20.60000
 391.78;   -6.200;  -15.600;    0.000; 9.40000
 392.07;   41.133;   24.600;    0.000;16.53333
 392.36;    3.533;   -8.067;    0.000;11.60000
 392.66;  -18.467;   -9.933;    0.000;-8.53333
 392.95;  -17.467;  -23.400;    0.000; 5.93333
 393.24;  -13.667;   -7.667;    0.000;-6.00000
 393.53;   -3.267;  -25.267;    0.000;22.00000
 393.83;  -11.000;  -30.133;    0.000;19.13333
 394.12;    2.467;   -2.133;    0.000; 4.60000
 394.41;    1.933;   -0.733;    0.000; 2.66667
 394.71;   -4.333;   -2.267;    0.000;-2.06667
 395.00;  -11.867;   -8.667;    0.000;-3.20000
 395.29;   16.133;   -0.600;    0.000;16.73333
 395.59;  -30.400;  -33.333;    0.000; 2.93333
 395.88;  -17.333;   -9.800;    0.000;-7.53333
 396.17;  -30.867;  -29.400;    0.000;-1.46667
 396.46;    3.400;   -1.467;    0.000; 4.86667
 396.76;   -0.800;  -26.867;    0.000;26.06667
 397.05;   23.267;   31.267;    0.000;-8.00000
 397.34;  -23.800;  -28.200;    0.000; 4.40000
 397.64;  -16.133;  -27.000;    0.000;10.86667
 397.93;  -30.867;  -28.333;    0.000;-2.53333
 398.22;   -7.933;  -16.600;    0.000; 8.66667
 398.51;   -9.867;  -25.000;    0.000;15.13333
 398.81;   10.667;  -11.467;    0.000;22.13333
 399.10;  -20.667;  -16.800;    0.000;-3.86667
 399.39;   -4.000;  -22.000;    0.000;18.00000
 399.69;  -21.867;  -21.933;    0.000; 0.06667
 399.98;   -0.600;    5.200;    0.000;-5.80000
 400.27;  -30.333;  -31.733;    0.000; 1.40000
 400.56;   -9.400;  -13.400;    0.000; 4.00000
 400.86;  -12.533;  -22.467;    0.000; 9.93333
 401.15;  -11.000;   -5.467;    0.000;-5.53333
 401.44;  -24.333;  -24.333;    0.000; 0.00000
 401.73;   17.600;   -4.133;    0.000;21.73333
 402.03;  -16.600;  -29.533;    0.000;12.93333
 402.32;  -19.000;  -27.800;    0.000; 8.80000
 402.61;    0.333;  -19.667;    0.000;20.00000
 402.90;  -13.600;   -8.533;    0.000;-5.06667
 403.20;  -21.200;    3.667;    0.000;-24.86667
 403.49;   -3.133;  -21.867;    0.000;18.73333
 403.78;  -24.400;  -23.600;    0.000;-0.80000
 404.07;   -4.333;   -4.667;    0.000; 0.33333
 404.37;  -10.667;    1.400;    0.000;-12.06667
 404.66;  -20.467;  -18.667;    0.000;-1.80000
 404.95;    9.867;  -12.200;    0.000;22.06667
 405.24;    2.133;  -24.467;    0.000;26.60000
 405.53;  -19.400;  -20.800;    0.000; 1.40000
 405.83;   16.733;   -9.933;    0.000;26.66667
 406.12;  -37.333;  -19.200;    0.000;-18.13333
 406.41;   21.867;   -6.533;    0.000;28.40000
 406.70;  -19.667;  -20.600;    0.000; 0.93333
 407.00;   11.467;  -11.467;    0.000;22.93333
 407.29;  -20.467;  -23.067;    0.000; 2.60000
 407.58;  -10.200;  -22.400;    0.000;12.20000
 407.87;  -21.600;  -29.133;    0.000; 7.53333
 408.16;  -23.267;  -15.933;    0.000;-7.33333
 408.46;  -10.000;  -31.067;    0.000;21.06667
 408.75;   -1.533;  -17.733;    0.000;16.20000
 409.04;   -9.800;   -7.733;    0.000;-2.06667
 409.33;   -7.600;  -25.133;    0.000;17.53333
 409.62;  -10.200;  -19.000;    0.000; 8.80000
 409.92;  -11.533;   -0.600;    0.000;-10.93333
 410.21;  -34.000;  -31.667;    0.000;-2.33333
 410.50;  -19.067;  -24.333;    0.000; 5.26667
 410.79;   -3.000;   -1.333;    0.000;-1.66667
 411.08;    4.400;  -10.533;    0.000;14.93333
 411.37;  -35.000;  -37.067;    0.000; 2.06667
 411.67;  -19.667;  -34.533;    0.000;14.86667
 411.96;   -6.133;  -20.067;    0.000;13.93333
 412.25;    0.667;  -12.533;    0.000;13.20000
 412.54;  -15.067;  -34.133;    0.000;19.06667
 412.83;  -17.333;  -17.867;    0.000; 0.53333
 413.13;  -20.133;  -10.600;    0.000;-9.53333
 413.42;   -2.867;  -21.867;    0.000;19.00000
 413.71;   -4.867;  -13.400;    0.000; 8.53333
 414.00;  -18.067;  -17.800;    0.000;-0.26667
 414.29;    7.067;  -18.000;    0.000;25.06667
 414.58;   -4.733;  -16.067;    0.000;11.33333
 414.87;  -16.200;   -2.333;    0.000;-13.86667
 415.17;  -19.200;  -26.600;    0.000; 7.40000
 415.46;   -8.000;  -40.267;    0.000;32.26667
 415.75;   -1.400;   -4.333;    0.000; 2.93333
 416.04;   14.800;  -18.800;    0.000;33.60000
 416.33;   -8.867;  -21.000;    0.000;12.13333
 416.62;  -25.467;  -31.400;    0.000; 5.93333
 416.91;   -3.333;  -20.400;    0.000;17.06667
 417.21;  -22.933;  -32.667;    0.000; 9.73334
 417.50;  -13.133;  -23.400;    0.000;10.26667
 417.79;  -31.667;  -29.200;    0.000;-2.46667
 418.08;  -15.800;  -17.333;    0.000; 1.53333
 418.37;  -12.533;  -15.067;    0.000; 2.53333
 418.66;    0.933;  -24.933;    0.000;25.86667
 418.95;   11.133;  -13.667;    0.000;24.80000
 419.24;   -0.733;  -24.600;    0.000;23.86667
 419.54;  -25.600;  -27.733;    0.000; 2.13333
 419.83;    0.133;  -11.733;    0.000;11.86667
 420.12;  -33.000;  -10.133;    0.000;-22.86667
 420.41;   17.067;    8.533;    0.000; 8.53333
 420.70;  -22.200;  -16.467;    0.000;-5.73333
 420.99;   -5.267;  -15.600;    0.000;10.33333
 421.28;  -15.333;  -13.400;    0.000;-1.93333
 421.57;   -5.000;  -12.200;    0.000; 7.20000
 421.86;   16.333;   -8.000;    0.000;24.33333
 422.16;   -3.800;  -28.133;    0.000;24.33333
 422.45;  -15.200;  -26.267;    0.000;11.06667
 422.74;  -23.733;  -17.267;    0.000;-6.46667
 423.03;  -17.267;  -17.800;    0.000; 0.53333
 423.32;   10.733;  -12.400;    0.000;23.13333
 423.61;    9.800;  -15.867;    0.000;25.66667
 423.90;   -9.467;   -1.333;    0.000;-8.13333
 424.19;   27.267;   27.000;    0.000; 0.26667
 424.48;    5.467;  -16.267;    0.000;21.73333
 424.77;  -15.000;  -16.400;    0.000; 1.40000
 425.06;    8.000;   -5.600;    0.000;13.60000
 425.35;   -4.800;   -0.667;    0.000;-4.13333
 425.65;  -12.133;  -20.067;    0.000; 7.93333
 425.94;  -19.600;  -24.600;    0.000; 5.00000
 426.23;  -26.267;  -23.267;    0.000;-3.00000
 426.52;  -32.667;  -33.333;    0.000; 0.66666
 426.81;   35.800;    1.333;    0.000;34.46667
 427.10;  -14.733;  -28.000;    0.000;13.26667
 427.39;   -7.800;    0.267;    0.000;-8.06667
 427.68;   -9.600;  -26.400;    0.000;16.80000
 427.97;    2.600;   -6.400;    0.000; 9.00000
 428.26;  -21.333;  -35.667;    0.000;14.33333
 428.55;   17.333;   -5.933;    0.000;23.26667
 428.84;  -10.600;    2.400;    0.000;-13.00000
 429.13;   -3.867;  -11.667;    0.000; 7.80000
 429.42;   -6.267;  -19.333;    0.000;13.06667
 429.71;   -8.533;    8.400;    0.000;-16.93333
 430.00;  -21.267;  -20.667;    0.000;-0.60000
 430.29;  -26.400;  -17.267;    0.000;-9.13333
 430.58;  -39.467;  -14.267;    0.000;-25.20000
 430.87;  -15.600;  -32.800;    0.000;17.20000
 431.16;  -35.667;  -34.200;    0.000;-1.46667
 431.46;   10.267;   -2.467;    0.000;12.73333
 431.75;  -28.267;  -30.600;    0.000; 2.33333
 432.04;   28.800;    2.467;    0.000;26.33333
 432.33;  -10.800;  -26.667;    0.000;15.86667
 432.62;  -11.533;  -24.600;    0.000;13.06667
 432.91;  -11.867;  -45.867;    0.000;34.00000
 433.20;   -5.333;  -12.467;    0.000; 7.13333
 433.49;  -27.133;  -23.333;    0.000;-3.80000
 433.78;  -31.200;  -20.933;    0.000;-10.26667
 434.07;  -16.200;  -39.133;    0.000;22.93333
 434.36;  -25.133;  -26.800;    0.000; 1.66667
 434.65;  -35.800;  -33.333;    0.000;-2.46667
 434.94;  -15.133;  -18.200;    0.000; 3.06667
 435.23;   -1.067;  -18.067;    0.000;17.00000
 435.52;   -1.400;    4.133;    0.000;-5.53333
 435.81;  -36.000;   -2.267;    0.000;-33.73333
 436.10;   -2.667;   -0.933;    0.000;-1.73333
 436.39;    5.267;   -8.000;    0.000;13.26667
 436.68;   19.667;  -10.067;    0.000;29.73333
 436.97;  -31.867;  -30.733;    0.000;-1.13333
 437.26;    1.067;  -12.267;    0.000;13.33333
 437.55;  -20.600;  -19.000;    0.000;-1.60000
 437.83;  -24.200;  -35.933;    0.000;11.73333
 438.12;  -20.533;  -37.733;    0.000;17.20000
 438.41;   -8.400;  -19.067;    0.000;10.66667
 438.70;    6.267;   16.933;    0.000;-10.66667
 438.99;   17.733;   10.267;    0.000; 7.46667
 439.28;   -8.533;  -18.533;    0.000;10.00000
 439.57;  -25.267;  -23.000;    0.000;-2.26667
 439.86;  -17.200;  -21.200;    0.000; 4.00000
 440.15;   -7.133;   -6.800;    0.000;-0.33333
 440.44;  -11.933;  -11.267;    0.000;-0.66667
 440.73;  -16.067;  -19.467;    0.000; 3.40000
 441.02;  -23.933;  -25.667;    0.000; 1.73333
 441.31;   -2.067;  -13.200;    0.000;11.13333
 441.60;   -9.400;  -18.400;    0.000; 9.00000
 441.89;  -22.867;  -31.067;    0.000; 8.20000
 442.18;   -9.400;  -23.200;    0.000;13.80000
 442.47;  -11.267;   -7.533;    0.000;-3.73333
 442.76;  -24.533;  -40.200;    0.000;15.66667
 443.05;   -4.400;    2.467;    0.000;-6.86667
 443.34;  -25.600;   -4.000;    0.000;-21.60000
 443.63;   -7.733;  -22.800;    0.000;15.06667
 443.91;  -28.400;  -13.533;    0.000;-14.86667
 444.20;   -2.533;  -17.467;    0.000;14.93333
 444.49;  -31.733;  -35.267;    0.000; 3.53333
 444.78;  -15.333;  -13.933;    0.000;-1.40000
 445.07;   -3.800;   -3.733;    0.000;-0.06667
 445.36;  -27.400;  -38.533;    0.000;11.13333
 445.65;  -23.867;  -19.400;    0.000;-4.46667
 445.94;   -0.667;  -29.400;    0.000;28.73333
 446.23;  -13.067;   -2.867;    0.000;-10.20000
 446.52;   -5.333;    1.733;    0.000;-7.06667
 446.81;  -36.800;  -30.733;    0.000;-6.06667
 447.10;   10.533;  -26.533;    0.000;37.06667
 447.38;  -30.667;  -25.333;    0.000;-5.33333
 447.67;    5.000;  -17.000;    0.000;22.00000
 447.96;  -26.400;  -17.800;    0.000;-8.60000
 448.25;  -15.667;   -3.267;    0.000;-12.40000
 448.54;   98.933;   67.267;    0.000;31.66666
 448.83;  -10.200;    1.133;    0.000;-11.33333
 449.12;  -20.067;  -33.733;    0.000;13.66667
 449.41;    1.733;  -32.600;    0.000;34.33333
 449.70;  -31.133;  -31.067;    0.000;-0.06667
 449.98;   -7.400;  -30.067;    0.000;22.66667
 450.27;   -9.867;  -25.400;    0.000;15.53333
 450.56;   -6.733;  -29.333;    0.000;22.60000
 450.85;  -17.733;  -20.933;    0.000; 3.20000
 451.14;  -23.667;  -24.267;    0.000; 0.60000
 451.43;  -35.933;  -29.933;    0.000;-6.00000
 451.72;  -22.133;  -11.267;    0.000;-10.86667
 452.01;   -8.667;  -12.733;    0.000; 4.06667
 452.29;   -6.133;  -37.800;    0.000;31.66667
 452.58;  -25.267;  -28.000;    0.000; 2.73333
 452.87;  -14.867;  -25.400;    0.000;10.53333
 453.16;  -11.867;  -34.200;    0.000;22.33333
 453.45;   26.200;   -9.667;    0.000;35.86667
 453.74;  -14.800;  -23.933;    0.000; 9.13333
 454.03;  -11.867;  -20.400;    0.000; 8.53333
 454.31;  -50.800;  -25.600;    0.000;-25.20000
 454.60;  -16.400;  -19.400;    0.000; 3.00000
 454.89;   -7.667;  -10.333;    0.000; 2.66667
 455.18;  -37.600;  -23.733;    0.000;-13.86666
 455.47;  -35.600;  -25.600;    0.000;-10.00000
 455.76;  -21.800;   -6.133;    0.000;-15.66667
 456.04;  -13.600;  -14.800;    0.000; 1.20000
 456.33;  -31.000;  -23.800;    0.000;-7.20000
 456.62;  -21.733;  -22.200;    0.000; 0.46667
 456.91;  -22.200;  -21.600;    0.000;-0.60000
 457.20;  -13.933;  -15.600;    0.000; 1.66667
 457.49;   -0.800;   -8.733;    0.000; 7.93333
 457.77;  -18.267;  -37.067;    0.000;18.80000
 458.06;   -8.600;   -5.933;    0.000;-2.66667
 458.35;  -36.733;  -29.333;    0.000;-7.40000
 458.64;    1.333;  -16.400;    0.000;17.73333
 458.93;  -26.200;  -32.267;    0.000; 6.06667
 459.21;  -19.067;  -13.867;    0.000;-5.20000
 459.50;  -19.733;  -29.400;    0.000; 9.66667
 459.79;   -1.400;  -22.333;    0.000;20.93333
 460.08;  -22.867;  -22.600;    0.000;-0.26667
 460.37;    5.400;  -28.733;    0.000;34.13333
 460.65;  -20.733;  -21.467;    0.000; 0.73333
 460.94;  -16.067;  -12.933;    0.000;-3.13333
 461.23;  -20.600;  -17.200;    0.000;-3.40000
 461.52;   -4.200;   14.667;    0.000;-18.86667
 461.81;  -12.800;  -27.333;    0.000;14.53333
 462.09;  -14.733;   -8.067;    0.000;-6.66667
 462.38;  -41.600;  -30.333;    0.000;-11.26666
 462.67;    2.400;  -11.400;    0.000;13.80000
 462.96;  -30.600;  -35.867;    0.000; 5.26666
 463.24;  -12.133;   -1.733;    0.000;-10.40000
 463.53;  -36.800;   -9.333;    0.000;-27.46667
 463.82;  -16.067;  -32.400;    0.000;16.33333
 464.11;  -45.400;  -17.400;    0.000;-28.00000
 464.40;  -20.333;  -25.933;    0.000; 5.60000
 464.68;  -18.867;  -30.267;    0.000;11.40000
 464.97;  -21.267;  -20.000;    0.000;-1.26667
 465.26;   -7.333;  -19.600;    0.000;12.26667
 465.55;  -12.000;   -7.600;    0.000;-4.40000
 465.83;  -26.133;  -34.933;    0.000; 8.80000
 466.12;  -10.333;  -31.400;    0.000;21.06667
 466.41;  -26.733;  -32.933;    0.000; 6.20000
 466.70;  -31.333;  -36.000;    0.000; 4.66667
 466.98;  -23.600;  -15.867;    0.000;-7.73333
 467.27;    3.133;   -6.467;    0.000; 9.60000
 467.56;    9.867;  -19.733;    0.000;29.60000
 467.85;   -3.267;  -10.267;    0.000; 7.00000
 468.13;  -17.400;  -31.933;    0.000;14.53333
 468.42;   15.400;   -2.200;    0.000;17.60000
 468.71;  -22.733;  -19.600;    0.000;-3.13333
 468.99;    4.067;  -30.600;    0.000;34.66667
 469.28;  -16.267;  -31.333;    0.000;15.06667
 469.57;  -25.000;  -22.067;    0.000;-2.93333
 469.86;  -30.933;   -7.733;    0.000;-23.20000
 470.14;  -14.467;  -28.533;    0.000;14.06667
 470.43;   12.733;  -15.200;    0.000;27.93333
 470.72;  -39.867;  -20.733;    0.000;-19.13333
 471.00;  -27.600;  -30.200;    0.000; 2.60000
 471.29;   11.933;  -11.267;    0.000;23.20000
 471.58;    3.667;   -9.733;    0.000;13.40000
 471.87;   -8.933;  -10.800;    0.000; 1.86667
 472.15;  -10.467;  -20.600;    0.000;10.13333
 472.44;    9.067;   -9.667;    0.000;18.73333
 472.73;  -42.867;  -17.267;    0.000;-25.60000
 473.01;  -12.067;  -10.133;    0.000;-1.93333
 473.30;   -4.067;  -23.200;    0.000;19.13333
 473.59;   15.267;  -34.867;    0.000;50.13333
 473.87;  -11.867;  -32.067;    0.000;20.20000
 474.16;   -6.267;  -33.067;    0.000;26.80000
 474.45;  -19.333;  -29.400;    0.000;10.06667
 474.74;   -8.400;  -32.333;    0.000;23.93333
 475.02;   -3.200;  -28.600;    0.000;25.40000
 475.31;   11.933;  -19.733;    0.000;31.66667
 475.60;   -0.600;   -1.867;    0.000; 1.26667
 475.88;   -3.800;  -18.067;    0.000;14.26667
 476.17;   12.733;  -14.800;    0.000;27.53333
 476.46;    0.667;  -30.267;    0.000;30.93333
 476.74;    6.400;  -31.333;    0.000;37.73333
 477.03;    0.067;  -32.333;    0.000;32.40000
 477.32;   13.400;  -22.800;    0.000;36.20000
 477.60;   10.600;  -23.933;    0.000;34.53333
 477.89;    6.867;  -16.267;    0.000;23.13333
 478.18;   29.267;  -25.667;    0.000;54.93333
 478.46;   11.867;  -22.200;    0.000;34.06667
 478.75;   29.600;  -21.667;    0.000;51.26667
 479.03;   24.600;  -35.333;    0.000;59.93333
 479.32;   52.867;   -5.800;    0.000;58.66667
 479.61;   51.800;  -18.133;    0.000;69.93333
 479.89;   63.400;  -50.133;    0.000;113.53334
 480.18;   59.667;  -32.533;    0.000;92.20000
 480.47;   81.733;  -22.933;    0.000;104.66666
 480.75;   75.400;  -25.800;    0.000;101.20000
 481.04;   93.267;  -15.867;    0.000;109.13334
 481.33;  102.533;  -23.733;    0.000;126.26667
 481.61;  112.533;  -23.800;    0.000;136.33333
 481.90;  105.400;  -32.267;    0.000;137.66667
 482.18;  148.667;    8.400;    0.000;140.26667
 482.47;  166.933;  -15.400;    0.000;182.33333
 482.76;  176.000;  -31.333;    0.000;207.33333
 483.04;  193.267;  -28.267;    0.000;221.53333
 483.33;  183.933;  -37.133;    0.000;221.06667
 483.61;  185.400;   -7.667;    0.000;193.06666
 483.90;  223.467;  -16.600;    0.000;240.06666
 484.19;  238.133;  -36.533;    0.000;274.66666
 484.47;  256.867;  -32.067;    0.000;288.93333
 484.76;  237.133;  -45.267;    0.000;282.40000
 485.05;  310.667;  -18.467;    0.000;329.13332
 485.33;  322.133;  -24.933;    0.000;347.06666
 485.62;  317.067;  -27.600;    0.000;344.66668
 485.90;  349.933;  -20.667;    0.000;370.59999
 486.19;  373.667;  -22.000;    0.000;395.66666
 486.47;  403.600;  -14.933;    0.000;418.53334
 486.76;  412.000;  -24.933;    0.000;436.93333
 487.05;  476.667;   -3.200;    0.000;479.86666
 487.33;  474.867;   -4.667;    0.000;479.53334
 487.62;  500.800;  -40.867;    0.000;541.66665
 487.90;  556.000;  -32.667;    0.000;588.66667
 488.19;  569.200;   -9.933;    0.000;579.13335
 488.47;  609.400;  -17.733;    0.000;627.13336
 488.76;  600.267;  -21.267;    0.000;621.53333
 489.05;  687.867;  -18.533;    0.000;706.39997
 489.33;  677.400;  -33.533;    0.000;710.93336
 489.62;  702.267;  -28.400;    0.000;730.66666
 489.90;  725.000;  -44.400;    0.000;769.40000
 490.19;  773.467;  -20.867;    0.000;794.33334
 490.47;  808.467;  -26.133;    0.000;834.60001
 490.76;  869.933;  -18.933;    0.000;888.86668
 491.05;  879.400;  -17.000;    0.000;896.40002
 491.33;  927.400;  -16.467;    0.000;943.86669
 491.62;  976.333;  -31.067;    0.000;1007.39998
 491.90; 1021.067;  -26.733;    0.000;1047.79998
 492.19; 1041.133;  -17.333;    0.000;1058.46663
 492.47; 1109.733;  -28.133;    0.000;1137.86661
 492.76; 1141.200;  -37.667;    0.000;1178.86662
 493.04; 1179.600;  -12.933;    0.000;1192.53331
 493.33; 1207.667;  -37.667;    0.000;1245.33329
 493.61; 1314.400;  -24.133;    0.000;1338.53336
 493.90; 1296.000;  -26.533;    0.000;1322.53333
 494.18; 1371.800;    3.467;    0.000;1368.33338
 494.47; 1404.067;   -8.000;    0.000;1412.06665
 494.75; 1413.200;  -29.667;    0.000;1442.86662
 495.04; 1506.267;  -43.067;    0.000;1549.33339
 495.32; 1498.600;  -17.400;    0.000;1515.99998
 495.61; 1581.867;  -35.467;    0.000;1617.33337
 495.89; 1628.067;  -34.733;    0.000;1662.79998
 496.18; 1697.267;  -32.600;    0.000;1729.86672
 496.46; 1721.333;  -32.400;    0.000;1753.73338
 496.75; 1809.267;  -29.933;    0.000;1839.20006
 497.03; 1836.467;  -26.667;    0.000;1863.13334
 497.32; 1865.267;  -15.000;    0.000;1880.26672
 497.60; 1945.000;  -22.467;    0.000;1967.46667
 497.89; 1988.533;  -17.533;    0.000;2006.06666
 498.17; 2076.933;  -24.800;    0.000;2101.73335
 498.46; 2139.467;  -48.133;    0.000;2187.59989
 498.74; 2157.333;   -5.200;    0.000;2162.53325
 499.03; 2214.800;  -17.000;    0.000;2231.80005
 499.31; 2267.467;  -20.400;    0.000;2287.86655
 499.60; 2321.267;  -14.667;    0.000;2335.93327
 499.88; 2407.400;    9.933;    0.000;2397.46657
 500.17; 2418.667;  -35.267;    0.000;2453.93341
 500.45; 2487.267;  -20.600;    0.000;2507.86660
 500.74; 2541.133;  -31.000;    0.000;2572.13330
 501.02; 2608.867;  -37.267;    0.000;2646.13337
 501.31; 2676.733;  -32.600;    0.000;2709.33340
 501.59; 2733.133;  -35.533;    0.000;2768.66663
 501.88; 2733.333;  -27.200;    0.000;2760.53325
 502.16; 2788.133;  -20.733;    0.000;2808.86663
 502.45; 2897.600;  -19.667;    0.000;2917.26676
 502.73; 2928.067;  -10.000;    0.000;2938.06665
 503.01; 3012.533;  -29.133;    0.000;3041.66678
 503.30; 3060.333;  -48.200;    0.000;3108.53325
 503.58; 3094.067;  -34.133;    0.000;3128.19999
 503.87; 3129.267;  -23.333;    0.000;3152.59994
 504.15; 3139.000;  -31.200;    0.000;3170.20000
 504.44; 3328.533;  -12.333;    0.000;3340.86678
 504.72; 3337.133;   -0.267;    0.000;3337.39997
 505.00; 3370.200;  -18.200;    0.000;3388.39995
 505.29; 3429.200;  -24.533;    0.000;3453.73328
 505.57; 3475.800;  -18.400;    0.000;3494.20005
 505.86; 3547.667;  -30.200;    0.000;3577.86675
 506.14; 3633.200;  -42.933;    0.000;3676.13329
 506.43; 3678.667;  -12.800;    0.000;3691.46675
 506.71; 3721.667;  -41.267;    0.000;3762.93341
 506.99; 3742.000;  -35.133;    0.000;3777.13334
 507.28; 3868.800;  -11.467;    0.000;3880.26672
 507.56; 3818.667;  -17.667;    0.000;3836.33341
 507.85; 3947.533;  -14.667;    0.000;3962.20011
 508.13; 3967.533;  -27.200;    0.000;3994.73345
 508.41; 4083.067;   22.933;    0.000;4060.13332
 508.70; 4105.533;   -9.000;    0.000;4114.53320
 508.98; 4151.867;  -16.800;    0.000;4168.66670
 509.27; 4233.333;  -26.867;    0.000;4260.20016
 509.55; 4292.533;  -10.533;    0.000;4303.06654
 509.83; 4320.933;  -46.200;    0.000;4367.13311
 510.12; 4349.467;  -30.200;    0.000;4379.66680
 510.40; 4444.667;   -9.733;    0.000;4454.39984
 510.69; 4514.800;  -31.000;    0.000;4545.79980
 510.97; 4528.667;  -16.867;    0.000;4545.53317
 511.25; 4602.067;  -24.067;    0.000;4626.13356
 511.54; 4665.200;  -24.933;    0.000;4690.13353
 511.82; 4711.667;    1.067;    0.000;4710.59984
 512.11; 4730.800;  -21.000;    0.000;4751.79980
 512.39; 4807.533;  -21.200;    0.000;4828.73320
 512.67; 4873.933;   -6.200;    0.000;4880.13311
 512.96; 4960.200;  -37.733;    0.000;4997.93353
 513.24; 4983.200;  -26.800;    0.000;5010.00019
 513.52; 5033.267;   -2.933;    0.000;5036.19993
 513.81; 5053.933;   -4.600;    0.000;5058.53311
 514.09; 5071.067;  -21.400;    0.000;5092.46689
 514.37; 5122.067;  -10.600;    0.000;5132.66689
 514.66; 5229.133;   -7.800;    0.000;5236.93330
 514.94; 5126.133;  -32.133;    0.000;5158.26664
 515.22; 5273.600;  -20.000;    0.000;5293.60010
 515.51; 5270.667;  -29.600;    0.000;5300.26650
 515.79; 5466.933;  -25.267;    0.000;5492.19977
 516.07; 5356.000;  -25.867;    0.000;5381.86667
 516.36; 5428.600;  -37.067;    0.000;5465.66676
 516.64; 5510.267;  -34.600;    0.000;5544.86660
 516.92; 5628.200;  -23.733;    0.000;5651.93353
 517.21; 5557.867;  -28.067;    0.000;5585.93337
 517.49; 5761.333;  -31.800;    0.000;5793.13350
 517.77; 5779.067;   -5.200;    0.000;5784.26689
 518.06; 5850.000;  -25.933;    0.000;5875.93333
 518.34; 5857.000;  -33.800;    0.000;5890.80000
 518.62; 5961.200;   -4.533;    0.000;5965.73353
 518.91; 6092.800;  131.467;    0.000;5961.33315
 519.19; 6082.000;  -11.800;    0.000;6093.80000
 519.47; 6087.800;   -7.133;    0.000;6094.93314
 519.76; 6171.667;   -5.533;    0.000;6177.19984
 520.04; 6150.933;   -8.933;    0.000;6159.86644
 520.32; 6231.000;  -10.600;    0.000;6241.60000
 520.61; 6292.800;   10.667;    0.000;6282.13314
 520.89; 6289.933;  -14.000;    0.000;6303.93311
 521.17; 6394.667;  -29.867;    0.000;6424.53317
 521.45; 6425.067;  -16.067;    0.000;6441.13356
 521.74; 6466.600;  -17.200;    0.000;6483.80010
 522.02; 6489.400;  -21.267;    0.000;6510.66657
 522.30; 6478.000;  -20.200;    0.000;6498.20000
 522.59; 6584.667;    6.267;    0.000;6578.39984
 522.87; 6605.467;    3.800;    0.000;6601.66680
 523.15; 6653.467;    3.067;    0.000;6650.40013
 523.43; 6634.600;  -39.333;    0.000;6673.93343
 523.72; 6740.067;  -22.933;    0.000;6763.00023
 524.00; 6745.000;  -22.333;    0.000;6767.33333
 524.28; 6755.667;  -22.133;    0.000;6777.79984
 524.57; 6862.733;  -14.867;    0.000;6877.60007
 524.85; 6896.600;  -26.000;    0.000;6922.60010
 525.13; 6986.800;  -16.000;    0.000;7002.79980
 525.41; 7004.133;  -26.933;    0.000;7031.06663
 525.70; 7050.733;  -41.200;    0.000;7091.93340
 525.98; 6939.600;  -18.467;    0.000;6958.06676
 526.26; 7161.867;  -24.667;    0.000;7186.53337
 526.54; 7090.867;  -19.867;    0.000;7110.73337
 526.83; 7166.200;  -19.600;    0.000;7185.80020
 527.11; 7196.267;   -3.067;    0.000;7199.33327
 527.39; 7251.000;   -9.200;    0.000;7260.20000
 527.67; 7318.867;  -15.000;    0.000;7333.86670
 527.96; 7276.533;  -16.600;    0.000;7293.13320
 528.24; 7339.200;  -30.867;    0.000;7370.06686
 528.52; 7424.400;  -16.733;    0.000;7441.13324
 528.80; 7458.533;   10.400;    0.000;7448.13320
 529.08; 7460.067;  -21.133;    0.000;7481.20023
 529.37; 7499.000;  -23.667;    0.000;7522.66667
 529.65; 7532.200;   -2.867;    0.000;7535.06686
 529.93; 7543.333;   -7.800;    0.000;7551.13350
 530.21; 7553.667;  -29.867;    0.000;7583.53317
 530.50; 7606.467;  -12.267;    0.000;7618.73346
 530.78; 7609.067;  -23.333;    0.000;7632.40023
 531.06; 7666.200;  -24.200;    0.000;7690.40020
 531.34; 7731.267;  -18.733;    0.000;7749.99994
 531.62; 7820.133;  -22.333;    0.000;7842.46663
 531.91; 7797.200;  -32.067;    0.000;7829.26686
 532.19; 7816.600;  -24.467;    0.000;7841.06676
 532.47; 7849.600;  -14.600;    0.000;7864.20010
 532.75; 7904.600;   -7.733;    0.000;7912.33343
 533.03; 7907.933;   13.200;    0.000;7894.73311
 533.32; 7976.867;   -6.533;    0.000;7983.40003
 533.60; 7868.533;   -6.333;    0.000;7874.86654
 533.88; 7996.467;   10.867;    0.000;7985.60013
 534.16; 8006.267;  -34.533;    0.000;8040.79993
 534.44; 8083.467;    5.133;    0.000;8078.33346
 534.72; 8105.533;  -28.333;    0.000;8133.86654
 535.01; 8081.133;  -34.333;    0.000;8115.46663
 535.29; 8173.267;  -26.867;    0.000;8200.13327
 535.57; 8144.933;  -25.333;    0.000;8170.26644
 535.85; 8211.000;  -21.200;    0.000;8232.20000
 536.13; 8224.800;  -14.533;    0.000;8239.33314
 536.42; 8222.134;  -26.133;    0.000;8248.26712
 536.70; 8291.000;  -21.267;    0.000;8312.26667
 536.98; 8338.934;  -12.400;    0.000;8351.33359
 537.26; 8332.866;  -10.067;    0.000;8342.93288
 537.54; 8340.667;  -10.533;    0.000;8351.20033
 537.82; 8359.800;    3.800;    0.000;8355.99980
 538.10; 8440.600;  -15.667;    0.000;8456.26628
 538.39; 8525.400;   -7.867;    0.000;8533.26706
 538.67; 8403.333;   -9.667;    0.000;8412.99967
 538.95; 8487.467;  -27.000;    0.000;8514.46680
 539.23; 8400.000;  -35.600;    0.000;8435.60000
 539.51; 8614.000;   -9.933;    0.000;8623.93333
 539.79; 8510.733;  -34.533;    0.000;8545.26673
 540.07; 8466.333;  -43.267;    0.000;8509.59967
 540.36; 8554.467;  -42.867;    0.000;8597.33346
 540.64; 8529.533;  -23.600;    0.000;8553.13320
 540.92; 8638.533;  -21.667;    0.000;8660.19987
 541.20; 8644.667;  -11.133;    0.000;8655.80033
 541.48; 8783.134;    0.200;    0.000;8782.93379
 541.76; 8724.267;  -12.067;    0.000;8736.33327
 542.04; 8693.467;  -18.400;    0.000;8711.86680
 542.32; 8755.333;  -27.000;    0.000;8782.33301
 542.61; 8812.934;  -18.600;    0.000;8831.53359
 542.89; 8867.533;    0.067;    0.000;8867.46654
 543.17; 8818.934;  -37.133;    0.000;8856.06693
 543.45; 8859.866;  -35.000;    0.000;8894.86621
 543.73; 8883.667;  -23.467;    0.000;8907.13366
 544.01; 8876.533;  -11.000;    0.000;8887.53320
 544.29; 8912.934;  -20.733;    0.000;8933.66693
 544.57; 8816.934;  -25.600;    0.000;8842.53359
 544.85; 8925.667;  -20.733;    0.000;8946.40033
 545.13; 8961.866;   -7.733;    0.000;8969.59954
 545.42; 8883.134;   -8.600;    0.000;8891.73379
 545.70; 8969.533;  -10.667;    0.000;8980.19987
 545.98; 9021.267;  -30.667;    0.000;9051.93327
 546.26; 8962.267;    2.867;    0.000;8959.39994
 546.54; 8898.467;  -23.667;    0.000;8922.13346
 546.82; 8998.200;  -17.600;    0.000;9015.80020
 547.10; 9091.667;    5.533;    0.000;9086.13366
 547.38; 9073.733;  -20.267;    0.000;9094.00006
 547.66; 9010.934;  -15.600;    0.000;9026.53359
 547.94; 9056.733;  -31.333;    0.000;9088.06673
 548.22; 9056.000;  -27.600;    0.000;9083.60000
 548.50; 9054.934;  -28.400;    0.000;9083.33359
 548.78; 9082.400;  -19.533;    0.000;9101.93372
 549.06; 9123.733;  -10.200;    0.000;9133.93340
 549.34; 9147.200;  -26.867;    0.000;9174.06686
 549.63; 9107.800;   17.867;    0.000;9089.93314
 549.91; 9088.667;   -6.400;    0.000;9095.06699
 550.19; 8999.000;  -18.400;    0.000;9017.40000
 550.47; 9057.733;  -19.800;    0.000;9077.53340
 550.75; 9082.000;  -22.800;    0.000;9104.80000
 551.03; 9120.200;  -26.067;    0.000;9146.26686
 551.31; 9049.400;   -8.600;    0.000;9058.00039
 551.59; 9107.533;  -15.200;    0.000;9122.73320
 551.87; 9167.667;   -8.333;    0.000;9176.00033
 552.15; 9015.667;  -31.267;    0.000;9046.93366
 552.43; 9212.800;   -4.533;    0.000;9217.33314
 552.71; 9140.667;  -23.467;    0.000;9164.13366
 552.99; 9133.134;  -20.533;    0.000;9153.66712
 553.27; 9113.134;  -33.800;    0.000;9146.93379
 553.55; 9186.800;  -17.667;    0.000;9204.46647
 553.83; 9129.134;  -31.533;    0.000;9160.66712
 554.11; 9183.134;  -13.267;    0.000;9196.40046
 554.39; 9214.400;   -4.333;    0.000;9218.73372
 554.67; 9154.467;  -21.467;    0.000;9175.93346
 554.95; 9141.667;    6.667;    0.000;9135.00033
 555.23; 9181.533;    3.533;    0.000;9177.99987
 555.51; 9192.134;  -33.867;    0.000;9226.00045
 555.79; 9171.200;  -16.067;    0.000;9187.26686
 556.07; 9136.267;  -17.467;    0.000;9153.73327
 556.35; 9137.066;  -18.600;    0.000;9155.66641
 556.63; 9078.333;  -16.667;    0.000;9094.99967
 556.91; 9121.667;   -5.867;    0.000;9127.53366
 557.19; 9157.333;  -13.600;    0.000;9170.93301
 557.47; 9100.000;   -8.267;    0.000;9108.26667
 557.75; 9118.333;  -27.267;    0.000;9145.59967
 558.03; 9133.934;    5.200;    0.000;9128.73359
 558.31; 9136.400;  -33.533;    0.000;9169.93372
 558.59; 9187.866;  -18.267;    0.000;9206.13288
 558.87; 9146.600;  -21.467;    0.000;9168.06628
 559.15; 9194.066;  -29.133;    0.000;9223.19974
 559.43; 9063.934;   -9.467;    0.000;9073.40026
 559.71; 9129.400;   -1.267;    0.000;9130.66706
 559.99; 9093.733;  -21.067;    0.000;9114.80007
 560.27; 9098.600;   -9.467;    0.000;9108.06628
 560.55; 9042.667;   -7.400;    0.000;9050.06699
 560.82; 9095.800;  -30.733;    0.000;9126.53314
 561.10; 9086.134;  -22.667;    0.000;9108.80046
 561.38; 9098.800;    3.733;    0.000;9095.06647
 561.66; 8984.600;  -16.200;    0.000;9000.79961
 561.94; 9093.333;  -25.267;    0.000;9118.59967
 562.22; 9018.866;  -14.267;    0.000;9033.13288
 562.50; 9008.733;   -4.733;    0.000;9013.46673
 562.78; 8990.200;  -19.333;    0.000;9009.53353
 563.06; 8964.667;  -12.400;    0.000;8977.06699
 563.34; 9001.333;  -24.133;    0.000;9025.46634
 563.62; 9007.600;   -9.867;    0.000;9017.46628
 563.90; 8985.066;  -31.467;    0.000;9016.53307
 564.18; 8888.533;  -19.867;    0.000;8908.39987
 564.46; 8968.134;  -11.600;    0.000;8979.73379
 564.74; 8982.667;  -16.467;    0.000;8999.13366
 565.01; 8842.267;  -22.467;    0.000;8864.73327
 565.29; 8837.467;   -8.933;    0.000;8846.40013
 565.57; 8845.800;  -23.000;    0.000;8868.79980
 565.85; 8883.667;   -3.267;    0.000;8886.93366
 566.13; 8853.800;  -16.533;    0.000;8870.33314
 566.41; 8811.800;   23.600;    0.000;8788.19980
 566.69; 8733.934;  -21.133;    0.000;8755.06693
 566.97; 8849.467;  -13.267;    0.000;8862.73346
 567.25; 8787.800;   -6.867;    0.000;8794.66647
 567.53; 8771.667;  -28.867;    0.000;8800.53366
 567.80; 8699.467;   -2.600;    0.000;8702.06680
 568.08; 8668.200;   -7.267;    0.000;8675.46686
 568.36; 8665.134;  -24.600;    0.000;8689.73379
 568.64; 8645.000;  -19.067;    0.000;8664.06667
 568.92; 8646.200;    1.467;    0.000;8644.73353
 569.20; 8562.533;  -12.667;    0.000;8575.19987
 569.48; 8672.066;  -29.467;    0.000;8701.53307
 569.76; 8560.400;  -36.933;    0.000;8597.33372
 570.03; 8553.200;  -11.400;    0.000;8564.60019
 570.31; 8521.000;   -9.600;    0.000;8530.60000
 570.59; 8490.533;  -14.600;    0.000;8505.13320
 570.87; 8472.333;  -11.267;    0.000;8483.59967
 571.15; 8339.600;  -39.867;    0.000;8379.46627
 571.43; 8435.000;  -28.933;    0.000;8463.93333
 571.71; 8369.400;  -31.267;    0.000;8400.66706
 571.98; 8354.400;  -11.600;    0.000;8366.00039
 572.26; 8370.866;  -15.267;    0.000;8386.13288
 572.54; 8369.667;  -12.333;    0.000;8382.00033
 572.82; 8292.800;  -26.200;    0.000;8318.99981
 573.10; 8286.267;   -9.933;    0.000;8296.19993
 573.38; 8241.866;  -22.800;    0.000;8264.66621
 573.66; 8152.600;  -18.133;    0.000;8170.73343
 573.93; 8200.667;   -3.800;    0.000;8204.46699
 574.21; 8168.200;  -28.933;    0.000;8197.13353
 574.49; 8131.333;  -27.933;    0.000;8159.26683
 574.77; 8190.667;   -7.667;    0.000;8198.33317
 575.05; 8120.667;  -19.067;    0.000;8139.73317
 575.33; 8045.600;  -24.600;    0.000;8070.20010
 575.60; 8040.800;  -31.400;    0.000;8072.19980
 575.88; 8050.800;  -17.467;    0.000;8068.26647
 576.16; 7952.800;  -16.000;    0.000;7968.79980
 576.44; 7934.333;   -9.867;    0.000;7944.20016
 576.72; 7972.000;   -9.067;    0.000;7981.06667
 576.99; 7900.533;  -19.867;    0.000;7920.39987
 577.27; 7843.267;  -11.400;    0.000;7854.66660
 577.55; 7891.333;    2.200;    0.000;7889.13350
 577.83; 7785.733;  -25.000;    0.000;7810.73340
 578.11; 7792.333;   -3.200;    0.000;7795.53350
 578.38; 7743.200;  -26.133;    0.000;7769.33353
 578.66; 7725.400;  -26.667;    0.000;7752.06657
 578.94; 7597.067;  -41.867;    0.000;7638.93356
 579.22; 7612.800;  -27.600;    0.000;7640.39981
 579.50; 7608.067;    2.933;    0.000;7605.13356
 579.77; 7632.267;  -10.067;    0.000;7642.33327
 580.05; 7607.067;  -32.733;    0.000;7639.80023
 580.33; 7479.467;  -14.533;    0.000;7494.00013
 580.61; 7525.133;  -30.000;    0.000;7555.13330
 580.88; 7486.333;  -11.733;    0.000;7498.06683
 581.16; 7430.467;  -38.867;    0.000;7469.33346
 581.44; 7396.067;  -13.200;    0.000;7409.26689
 581.72; 7398.000;  -11.933;    0.000;7409.93333
 581.99; 7282.333;   -4.933;    0.000;7287.26683
 582.27; 7312.000;  -23.467;    0.000;7335.46667
 582.55; 7232.933;  -32.733;    0.000;7265.66644
 582.83; 7292.800;  -15.933;    0.000;7308.73314
 583.10; 7202.733;   -8.533;    0.000;7211.26673
 583.38; 7230.000;  -26.933;    0.000;7256.93333
 583.66; 7228.467;   -3.267;    0.000;7231.73346
 583.94; 7098.133;  -33.467;    0.000;7131.59997
 584.21; 7063.133;  -18.600;    0.000;7081.73330
 584.49; 7065.067;  -28.400;    0.000;7093.46689
 584.77; 6969.733;  -38.067;    0.000;7007.80006
 585.05; 6912.333;  -15.800;    0.000;6928.13350
 585.32; 6925.133;  -10.533;    0.000;6935.66663
 585.60; 6858.000;  -19.933;    0.000;6877.93333
 585.88; 6804.867;  -19.133;    0.000;6824.00003
 586.16; 6865.067;  -11.733;    0.000;6876.80023
 586.43; 6735.733;   -0.667;    0.000;6736.40007
 586.71; 6771.933;   -6.667;    0.000;6778.59977
 586.99; 6605.067;  -38.867;    0.000;6643.93356
 587.26; 6686.733;  -30.933;    0.000;6717.66673
 587.54; 6575.400;  -17.600;    0.000;6592.99990
 587.82; 6591.267;  -16.000;    0.000;6607.26660
 588.10; 6565.667;  -28.200;    0.000;6593.86650
 588.37; 6400.333;  -31.533;    0.000;6431.86683
 588.65; 6489.267;  -32.933;    0.000;6522.19994
 588.93; 6393.000;  -31.200;    0.000;6424.20000
 589.20; 6478.667;   -5.200;    0.000;6483.86650
 589.48; 6396.267;  -14.000;    0.000;6410.26660
 589.76; 6332.400;    9.733;    0.000;6322.66657
 590.03; 6331.800;   -8.467;    0.000;6340.26647
 590.31; 6285.600;  -14.333;    0.000;6299.93343
 590.59; 6268.333;  -10.933;    0.000;6279.26683
 590.86; 6174.600;  -23.533;    0.000;6198.13343
 591.14; 6124.800;  -40.867;    0.000;6165.66647
 591.42; 6078.267;  -25.467;    0.000;6103.73327
 591.70; 6014.933;   -2.467;    0.000;6017.39977
 591.97; 6031.533;  -32.800;    0.000;6064.33320
 592.25; 5951.667;  -21.400;    0.000;5973.06650
 592.53; 5947.000;  -12.200;    0.000;5959.20000
 592.80; 5939.600;  -42.000;    0.000;5981.60010
 593.08; 5885.933;   -9.667;    0.000;5895.59977
 593.36; 5874.067;    6.733;    0.000;5867.33356
 593.63; 5806.067;  -14.400;    0.000;5820.46689
 593.91; 5727.533;  -26.400;    0.000;5753.93320
 594.18; 5763.267;   -4.600;    0.000;5767.86660
 594.46; 5699.733;  -35.333;    0.000;5735.06673
 594.74; 5665.667;  -15.733;    0.000;5681.39984
 595.01; 5554.000;  -53.600;    0.000;5607.60000
 595.29; 5552.533;  -34.467;    0.000;5586.99987
 595.57; 5562.467;  -22.200;    0.000;5584.66680
 595.84; 5550.000;  -28.800;    0.000;5578.80000
 596.12; 5477.133;  -32.533;    0.000;5509.66663
 596.40; 5402.200;  -21.667;    0.000;5423.86686
 596.67; 5346.333;  -44.867;    0.000;5391.20016
 596.95; 5357.000;  -26.267;    0.000;5383.26667
 597.22; 5263.467;  -16.333;    0.000;5279.80013
 597.50; 5266.133;    2.800;    0.000;5263.33330
 597.78; 5259.400;  -19.133;    0.000;5278.53324
 598.05; 5149.867;  -25.933;    0.000;5175.80003
 598.33; 5127.933;  -38.000;    0.000;5165.93311
 598.61; 5114.533;  -25.867;    0.000;5140.39987
 598.88; 5109.933;  -26.067;    0.000;5135.99977
 599.16; 5028.333;  -17.067;    0.000;5045.40016
 599.43; 4977.200;  -42.200;    0.000;5019.40020
 599.71; 4982.000;  -23.067;    0.000;5005.06667
 599.99; 4936.533;  -28.533;    0.000;4965.06654
 600.26; 4852.067;  -30.933;    0.000;4883.00023
 600.54; 4856.867;  -12.867;    0.000;4869.73337
 600.81; 4839.667;  -10.800;    0.000;4850.46650
 601.09; 4728.067;  -35.067;    0.000;4763.13356
 601.36; 4760.467;  -22.067;    0.000;4782.53346
 601.64; 4703.467;   -9.333;    0.000;4712.80013
 601.92; 4674.333;  -14.667;    0.000;4689.00016
 602.19; 4615.533;  -31.867;    0.000;4647.39987
 602.47; 4559.933;  -30.667;    0.000;4590.59977
 602.74; 4563.133;  -13.067;    0.000;4576.19997
 603.02; 4643.533;  -37.067;    0.000;4680.59987
 603.29; 4548.067;  -30.733;    0.000;4578.80023
 603.57; 4488.933;  -23.133;    0.000;4512.06644
 603.85; 4473.067;  -32.000;    0.000;4505.06689
 604.12; 4456.333;   12.267;    0.000;4444.06683
 604.40; 4404.600;  -32.467;    0.000;4437.06676
 604.67; 4402.800;  -32.733;    0.000;4435.53314
 604.95; 4283.667;  -37.800;    0.000;4321.46650
 605.22; 4327.133;  -13.067;    0.000;4340.19997
 605.50; 4270.400;  -20.933;    0.000;4291.33323
 605.77; 4206.133;  -10.867;    0.000;4216.99997
 606.05; 4187.800;  -34.067;    0.000;4221.86647
 606.33; 4180.533;  -12.467;    0.000;4192.99987
 606.60; 4157.400;  -31.200;    0.000;4188.59990
 606.88; 4177.867;   -4.400;    0.000;4182.26670
 607.15; 4081.600;  -16.867;    0.000;4098.46676
 607.43; 4073.400;  -17.733;    0.000;4091.13324
 607.70; 4039.667;  -21.933;    0.000;4061.60008
 607.98; 4008.600;  -51.333;    0.000;4059.93343
 608.25; 3984.000;  -33.467;    0.000;4017.46667
 608.53; 4008.000;  -39.867;    0.000;4047.86666
 608.80; 3950.533;  -48.867;    0.000;3999.40011
 609.08; 3978.867;  -22.400;    0.000;4001.26670
 609.35; 3906.000;  -35.600;    0.000;3941.60000
 609.63; 3898.133;  -30.067;    0.000;3928.19997
 609.90; 3836.333;  -28.067;    0.000;3864.39992
 610.18; 3813.667;  -21.000;    0.000;3834.66675
 610.45; 3844.733;  -37.133;    0.000;3881.86673
 610.73; 3871.933;  -21.000;    0.000;3892.93335
 611.00; 3769.467;  -12.000;    0.000;3781.46655
 611.28; 3704.200;  -45.267;    0.000;3749.46662
 611.55; 3642.267;  -54.667;    0.000;3696.93327
 611.83; 3674.933;  -43.200;    0.000;3718.13335
 612.10; 3698.800;  -31.600;    0.000;3730.40005
 612.38; 3627.533;  -38.067;    0.000;3665.60011
 612.65; 3602.200;  -35.200;    0.000;3637.39995
 612.93; 3590.000;  -49.933;    0.000;3639.93333
 613.20; 3537.600;  -27.667;    0.000;3565.26676
 613.48; 3554.733;  -43.733;    0.000;3598.46673
 613.75; 3541.400;  -45.867;    0.000;3587.26657
 614.03; 3547.733;   -9.400;    0.000;3557.13340
 614.30; 3476.467;  -31.933;    0.000;3508.39989
 614.57; 3477.467;  -55.267;    0.000;3532.73322
 614.85; 3492.467;  -18.400;    0.000;3510.86655
 615.12; 3454.800;  -46.400;    0.000;3501.20005
 615.40; 3427.467;  -57.000;    0.000;3484.46655
 615.67; 3414.733;  -36.000;    0.000;3450.73340
 615.95; 3409.467;  -34.800;    0.000;3444.26655
 616.22; 3384.000;  -28.867;    0.000;3412.86667
 616.50; 3367.000;  -28.733;    0.000;3395.73333
 616.77; 3303.133;  -40.000;    0.000;3343.13330
 617.05; 3316.867;  -19.733;    0.000;3336.60003
 617.32; 3293.933;  -42.933;    0.000;3336.86668
 617.59; 3219.133;  -43.067;    0.000;3262.19997
 617.87; 3228.867;  -16.533;    0.000;3245.40003
 618.14; 3162.067;  -36.400;    0.000;3198.46665
 618.42; 3126.400;  -50.600;    0.000;3176.99990
 618.69; 3087.933;  -54.467;    0.000;3142.40002
 618.97; 3053.800;  -42.067;    0.000;3095.86671
 619.24; 3041.667;  -37.267;    0.000;3078.93341
 619.51; 3053.533;  -30.667;    0.000;3084.20011
 619.79; 2955.533;  -36.667;    0.000;2992.20012
 620.06; 2958.200;  -28.400;    0.000;2986.59995
 620.34; 2892.667;  -38.267;    0.000;2930.93341
 620.61; 2879.467;  -43.800;    0.000;2923.26655
 620.88; 2833.533;  -33.600;    0.000;2867.13345
 621.16; 2832.933;  -34.333;    0.000;2867.26668
 621.43; 2861.067;  -35.667;    0.000;2896.73332
 621.71; 2910.867;  -20.133;    0.000;2931.00003
 621.98; 2857.067;  -43.667;    0.000;2900.73332
 622.25; 2839.400;  -35.467;    0.000;2874.86657
 622.53; 2775.333;  -33.200;    0.000;2808.53325
 622.80; 2755.733;  -49.200;    0.000;2804.93340
 623.08; 2773.133;  -54.400;    0.000;2827.53330
 623.35; 2734.333;  -26.467;    0.000;2760.79992
 623.62; 2748.267;  -41.000;    0.000;2789.26660
 623.90; 2665.667;  -36.667;    0.000;2702.33342
 624.17; 2666.400;  -36.600;    0.000;2702.99990
 624.44; 2633.467;  -37.533;    0.000;2670.99989
 624.72; 2631.200;  -52.133;    0.000;2683.33329
 624.99; 2641.133;  -35.000;    0.000;2676.13330
 625.26; 2655.000;  -56.200;    0.000;2711.20000
 625.54; 2639.667;  -27.667;    0.000;2667.33341
 625.81; 2643.467;  -45.733;    0.000;2689.19989
 626.09; 2644.600;  -46.467;    0.000;2691.06676
 626.36; 2603.400;  -50.200;    0.000;2653.59990
 626.63; 2633.067;  -33.267;    0.000;2666.33332
 626.91; 2591.067;  -41.667;    0.000;2632.73332
 627.18; 2595.667;  -29.533;    0.000;2625.20008
 627.45; 2583.067;  -47.400;    0.000;2630.46665
 627.73; 2582.467;  -27.200;    0.000;2609.66655
 628.00; 2532.267;  -49.400;    0.000;2581.66660
 628.27; 2538.133;  -27.533;    0.000;2565.66663
 628.55; 2563.133;  -33.000;    0.000;2596.13330
 628.82; 2511.133;  -49.267;    0.000;2560.39997
 629.09; 2551.733;  -20.867;    0.000;2572.60007
 629.37; 2495.067;  -53.267;    0.000;2548.33332
 629.64; 2505.733;  -28.267;    0.000;2534.00006
 629.91; 2453.800;  -45.467;    0.000;2499.26672
 630.18; 2463.533;  -44.333;    0.000;2507.86678
 630.46; 2466.600;  -29.467;    0.000;2496.06676
 630.73; 2396.333;  -33.533;    0.000;2429.86658
 631.00; 2452.000;  -39.867;    0.000;2491.86666
 631.28; 2431.400;  -61.667;    0.000;2493.06657
 631.55; 2398.267;  -56.467;    0.000;2454.73327
 631.82; 2413.667;  -43.467;    0.000;2457.13342
 632.10; 2424.467;  -35.600;    0.000;2460.06655
 632.37; 2389.600;  -37.800;    0.000;2427.40010
 632.64; 2407.800;  -41.933;    0.000;2449.73338
 632.91; 2365.133;  -21.533;    0.000;2386.66663
 633.19; 2331.133;  -27.200;    0.000;2358.33330
 633.46; 2330.800;  -45.533;    0.000;2376.33338
 633.73; 2341.067;  -18.467;    0.000;2359.53332
 634.01; 2351.400;  -21.267;    0.000;2372.66657
 634.28; 2331.533;  -31.467;    0.000;2363.00011
 634.55; 2362.933;  -12.933;    0.000;2375.86668
 634.82; 2308.667;  -40.800;    0.000;2349.46675
 635.10; 2314.133;  -50.200;    0.000;2364.33330
 635.37; 2384.000;  -41.467;    0.000;2425.46667
 635.64; 2306.067;  -56.800;    0.000;2362.86665
 635.91; 2382.667;  -63.133;    0.000;2445.80008
 636.19; 2316.067;  -44.067;    0.000;2360.13332
 636.46; 2361.867;  -59.733;    0.000;2421.60003
 636.73; 2362.267;  -17.333;    0.000;2379.59994
 637.00; 2385.600;  -47.133;    0.000;2432.73343
 637.28; 2355.333;  -42.533;    0.000;2397.86658
 637.55; 2417.600;  -19.600;    0.000;2437.20010
 637.82; 2353.267;  -54.200;    0.000;2407.46660
 638.09; 2291.133;  -41.667;    0.000;2332.79997
 638.37; 2194.000;  -64.200;    0.000;2258.20000
 638.64; 2213.933;  -54.600;    0.000;2268.53335
 638.91; 2240.800;  -31.867;    0.000;2272.66672
 639.18; 2251.600;  -43.933;    0.000;2295.53343
 639.46; 2208.467;  -43.533;    0.000;2251.99989
 639.73; 2162.400;  -39.600;    0.000;2201.99990
 640.00; 2123.067;  -51.600;    0.000;2174.66665
 640.27; 2131.867;  -51.933;    0.000;2183.80003
 640.54; 2111.600;  -53.333;    0.000;2164.93343
 640.82; 2124.667;  -23.800;    0.000;2148.46675
 641.09; 2122.067;  -48.533;    0.000;2170.59998
 641.36; 2103.267;  -52.533;    0.000;2155.79993
 641.63; 2026.867;  -62.733;    0.000;2089.60003
 641.91; 2065.133;  -50.133;    0.000;2115.26664
 642.18; 1976.733;  -75.067;    0.000;2051.79994
 642.45; 1972.533;  -50.133;    0.000;2022.66666
 642.72; 1934.533;  -50.400;    0.000;1984.93333
 642.99; 1998.000;  -10.533;    0.000;2008.53333
 643.26; 1950.267;  -43.133;    0.000;1993.40006
 643.54; 1945.933;  -32.533;    0.000;1978.46668
 643.81; 1929.000;  -61.933;    0.000;1990.93333
 644.08; 1883.733;  -43.000;    0.000;1926.73328
 644.35; 1889.067;  -48.667;    0.000;1937.73332
 644.62; 1914.867;  -34.400;    0.000;1949.26670
 644.90; 1875.533;  -40.533;    0.000;1916.06666
 645.17; 1831.800;  -35.200;    0.000;1867.00005
 645.44; 1834.133;  -56.467;    0.000;1890.59997
 645.71; 1800.733;  -61.600;    0.000;1862.33327
 645.98; 1768.800;  -53.733;    0.000;1822.53338
 646.25; 1782.000;  -49.333;    0.000;1831.33333
 646.53; 1752.667;  -48.600;    0.000;1801.26662
 646.80; 1801.000;  -45.267;    0.000;1846.26667
 647.07; 1775.400;  -51.867;    0.000;1827.26669
 647.34; 1742.267;  -30.133;    0.000;1772.40006
 647.61; 1693.000;  -27.533;    0.000;1720.53333
 647.88; 1740.600;  -15.067;    0.000;1755.66664
 648.15; 1674.667;  -64.333;    0.000;1738.99996
 648.43; 1674.133;  -24.067;    0.000;1698.19997
 648.70; 1675.667;  -66.733;    0.000;1742.39996
 648.97; 1674.933;  -58.133;    0.000;1733.06668
 649.24; 1663.067;  -53.733;    0.000;1716.79998
 649.51; 1667.733;  -52.267;    0.000;1719.99994
 649.78; 1610.200;  -38.533;    0.000;1648.73328
 650.05; 1666.333;  -11.867;    0.000;1678.20004
 650.32; 1689.267;   15.800;    0.000;1673.46672
 650.60; 1588.733;  -46.733;    0.000;1635.46661
 650.87; 1571.800;  -44.000;    0.000;1615.80005
 651.14; 1563.200;  -48.933;    0.000;1612.13329
 651.41; 1598.733;  -47.333;    0.000;1646.06661
 651.68; 1551.000;  -53.200;    0.000;1604.20000
 651.95; 1567.000;  -38.733;    0.000;1605.73333
 652.22; 1537.133;  -43.133;    0.000;1580.26664
 652.49; 1496.600;  -53.867;    0.000;1550.46664
 652.76; 1540.533;  -46.200;    0.000;1586.73333
 653.03; 1530.867;  -64.867;    0.000;1595.73337
 653.31; 1477.933;  -35.133;    0.000;1513.06668
 653.58; 1508.000;  -57.267;    0.000;1565.26667
 653.85; 1507.667;  -50.800;    0.000;1558.46663
 654.12; 1463.200;  -57.600;    0.000;1520.79995
 654.39; 1480.800;  -25.333;    0.000;1506.13338
 654.66; 1463.467;  -42.533;    0.000;1506.00001
 654.93; 1489.933;   11.800;    0.000;1478.13335
 655.20; 1413.733;  -53.333;    0.000;1467.06661
 655.47; 1447.867;  -57.267;    0.000;1505.13337
 655.74; 1407.933;  -29.800;    0.000;1437.73335
 656.01; 1417.200;  -65.733;    0.000;1482.93328
 656.28; 1408.467;  -52.000;    0.000;1460.46667
 656.55; 1336.733;  -33.000;    0.000;1369.73328
 656.83; 1392.133;  -47.267;    0.000;1439.39997
 657.10; 1366.133;  -60.733;    0.000;1426.86663
 657.37; 1379.600;  -45.067;    0.000;1424.66664
 657.64; 1337.133;  -50.000;    0.000;1387.13330
 657.91; 1331.400;  -53.867;    0.000;1385.26669
 658.18; 1337.533;  -48.067;    0.000;1385.59999
 658.45; 1286.267;  -42.467;    0.000;1328.73339
 658.72; 1311.467;  -42.267;    0.000;1353.73334
 658.99; 1295.867;  -39.000;    0.000;1334.86670
 659.26; 1319.400;  -19.000;    0.000;1338.40002
 659.53; 1271.867;  -53.800;    0.000;1325.66670
 659.80; 1272.467;  -43.133;    0.000;1315.60001
 660.07; 1267.933;  -41.733;    0.000;1309.66668
 660.34; 1233.533;  -43.133;    0.000;1276.66666
 660.61; 1241.133;  -67.800;    0.000;1308.93330
 660.88; 1235.467;  -76.600;    0.000;1312.06667
 661.15; 1234.267;  -54.733;    0.000;1289.00006
 661.42; 1193.000;  -59.533;    0.000;1252.53333
 661.69; 1188.533;  -54.333;    0.000;1242.86666
 661.96; 1133.800;  -60.800;    0.000;1194.60005
 662.23; 1157.667;  -68.133;    0.000;1225.79996
 662.50; 1154.333;  -51.867;    0.000;1206.20004
 662.77; 1155.200;  -57.733;    0.000;1212.93328
 663.04; 1204.000;  -67.133;    0.000;1271.13333
 663.31; 1149.267;  -82.933;    0.000;1232.20006
 663.58; 1175.200;  -38.067;    0.000;1213.26662
 663.85; 1124.600;  -58.800;    0.000;1183.39997
 664.12; 1125.600;  -53.667;    0.000;1179.26664
 664.39; 1118.333;  -61.600;    0.000;1179.93337
 664.66; 1131.600;  -71.067;    0.000;1202.66664
 664.93; 1107.933;  -66.333;    0.000;1174.26669
 665.20; 1112.667;  -38.133;    0.000;1150.79996
 665.47; 1093.067;  -44.933;    0.000;1137.99998
 665.74; 1061.200;  -64.400;    0.000;1125.59995
 666.01; 1060.400;  -57.733;    0.000;1118.13336
 666.28; 1061.467;  -54.400;    0.000;1115.86668
 666.55; 1040.133;  -49.667;    0.000;1089.79997
 666.82; 1057.600;  -48.467;    0.000;1106.06664
 667.09; 1052.200;  -49.667;    0.000;1101.86662
 667.36; 1043.133;  -65.467;    0.000;1108.59997
 667.63; 1015.200;  -59.533;    0.000;1074.73335
 667.90; 1021.200;  -53.133;    0.000;1074.33335
 668.16;  990.000;  -56.267;    0.000;1046.26667
 668.43;  998.533;  -51.400;    0.000;1049.93333
 668.70;  990.067;  -30.067;    0.000;1020.13332
 668.97; 1003.467;  -71.133;    0.000;1074.60001
 669.24; 1004.400;  -55.533;    0.000;1059.93336
 669.51;  964.200;  -56.733;    0.000;1020.93335
 669.78;  978.467;  -53.067;    0.000;1031.53334
 670.05;  970.933;  -62.467;    0.000;1033.40002
 670.32;  954.867;  -46.533;    0.000;1001.39997
 670.59;  970.800;  -59.733;    0.000;1030.53332
 670.86;  934.333;  -68.867;    0.000;1003.19998
 671.13;  932.933;  -32.933;    0.000;965.86668
 671.40;  909.600;  -70.600;    0.000;980.19997
 671.67;  941.333;  -31.667;    0.000;972.99998
 671.93;  908.000;  -85.533;    0.000;993.53333
 672.20;  899.933;  -58.667;    0.000;958.60002
 672.47;  913.200;  -54.000;    0.000;967.20001
 672.74;  889.400;  -73.800;    0.000;963.20003
 673.01;  881.800;  -72.400;    0.000;954.19999
 673.28;  890.133;  -39.400;    0.000;929.53336
 673.55;  855.467;  -52.467;    0.000;907.93334
 673.82;  846.133;  -58.933;    0.000;905.06670
 674.09;  823.533;  -55.133;    0.000;878.66666
 674.35;  859.133;  -64.800;    0.000;923.93336
 674.62;  834.067;  -69.000;    0.000;903.06665
 674.89;  861.400;  -66.467;    0.000;927.86669
 675.16;  811.333;  -66.200;    0.000;877.53331
 675.43;  795.533;  -63.200;    0.000;858.73333
 675.70;  829.400;  -44.533;    0.000;873.93336
 675.97;  823.933;  -48.933;    0.000;872.86668
 676.24;  828.400;  -73.733;    0.000;902.13335
 676.50;  769.733;  -74.267;    0.000;844.00001
 676.77;  740.867;  -65.267;    0.000;806.13331
 677.04;  783.333;  -63.200;    0.000;846.53331
 677.31;  779.733;  -78.133;    0.000;857.86667
 677.58;  755.200;  -51.467;    0.000;806.66668
 677.85;  751.600;  -67.067;    0.000;818.66664
 678.12;  797.867;  -47.133;    0.000;844.99997
 678.38;  746.267;  -44.267;    0.000;790.53333
 678.65;  778.800;  -52.933;    0.000;831.73332
 678.92;  749.467;  -70.067;    0.000;819.53334
 679.19;  769.000;  -33.933;    0.000;802.93333
 679.46;  748.067;  -58.600;    0.000;806.66665
 679.73;  769.867;  -54.800;    0.000;824.66664
 679.99;  705.133;  -81.533;    0.000;786.66669
 680.26;  694.667;  -64.067;    0.000;758.73335
 680.53;  715.267;  -74.267;    0.000;789.53333
 680.80;  694.600;  -68.533;    0.000;763.13331
 681.07;  701.933;  -59.733;    0.000;761.66668
 681.33;  697.133;  -61.933;    0.000;759.06670
 681.60;  672.000;  -61.867;    0.000;733.86666
 681.87;  696.800;  -67.267;    0.000;764.06666
 682.14;  673.400;  -55.800;    0.000;729.20002
 682.41;  633.733;  -67.200;    0.000;700.93333
 682.67;  698.133;  -53.067;    0.000;751.20003
 682.94;  652.733;  -61.067;    0.000;713.80000
 683.21;  614.000;  -72.733;    0.000;686.73333
 683.48;  620.933;  -63.133;    0.000;684.06668
 683.75;  626.933;  -64.200;    0.000;691.13335
 684.01;  658.467;  -35.800;    0.000;694.26667
 684.28;  611.733;  -82.733;    0.000;694.46667
 684.55;  632.200;  -48.533;    0.000;680.73335
 684.82;  591.067;  -62.600;    0.000;653.66665
 685.09;  630.933;  -22.467;    0.000;653.40002
 685.35;  584.200;  -44.667;    0.000;628.86668
 685.62;  611.533;  -58.067;    0.000;669.59999
 685.89;  564.000;  -50.467;    0.000;614.46667
 686.16;  592.533;  -64.667;    0.000;657.19999
 686.42;  590.200;  -73.533;    0.000;663.73335
 686.69;  587.933;  -45.400;    0.000;633.33335
 686.96;  579.267;  -79.067;    0.000;658.33333
 687.23;  585.933;  -32.600;    0.000;618.53335
 687.49;  560.867;  -57.000;    0.000;617.86664
 687.76;  568.667;  -60.067;    0.000;628.73335
 688.03;  559.733;  -84.467;    0.000;644.20000
 688.30;  542.467;  -64.267;    0.000;606.73335
 688.56;  506.267;  -64.133;    0.000;570.39999
 688.83;  543.400;  -60.600;    0.000;604.00002
 689.10;  538.800;  -66.000;    0.000;604.79999
 689.37;  511.933;  -81.400;    0.000;593.33332
 689.63;  530.333;  -62.000;    0.000;592.33331
 689.90;  527.067;  -60.133;    0.000;587.19999
 690.17;  488.400;  -63.933;    0.000;552.33333
 690.44;  510.000;  -71.267;    0.000;581.26667
 690.70;  471.133;  -85.667;    0.000;556.80000
 690.97;  493.800;  -45.067;    0.000;538.86665
 691.24;  496.000;  -44.067;    0.000;540.06667
 691.50;  508.400;  -64.933;    0.000;573.33333
 691.77;  470.533;  -59.000;    0.000;529.53333
 692.04;  461.733;  -61.333;    0.000;523.06667
 692.30;  470.800;  -61.533;    0.000;532.33332
 692.57;  476.800;  -67.867;    0.000;544.66666
 692.84;  444.867;  -85.000;    0.000;529.86667
 693.11;  460.867;  -47.333;    0.000;508.20000
 693.37;  451.600;  -61.800;    0.000;513.40001
 693.64;  449.867;  -57.267;    0.000;507.13334
 693.91;  429.667;  -68.733;    0.000;498.39999
 694.17;  432.733;  -48.333;    0.000;481.06667
 694.44;  427.733;  -63.200;    0.000;490.93334
 694.71;  409.600;  -71.333;    0.000;480.93334
 694.97;  415.667;  -65.667;    0.000;481.33332
 695.24;  395.600;  -68.600;    0.000;464.20000
 695.51;  387.733;  -89.600;    0.000;477.33334
 695.77;  432.600;  -64.933;    0.000;497.53334
 696.04;  400.200;  -80.333;    0.000;480.53335
 696.31;  399.333;  -59.667;    0.000;459.00001
 696.57;  412.200;  -44.533;    0.000;456.73335
 696.84;  378.000;  -57.000;    0.000;435.00000
 697.11;  360.667;  -66.200;    0.000;426.86665
 697.37;  395.333;  -44.733;    0.000;440.06668
 697.64;  352.467;  -60.800;    0.000;413.26667
 697.91;  339.267;  -68.733;    0.000;407.99999
 698.17;  355.200;  -78.400;    0.000;433.60001
 698.44;  350.067;  -52.467;    0.000;402.53335
 698.71;  333.800;  -62.667;    0.000;396.46666
 698.97;  348.133;  -59.667;    0.000;407.80000
 699.24;  342.800;  -63.067;    0.000;405.86665
 699.50;  356.400;  -50.267;    0.000;406.66666
 699.77;  360.133;  -43.067;    0.000;403.20000
 700.04;  320.533;  -56.533;    0.000;377.06666
 700.30;  299.867;  -78.933;    0.000;378.80000
 700.57;  294.133;  -75.533;    0.000;369.66666
 700.84;  300.933;  -49.933;    0.000;350.86665
 701.10;  301.000;  -77.133;    0.000;378.13333
 701.37;  287.867;  -50.867;    0.000;338.73333
 701.63;  280.600;  -59.667;    0.000;340.26667
 701.90;  302.600;  -64.333;    0.000;366.93334
 702.17;  325.533;  -50.067;    0.000;375.59999
 702.43;  280.400;  -71.533;    0.000;351.93333
 702.70;  308.533;  -42.533;    0.000;351.06666
 702.96;  253.067;  -78.200;    0.000;331.26666
 703.23;  260.800;  -67.400;    0.000;328.19999
 703.50;  249.133;  -72.667;    0.000;321.80000
 703.76;  259.067;  -55.200;    0.000;314.26668
 704.03;  236.800;  -61.333;    0.000;298.13334
 704.29;  241.933;  -79.267;    0.000;321.20000
 704.56;  222.933;  -73.333;    0.000;296.26667
 704.82;  235.533;  -65.267;    0.000;300.80001
 705.09;  253.000;  -70.800;    0.000;323.80000
 705.36;  247.467;  -78.267;    0.000;325.73333
 705.62;  244.133;  -45.200;    0.000;289.33333
 705.89;  236.733;  -77.867;    0.000;314.60001
 706.15;  220.000;  -78.733;    0.000;298.73333
 706.42;  234.467;  -38.333;    0.000;272.79999
 706.68;  186.400;  -78.400;    0.000;264.80000
 706.95;  200.667;  -54.067;    0.000;254.73334
 707.21;  172.667;  -88.067;    0.000;260.73334
 707.48;  196.000;  -62.533;    0.000;258.53333
 707.75;  191.467;  -75.533;    0.000;266.99999
 708.01;  195.200;  -76.400;    0.000;271.60000
 708.28;  189.400;  -57.667;    0.000;247.06666
 708.54;  174.533;  -59.267;    0.000;233.80001
 708.81;  194.600;  -68.600;    0.000;263.20000
 709.07;  159.267;  -67.600;    0.000;226.86666
 709.34;  159.133;  -81.933;    0.000;241.06667
 709.60;  166.200;  -75.667;    0.000;241.86666
 709.87;  161.333;  -49.200;    0.000;210.53333
 710.13;  162.200;  -74.200;    0.000;236.39999
 710.40;  146.000;  -83.667;    0.000;229.66666
 710.66;  137.333;  -78.200;    0.000;215.53333
 710.93;  138.667;  -71.333;    0.000;210.00001
 711.19;  137.400;  -66.133;    0.000;203.53333
 711.46;  154.867;  -62.667;    0.000;217.53334
 711.72;  160.733;  -47.600;    0.000;208.33334
 711.99;  159.333;  -73.733;    0.000;233.06666
 712.25;  152.667;  -52.067;    0.000;204.73334
 712.52;  140.867;  -54.867;    0.000;195.73333
 712.78;  136.733;  -71.867;    0.000;208.60001
 713.05;  139.667;  -81.667;    0.000;221.33334
 713.31;  156.867;  -70.133;    0.000;227.00000
 713.58;  129.867;  -54.333;    0.000;184.20000
 713.84;  145.400;  -66.600;    0.000;211.99999
 714.11;  110.733;  -68.533;    0.000;179.26666
 714.37;  155.667;  -46.133;    0.000;201.80001
 714.64;  111.667;  -95.067;    0.000;206.73333
 714.90;  146.600;  -52.333;    0.000;198.93334
 715.17;  114.067;  -59.933;    0.000;174.00000
 715.43;  126.867;  -56.667;    0.000;183.53334
 715.70;  111.800;  -78.467;    0.000;190.26667
 715.96;  102.067;  -61.067;    0.000;163.13333
 716.22;   98.733;  -78.200;    0.000;176.93333
 716.49;  115.000;  -65.933;    0.000;180.93333
 716.75;   86.733;  -87.733;    0.000;174.46666
 717.02;  122.800;  -63.267;    0.000;186.06667
 717.28;  106.867;  -83.200;    0.000;190.06667
 717.55;  114.400;  -90.133;    0.000;204.53333
 717.81;  111.800;  -56.467;    0.000;168.26667
 718.08;  127.200;  -68.200;    0.000;195.39999
 718.34;  110.000;  -83.600;    0.000;193.60000
 718.60;  118.133;  -61.200;    0.000;179.33333
 718.87;  101.667;  -65.800;    0.000;167.46667
 719.13;  109.133;  -67.267;    0.000;176.40000
 719.40;  125.400;  -70.800;    0.000;196.20000
 719.66;   90.867;  -79.067;    0.000;169.93333
 719.93;  105.067;  -70.867;    0.000;175.93333
 720.19;  119.733;  -67.800;    0.000;187.53333
 720.45;  102.000;  -78.533;    0.000;180.53333
 720.72;  111.267;  -45.533;    0.000;156.80000
 720.98;  110.400;  -72.000;    0.000;182.40000
 721.25;   91.400;  -82.000;    0.000;173.40000
 721.51;   83.867;  -64.733;    0.000;148.60000
 721.77;  115.667;  -66.867;    0.000;182.53333
 722.04;  126.267;  -51.200;    0.000;177.46667
 722.30;  116.333;  -42.133;    0.000;158.46667
 722.57;   84.533;  -67.400;    0.000;151.93333
 722.83;  102.533;  -64.533;    0.000;167.06667
 723.09;   80.267;  -73.600;    0.000;153.86667
 723.36;  109.733;  -96.667;    0.000;206.39999
 723.62;   93.933;  -71.800;    0.000;165.73334
 723.88;  124.267;  -71.133;    0.000;195.40000
 724.15;   86.933;  -66.067;    0.000;153.00000
 724.41;   88.667;  -72.067;    0.000;160.73333
 724.68;   86.200;  -74.867;    0.000;161.06667
 724.94;   91.067;  -39.533;    0.000;130.60000
 725.20;   82.467;  -65.000;    0.000;147.46667
 725.47;   94.733;  -76.600;    0.000;171.33333
 725.73;   88.067;  -85.667;    0.000;173.73333
 725.99;   89.333;  -53.533;    0.000;142.86667
 726.26;  101.533;  -64.867;    0.000;166.40000
 726.52;   85.600;  -50.933;    0.000;136.53333
 726.78;   92.533;  -79.467;    0.000;172.00000
 727.05;  118.933;  -49.067;    0.000;168.00000
 727.31;   86.600;  -73.133;    0.000;159.73333
 727.57;  102.533;  -66.733;    0.000;169.26666
 727.84;   92.333;  -62.333;    0.000;154.66667
 728.10;   99.333;  -64.733;    0.000;164.06667
 728.36;   84.867;  -64.333;    0.000;149.20000
 728.63;   93.933;  -82.800;    0.000;176.73334
 728.89;   95.267;  -80.600;    0.000;175.86667
 729.15;   70.733;  -72.600;    0.000;143.33333
 729.42;   68.467;  -74.933;    0.000;143.40000
 729.68;  100.600;  -66.200;    0.000;166.80000
 729.94;   70.800;  -72.667;    0.000;143.46667
 730.21;   81.067;  -88.800;    0.000;169.86667
 730.47;   74.067;  -88.867;    0.000;162.93333
 730.73;   89.400;  -74.533;    0.000;163.93333
 731.00;   68.333;  -81.533;    0.000;149.86667
 731.26;   92.600;  -74.400;    0.000;167.00000
 731.52;   59.133;  -92.733;    0.000;151.86666
 731.78;   74.933;  -94.133;    0.000;169.06667
 732.05;   56.667;  -90.867;    0.000;147.53334
 732.31;   85.600;  -59.533;    0.000;145.13333
 732.57;   78.667;  -69.867;    0.000;148.53333
 732.84;   74.800;  -75.800;    0.000;150.60001
 733.10;   62.867;  -92.000;    0.000;154.86666
 733.36;   61.000;  -65.933;    0.000;126.93333
 733.62;   84.600;  -82.800;    0.000;167.40000
 733.89;   64.800;  -77.067;    0.000;141.86667
 734.15;   67.667;  -91.000;    0.000;158.66666
 734.41;   76.333;  -65.267;    0.000;141.60001
 734.67;   63.533;  -63.533;    0.000;127.06667
 734.94;   74.467;  -70.800;    0.000;145.26667
 735.20;   58.000;  -78.867;    0.000;136.86667
 735.46;   74.067;  -51.600;    0.000;125.66666
 735.73;   77.000;  -79.333;    0.000;156.33334
 735.99;   54.800;  -65.200;    0.000;120.00000
 736.25;   53.467;  -68.067;    0.000;121.53333
 736.51;   52.267;  -76.933;    0.000;129.20000
 736.77;   44.067;  -79.200;    0.000;123.26666
 737.04;   51.533;  -56.600;    0.000;108.13333
 737.30;   36.667;  -87.867;    0.000;124.53334
 737.56;   74.667;  -61.800;    0.000;136.46666
 737.82;   37.933;  -88.533;    0.000;126.46667
 738.09;   58.133;  -71.867;    0.000;130.00000
 738.35;   40.400;  -79.267;    0.000;119.66667
 738.61;   83.133;  -62.667;    0.000;145.80000
 738.87;   70.200;  -58.533;    0.000;128.73333
 739.14;   53.867;  -73.933;    0.000;127.80000
 739.40;   25.000;  -91.333;    0.000;116.33334
 739.66;   57.200;  -77.600;    0.000;134.80000
 739.92;   36.800;  -89.533;    0.000;126.33333
 740.18;   45.000;  -82.600;    0.000;127.60000
 740.45;   32.733;  -88.400;    0.000;121.13334
 740.71;   48.467;  -55.400;    0.000;103.86667
 740.97;   39.133;  -51.533;    0.000;90.66667
 741.23;   55.267;  -66.200;    0.000;121.46666
 741.49;   50.800;  -74.600;    0.000;125.40000
 741.76;   41.667;  -89.000;    0.000;130.66667
 742.02;   31.000;  -74.533;    0.000;105.53333
 742.28;   46.000;  -65.600;    0.000;111.60000
 742.54;   44.600;  -87.800;    0.000;132.40000
 742.80;   28.933;  -73.600;    0.000;102.53333
 743.06;   42.800;  -74.733;    0.000;117.53333
 743.33;   51.600;  -82.867;    0.000;134.46667
 743.59;   23.600;  -90.533;    0.000;114.13333
 743.85;   36.200;  -87.467;    0.000;123.66667
 744.11;   31.867;  -90.467;    0.000;122.33333
 744.37;   26.600;  -55.467;    0.000;82.06667
 744.63;   16.467;  -81.800;    0.000;98.26667
 744.90;   20.467;  -82.133;    0.000;102.60000
 745.16;    8.933;  -76.867;    0.000;85.80000
 745.42;   29.067;  -68.667;    0.000;97.73333
 745.68;   22.667;  -76.067;    0.000;98.73333
 745.94;   52.733;  -51.800;    0.000;104.53333
 746.20;   23.933;  -80.067;    0.000;104.00000
 746.46;   42.000;  -62.133;    0.000;104.13334
 746.72;   27.333;  -64.333;    0.000;91.66667
 746.99;   22.867;  -61.267;    0.000;84.13333
 747.25;   42.067;  -47.533;    0.000;89.60000
 747.51;   27.533;  -74.133;    0.000;101.66666
 747.77;   17.600;  -73.067;    0.000;90.66667
 748.03;   21.533;  -89.267;    0.000;110.80000
 748.29;   -8.133;  -93.133;    0.000;85.00000
 748.55;   32.400;  -59.733;    0.000;92.13334
 748.81;   -9.867;  -84.400;    0.000;74.53333
 749.08;   35.867;  -67.200;    0.000;103.06666
 749.34;   26.533;  -68.067;    0.000;94.60000
 749.60;   22.800;  -68.067;    0.000;90.86666
 749.86;   21.867;  -76.467;    0.000;98.33333
 750.12;   26.800;  -75.600;    0.000;102.40000
 750.38;   34.533;  -76.533;    0.000;111.06667
 750.64;   19.733;  -79.667;    0.000;99.40000
 750.90;    3.000;  -62.133;    0.000;65.13334
 751.16;    5.067;  -85.133;    0.000;90.20000
 751.42;   12.067;  -67.067;    0.000;79.13333
 751.68;   36.000;  -59.067;    0.000;95.06667
 751.95;  -11.533;  -89.200;    0.000;77.66666
 752.21;   -0.867;  -81.933;    0.000;81.06667
 752.47;  -13.667;  -83.667;    0.000;70.00000
 752.73;    0.467;  -73.733;    0.000;74.20000
 752.99;    9.667;  -84.400;    0.000;94.06667
 753.25;    5.600;  -80.200;    0.000;85.80000
 753.51;   -8.200;  -78.133;    0.000;69.93333
 753.77;   16.067;  -71.067;    0.000;87.13333
 754.03;    5.267;  -70.133;    0.000;75.40000
 754.29;   -1.000;  -77.733;    0.000;76.73333
 754.55;   -5.800;  -77.733;    0.000;71.93333
 754.81;   13.400;  -65.800;    0.000;79.20000
 755.07;   -5.333;  -84.667;    0.000;79.33333
 755.33;    3.133;  -60.467;    0.000;63.60000
 755.59;  -16.400;  -81.067;    0.000;64.66667
 755.85;    3.000;  -95.667;    0.000;98.66666
 756.11;  -19.333;  -89.333;    0.000;70.00000
 756.37;   -7.800;  -70.000;    0.000;62.20000
 756.63;    5.933;  -62.067;    0.000;68.00000
 756.89;  -15.533;  -90.600;    0.000;75.06666
 757.15;    5.267;  -79.067;    0.000;84.33333
 757.41;   18.267;  -43.333;    0.000;61.60000
 757.68;    4.600;  -95.067;    0.000;99.66667
 757.94;   15.667;  -60.733;    0.000;76.40000
 758.20;    1.667;  -65.333;    0.000;67.00000
 758.46;  -17.000;  -71.733;    0.000;54.73333
 758.72;   -6.533;  -87.200;    0.000;80.66666
 758.98;   -0.133;  -61.200;    0.000;61.06667
 759.24;  -11.200;  -83.800;    0.000;72.60000
 759.50;   -7.267;  -68.800;    0.000;61.53334
 759.76;   -1.933;  -81.333;    0.000;79.40000
 760.02;    2.333;  -78.400;    0.000;80.73333
 760.27;   -9.600;  -61.400;    0.000;51.80000
 760.53;    1.533;  -72.733;    0.000;74.26666
 760.79;  -14.067;  -78.733;    0.000;64.66666
 761.05;    7.400;  -56.067;    0.000;63.46667
 761.31;   16.200;  -59.333;    0.000;75.53333
 761.57;    9.067;  -67.533;    0.000;76.60000
 761.83;  -27.533;  -76.800;    0.000;49.26667
 762.09;  -10.000;  -88.667;    0.000;78.66666
 762.35;  -23.733;  -90.733;    0.000;67.00000
 762.61;   -8.800;  -71.800;    0.000;63.00000
 762.87;  -28.800;  -72.333;    0.000;43.53334
 763.13;  -26.667;  -90.067;    0.000;63.40000
 763.39;   -2.800;  -65.067;    0.000;62.26667
 763.65;   -6.867;  -68.467;    0.000;61.60000
 763.91;  -35.000;  -71.933;    0.000;36.93333
 764.17;    1.800;  -66.667;    0.000;68.46666
 764.43;    0.867;  -59.600;    0.000;60.46667
 764.69;  -22.133;  -83.600;    0.000;61.46667
 764.95;   -4.867;  -96.267;    0.000;91.40000
 765.21;  -19.600;  -87.867;    0.000;68.26667
 765.47;  -13.800;  -69.533;    0.000;55.73333
 765.73;  -14.667;  -67.400;    0.000;52.73333
 765.98;    0.467;  -50.133;    0.000;50.60000
 766.24;  -31.800;  -76.333;    0.000;44.53334
 766.50;  -39.467;  -88.133;    0.000;48.66666
 766.76;   -4.533;  -70.267;    0.000;65.73334
 767.02;  -42.533;  -88.933;    0.000;46.40000
 767.28;  -14.133;  -71.467;    0.000;57.33333
 767.54;  -35.600;  -61.467;    0.000;25.86667
 767.80;  -13.067;  -70.133;    0.000;57.06666
 768.06;  -32.133;  -73.933;    0.000;41.80000
 768.32;  -16.800;  -73.933;    0.000;57.13334
 768.58;  -33.467;  -78.267;    0.000;44.80000
 768.83;  -25.000;  -61.333;    0.000;36.33333
 769.09;  -24.400;  -70.400;    0.000;46.00000
 769.35;  -26.667;  -57.200;    0.000;30.53333
 769.61;  -22.200;  -79.533;    0.000;57.33333
 769.87;  -16.400;  -72.133;    0.000;55.73333
 770.13;  -17.867;  -84.533;    0.000;66.66667
 770.39;  -29.733;  -84.067;    0.000;54.33333
 770.65;  -22.667;  -73.533;    0.000;50.86667
 770.90;  -27.067;  -78.133;    0.000;51.06666
 771.16;  -25.533;  -82.667;    0.000;57.13333
 771.42;  -16.400;  -71.800;    0.000;55.40000
 771.68;  -45.933;  -82.867;    0.000;36.93333
 771.94;  -28.067;  -74.933;    0.000;46.86667
 772.20;  -37.333;  -67.733;    0.000;30.40000
 772.46;  -54.267;  -94.267;    0.000;40.00000
 772.71;  -40.867;  -77.733;    0.000;36.86666
 772.97;   -0.733;  -58.933;    0.000;58.20000
 773.23;  -34.400;  -77.400;    0.000;43.00000
 773.49;    3.400;  -58.800;    0.000;62.20000
 773.75;  -44.267;  -76.800;    0.000;32.53334
 774.01;  -30.467;  -79.267;    0.000;48.80000
 774.26;  -43.733;  -90.467;    0.000;46.73333
 774.52;  -15.867;  -64.067;    0.000;48.20000
 774.78;  -46.533;  -82.400;    0.000;35.86667
 775.04;  -11.000;  -46.800;    0.000;35.80000
 775.30;  -18.400;  -60.800;    0.000;42.40000
 775.56;  -36.333;  -75.200;    0.000;38.86666
 775.81;  -44.000;  -65.000;    0.000;21.00000
 776.07;  -50.533;  -82.667;    0.000;32.13333
 776.33;  -41.467;  -91.333;    0.000;49.86667
 776.59;  -24.733;  -71.867;    0.000;47.13334
 776.85;  -59.933;  -82.000;    0.000;22.06667
 777.10;  -13.933;  -66.800;    0.000;52.86667
 777.36;  -57.933;  -75.867;    0.000;17.93333
 777.62;  -15.000;  -75.733;    0.000;60.73333
 777.88;  -47.733;  -80.800;    0.000;33.06667
 778.14;  -21.067;  -74.333;    0.000;53.26667
 778.39;  -38.933;  -83.533;    0.000;44.60000
 778.65;  -30.667;  -67.067;    0.000;36.40000
 778.91;  -47.067;  -82.400;    0.000;35.33334
 779.17;  -27.800;  -57.333;    0.000;29.53333
 779.42;  -33.800;  -84.867;    0.000;51.06667
 779.68;  -42.400;  -86.000;    0.000;43.60000
 779.94;  -21.133;  -83.733;    0.000;62.60000
 780.20;  -31.933;  -86.600;    0.000;54.66667
 780.46;  -54.733;  -77.733;    0.000;23.00000
 780.71;  -16.000;  -69.933;    0.000;53.93333
 780.97;  -33.200;  -76.933;    0.000;43.73333
 781.23;  -29.067;  -60.800;    0.000;31.73333
 781.49;   -8.467;  -68.133;    0.000;59.66667
 781.74;  -39.533;  -76.667;    0.000;37.13333
 782.00;  -62.333;  -71.533;    0.000; 9.20000
 782.26;  -22.667;  -68.733;    0.000;46.06666
 782.52;  -28.200;  -81.533;    0.000;53.33333
 782.77;  -42.800;  -74.267;    0.000;31.46667
 783.03;  -49.867;  -96.333;    0.000;46.46667
 783.29;  -41.800;  -84.267;    0.000;42.46667
 783.54;  -39.800;  -78.200;    0.000;38.40000
 783.80;  -36.133;  -60.200;    0.000;24.06667
 784.06;  -34.867;  -72.133;    0.000;37.26667
 784.32;  -33.667;  -78.133;    0.000;44.46666
 784.57;  -20.267;  -62.933;    0.000;42.66667
 784.83;  -46.667;  -86.200;    0.000;39.53333
 785.09;  -51.000;  -88.533;    0.000;37.53333
 785.34;  -25.800;  -84.000;    0.000;58.20000
 785.60;  -32.667;  -57.667;    0.000;25.00000
 785.86;  -47.667;  -90.933;    0.000;43.26667
 786.12;  -41.800;  -68.733;    0.000;26.93333
 786.37;  -11.067;  -53.933;    0.000;42.86667
 786.63;  -57.800; -104.800;    0.000;47.00000
 786.89;  -24.400;  -71.867;    0.000;47.46667
 787.14;  -33.000;  -66.933;    0.000;33.93333
 787.40;  -37.600;  -79.467;    0.000;41.86667
 787.66;  -42.333;  -85.867;    0.000;43.53334
 787.91;  -18.533;  -60.600;    0.000;42.06667
 788.17;  -43.067;  -76.400;    0.000;33.33334
 788.43;  -46.000;  -84.200;    0.000;38.20000
 788.68;  -51.200;  -82.333;    0.000;31.13334
 788.94;  -29.267;  -70.067;    0.000;40.80000
 789.20;  -30.467;  -85.867;    0.000;55.40000
 789.45;  -42.867;  -85.067;    0.000;42.20000
 789.71;  -47.600;  -92.600;    0.000;45.00000
 789.97;  -33.267;  -45.933;    0.000;12.66667
 790.22;  -51.467;  -71.600;    0.000;20.13333
 790.48;  -50.267;  -83.267;    0.000;33.00000
 790.74;  -55.733;  -43.667;    0.000;-12.06667
 790.99;  -31.467;  -83.867;    0.000;52.40000
 791.25;  -43.867;  -83.133;    0.000;39.26667
 791.51;  -44.333;  -76.400;    0.000;32.06667
 791.76;  -29.733;  -56.933;    0.000;27.20000
 792.02;  -44.733;  -72.400;    0.000;27.66667
 792.27;  -55.467;  -75.400;    0.000;19.93333
 792.53;  -51.867;  -89.667;    0.000;37.80000
 792.79;  -45.667;  -86.133;    0.000;40.46666
 793.04;  -47.200;  -73.333;    0.000;26.13334
 793.30;  -56.867;  -85.800;    0.000;28.93334
 793.56;  -40.800;  -76.600;    0.000;35.80000
 793.81;  -29.733;  -65.267;    0.000;35.53334
 794.07;  -54.533;  -91.933;    0.000;37.40000
 794.32;  -69.467;  -76.067;    0.000; 6.60000
 794.58;  -52.667;  -76.867;    0.000;24.20000
 794.84;  -33.933;  -64.533;    0.000;30.60000
 795.09;  -36.133;  -44.333;    0.000; 8.20000
 795.35;  -28.600;  -64.333;    0.000;35.73334
 795.60;  -15.533;  -76.867;    0.000;61.33333
 795.86;  -25.000;  -73.400;    0.000;48.40000
 796.12;  -55.267;  -98.000;    0.000;42.73333
 796.37;  -45.933;  -79.533;    0.000;33.60000
 796.63;  -25.667;  -66.533;    0.000;40.86667
 796.88;  -57.200;  -75.800;    0.000;18.60000
 797.14;  -12.533;  -68.200;    0.000;55.66666
 797.39;  -49.600;  -63.800;    0.000;14.20000
 797.65;  -43.867;  -89.800;    0.000;45.93334
 797.91;  -56.867;  -80.267;    0.000;23.40001
 798.16;  -58.867;  -90.733;    0.000;31.86666
 798.42;  -58.533;  -79.000;    0.000;20.46667
 798.67;  -35.133;  -79.667;    0.000;44.53333
 798.93;  -49.133;  -84.733;    0.000;35.59999
 799.18;  -52.800;  -73.667;    0.000;20.86666
 799.44;  -59.600;  -87.200;    0.000;27.60000
 799.69;  -53.733;  -70.133;    0.000;16.40000
 799.95;  -57.067;  -81.400;    0.000;24.33334
 800.21;  -65.267;  -92.000;    0.000;26.73333
 800.46;  -40.733;  -72.667;    0.000;31.93333
 800.72;  -60.333;  -94.800;    0.000;34.46667
 800.97;  -64.067;  -80.600;    0.000;16.53333
 801.23;  -51.133;  -96.733;    0.000;45.59999
 801.48;  -58.200; -101.800;    0.000;43.60000
 801.74;  -30.733;  -95.800;    0.000;65.06667
 801.99;  -57.467;  -68.333;    0.000;10.86667
 802.25;  -33.800;  -88.867;    0.000;55.06667
 802.50;  -52.733;  -66.400;    0.000;13.66667
 802.76;  -32.533;  -49.467;    0.000;16.93333
 803.01;  -85.267;  -88.133;    0.000; 2.86666
 803.27;  -55.400;  -63.200;    0.000; 7.80000
 803.52;  -66.067;  -79.067;    0.000;13.00000
 803.78;  -34.133;  -72.933;    0.000;38.80000
 804.03;  -35.067;  -80.333;    0.000;45.26667
 804.29;  -63.000;  -77.933;    0.000;14.93333
 804.54;  -62.267;  -83.667;    0.000;21.40000
 804.80;  -48.733;  -91.333;    0.000;42.60000
 805.05;  -59.800;  -89.200;    0.000;29.40000
 805.31;  -33.733;  -55.133;    0.000;21.40000
 805.56;  -35.733;  -62.733;    0.000;27.00000
 805.82;  -63.067;  -81.467;    0.000;18.40000
 806.07;  -53.667;  -57.933;    0.000; 4.26667
 806.33;  -46.000;  -53.267;    0.000; 7.26667
 806.58;  -66.267;  -92.133;    0.000;25.86666
 806.84;  -56.200;  -74.600;    0.000;18.40000
 807.09;  -60.667;  -81.733;    0.000;21.06666
 807.34;  -40.867;  -78.533;    0.000;37.66667
 807.60;  -59.533;  -85.800;    0.000;26.26667
 807.85;  -33.933;  -53.200;    0.000;19.26667
 808.11;  -75.067;  -83.467;    0.000; 8.40000
 808.36;  -29.267;  -54.467;    0.000;25.20000
 808.62;  -66.267;  -82.933;    0.000;16.66666
 808.87;  -28.733;  -80.800;    0.000;52.06667
 809.13;  -63.533;  -79.667;    0.000;16.13333
 809.38;  -23.467;  -63.467;    0.000;40.00000
 809.63;  -69.933;  -77.867;    0.000; 7.93333
 809.89;  -25.667;  -70.467;    0.000;44.80000
 810.14;  -61.733;  -76.267;    0.000;14.53334
 810.40;  -54.000;  -58.200;    0.000; 4.20000
 810.65;  -44.533;  -80.133;    0.000;35.60000
 810.91;  -71.267;  -97.200;    0.000;25.93333
 811.16;  -49.000;  -85.733;    0.000;36.73333
 811.41;  -47.200;  -79.067;    0.000;31.86666
 811.67;  -58.067;  -96.600;    0.000;38.53333
 811.92;  -36.333;  -75.333;    0.000;39.00000
 812.18;  -69.067;  -82.333;    0.000;13.26667
 812.43;  -44.067;  -66.800;    0.000;22.73334
 812.68;  -62.800;  -89.200;    0.000;26.40000
 812.94;  -45.067;  -81.467;    0.000;36.40000
 813.19;  -56.400;  -76.067;    0.000;19.66666
 813.45;  -17.067;  -50.667;    0.000;33.60000
 813.70;  -61.533;  -94.467;    0.000;32.93333
 813.95;  -49.400;  -77.867;    0.000;28.46667
 814.21;  -54.600;  -87.000;    0.000;32.40000
 814.46;  -66.533;  -68.400;    0.000; 1.86667
 814.71;  -72.667;  -83.800;    0.000;11.13334
 814.97;  -46.867;  -81.467;    0.000;34.60000
 815.22;  -77.733;  -92.333;    0.000;14.60001
 815.48;  -57.400;  -88.133;    0.000;30.73333
 815.73;   -4.800;  -23.800;    0.000;19.00000
 815.98;  -42.267;  -83.267;    0.000;41.00000
 816.24;  -66.333;  -76.133;    0.000; 9.80000
 816.49;  -34.533;  -65.733;    0.000;31.20000
 816.74;  -75.800;  -83.067;    0.000; 7.26666
 817.00;  -29.000;  -54.667;    0.000;25.66667
 817.25;  -73.333;  -65.600;    0.000;-7.73334
 817.50;  -29.533;  -81.200;    0.000;51.66666
 817.76;  -73.600;  -80.000;    0.000; 6.40000
 818.01;  -73.667;  -79.267;    0.000; 5.60001
 818.26;  -67.267;  -92.867;    0.000;25.60000
 818.52;  -33.400;  -93.133;    0.000;59.73333
 818.77;  -71.800;  -87.467;    0.000;15.66666
 819.02;  145.400;  -43.200;    0.000;188.59999
 819.28;  -68.733;  -80.267;    0.000;11.53334
 819.53;  -65.733;  -66.467;    0.000; 0.73334
 819.78;  -55.400;  -76.533;    0.000;21.13333
 820.04;  -44.267;  -64.600;    0.000;20.33333
 820.29;  -43.800;  -85.733;    0.000;41.93333
 820.54;  -41.400;  -54.867;    0.000;13.46666
 820.79;  -63.333;  -63.867;    0.000; 0.53333
 821.05;  -58.933;  -89.800;    0.000;30.86667
 821.30;  -30.067;  -71.200;    0.000;41.13333
 821.55;  -34.467;  -61.333;    0.000;26.86666
 821.81;  -55.733;  -73.800;    0.000;18.06667
 822.06;  -48.867;  -67.533;    0.000;18.66667
 822.31;  -43.400;  -61.867;    0.000;18.46666
 822.56;  -72.733;  -84.533;    0.000;11.80000
 822.82;  -62.933;  -95.533;    0.000;32.60000
 823.07;  -28.733;  -64.267;    0.000;35.53334
 823.32;  -72.600;  -90.067;    0.000;17.46667
 823.58;  -44.000;  -71.667;    0.000;27.66666
 823.83;  -73.200;  -79.600;    0.000; 6.40000
 824.08;  -50.267;  -79.800;    0.000;29.53334
 824.33;  -69.067;  -86.000;    0.000;16.93333
 824.59;  -51.133;  -79.667;    0.000;28.53333
 824.84;  -64.133;  -78.400;    0.000;14.26667
 825.09;  -52.400;  -79.400;    0.000;27.00000
 825.34;  -57.467;  -82.067;    0.000;24.60000
 825.60;  -46.400;  -83.800;    0.000;37.40000
 825.85;  -74.067;  -82.667;    0.000; 8.60000
 826.10;  -63.000;  -86.600;    0.000;23.60000
 826.35;  -71.600;  -70.933;    0.000;-0.66666
 826.61;  -48.667;  -69.133;    0.000;20.46666
 826.86;  -95.867;  -95.867;    0.000; 0.00000
 827.11;  -44.667;  -79.067;    0.000;34.40000
 827.36;  -58.533;  -90.333;    0.000;31.80000
 827.61;  -74.333;  -96.067;    0.000;21.73333
 827.87;  -62.400;  -92.067;    0.000;29.66666
 828.12;  -44.667;  -73.533;    0.000;28.86666
 828.37;  -64.600;  -80.867;    0.000;16.26667
 828.62;  -62.333;  -94.400;    0.000;32.06667
 828.88;  -69.200;  -92.800;    0.000;23.60001
 829.13;  -40.200;  -86.400;    0.000;46.20000
 829.38;  -49.400;  -82.733;    0.000;33.33333
 829.63;  -61.067;  -81.467;    0.000;20.40000
 829.88;  -66.800;  -70.800;    0.000; 4.00000
 830.14;  -41.867;  -92.600;    0.000;50.73333
 830.39;  -54.533;  -65.867;    0.000;11.33334
 830.64;  -66.867;  -86.867;    0.000;20.00000
 830.89;  -55.000;  -72.333;    0.000;17.33334
 831.14;  -38.600;  -71.667;    0.000;33.06667
 831.39;  -74.067;  -87.867;    0.000;13.80000
 831.65;  -64.933;  -88.267;    0.000;23.33334
 831.90;  -74.267;  -91.733;    0.000;17.46666
 832.15;  -45.733;  -81.267;    0.000;35.53334
 832.40;  -56.333;  -66.533;    0.000;10.20000
 832.65;  -49.533;  -77.733;    0.000;28.20000
 832.90;  -91.200;  -97.933;    0.000; 6.73334
 833.16;  -54.400;  -75.400;    0.000;21.00000
 833.41;  -75.600;  -72.800;    0.000;-2.80000
 833.66;  -77.267;  -86.533;    0.000; 9.26666
 833.91;  -68.400;  -85.667;    0.000;17.26666
 834.16;  -70.800;  -87.267;    0.000;16.46667
 834.41;  -53.467;  -84.800;    0.000;31.33334
 834.66;  -35.933;  -62.600;    0.000;26.66666
 834.92;  -54.000;  -78.933;    0.000;24.93333
 835.17;  -79.133;  -94.267;    0.000;15.13334
 835.42;  -66.733;  -66.067;    0.000;-0.66666
 835.67;  -70.533;  -67.467;    0.000;-3.06667
 835.92;  -71.067;  -68.333;    0.000;-2.73333
 836.17;  -57.600;  -91.667;    0.000;34.06667
 836.42;  -65.933;  -91.400;    0.000;25.46667
 836.67;  -64.667;  -82.200;    0.000;17.53333
 836.93;  -65.067; -102.267;    0.000;37.20000
 837.18;  -60.667;  -63.800;    0.000; 3.13333
 837.43;  -61.400;  -82.667;    0.000;21.26666
 837.68;  -50.533;  -70.200;    0.000;19.66666
 837.93;  -85.000;  -81.667;    0.000;-3.33334
 838.18;  -60.800; -103.200;    0.000;42.40000
 838.43;  -71.733; -100.600;    0.000;28.86667
 838.68;  -48.267;  -82.200;    0.000;33.93333
 838.93;  -68.867;  -79.533;    0.000;10.66666
 839.18;  -54.000;  -82.600;    0.000;28.60000
 839.43;  -54.667;  -67.000;    0.000;12.33333
 839.69;  -75.267;  -80.200;    0.000; 4.93333
 839.94;  -75.667;  -93.667;    0.000;18.00000
 840.19;  -46.800;  -92.267;    0.000;45.46667
 840.44;  -54.133; -100.933;    0.000;46.80000
 840.69;  -54.667;  -60.933;    0.000; 6.26667
 840.94;  -79.200;  -78.467;    0.000;-0.73333
 841.19;  -32.067;  -51.467;    0.000;19.40000
 841.44;  -53.800;  -72.667;    0.000;18.86666
 841.69;   -9.200;  -60.533;    0.000;51.33333
 841.94;  -70.333;  -85.200;    0.000;14.86666
 842.19;  -51.933;  -64.267;    0.000;12.33334
 842.44;  -80.267;  -94.800;    0.000;14.53333
 842.69;  -69.333;  -88.400;    0.000;19.06667
 842.94;  -66.600;  -80.400;    0.000;13.80000
 843.19;  -69.000;  -79.267;    0.000;10.26667
 843.44;  -75.800;  -82.067;    0.000; 6.26666
 843.69;  -54.667;  -88.533;    0.000;33.86666
 843.94;   -9.200;  -36.333;    0.000;27.13333
 844.19;  -56.267;  -87.067;    0.000;30.80000
 844.44;  -25.400;  -78.800;    0.000;53.40000
 844.69;  -69.533;  -79.867;    0.000;10.33334
 844.95;  -65.733;  -94.067;    0.000;28.33334
 845.20;  -68.600;  -83.733;    0.000;15.13333
 845.45;  -46.867;  -74.200;    0.000;27.33333
 845.70;  -67.533;  -73.400;    0.000; 5.86667
 845.95;  -71.667;  -87.600;    0.000;15.93333
 846.20;  -70.400;  -67.133;    0.000;-3.26667
 846.45;  -84.133;  -83.467;    0.000;-0.66666
 846.70;  -57.733;  -72.400;    0.000;14.66667
 846.95;  -69.667;  -84.333;    0.000;14.66667
 847.20;  -65.267;  -82.067;    0.000;16.80000
 847.44;  -35.733;  -51.400;    0.000;15.66667
 847.69;  -64.733;  -81.067;    0.000;16.33334
 847.94;  -65.333;  -67.533;    0.000; 2.20000
 848.19;  -62.400;  -81.067;    0.000;18.66666
 848.44;  -50.133;  -74.867;    0.000;24.73333
 848.69;  -59.200;  -81.267;    0.000;22.06667
 848.94;  -48.467;  -76.267;    0.000;27.80000
 849.19;  -70.933;  -82.667;    0.000;11.73333
 849.44;  -63.133;  -88.733;    0.000;25.59999
 849.69;  -48.933;  -50.067;    0.000; 1.13333
 849.94;  -65.400; -100.067;    0.000;34.66666
 850.19;  -64.000;  -66.067;    0.000; 2.06667
 850.44;  -51.733;  -72.000;    0.000;20.26667
 850.69;  -67.400;  -77.733;    0.000;10.33333
 850.94;  -58.267;  -89.600;    0.000;31.33333
 851.19;  -71.200;  -80.133;    0.000; 8.93333
 851.44;  -60.933;  -87.667;    0.000;26.73333
 851.69;  -58.667;  -82.667;    0.000;24.00000
 851.94;  -84.333;  -72.533;    0.000;-11.80000
 852.19;  -49.733;  -83.067;    0.000;33.33333
 852.44;  -62.733;  -98.333;    0.000;35.60000
 852.68;  -75.333;  -80.467;    0.000; 5.13333
 852.93;  -59.733;  -80.000;    0.000;20.26667
 853.18;  -59.267;  -89.400;    0.000;30.13334
 853.43;  -80.067;  -83.133;    0.000; 3.06667
 853.68;  -62.467;  -77.933;    0.000;15.46667
 853.93;  -77.267;  -78.667;    0.000; 1.39999
 854.18;  -58.733;  -72.267;    0.000;13.53334
 854.43;  -48.600;  -84.733;    0.000;36.13333
 854.68;  -56.733;  -70.467;    0.000;13.73333
 854.93;  -43.000;  -69.933;    0.000;26.93333
 855.18;  -52.933;  -76.600;    0.000;23.66666
 855.42;  -57.000;  -77.600;    0.000;20.60000
 855.67;  -73.600;  -67.600;    0.000;-6.00000
 855.92;  -80.667;  -87.067;    0.000; 6.40000
 856.17;  -45.667;  -65.800;    0.000;20.13334
 856.42;  -64.667;  -92.533;    0.000;27.86667
 856.67;  -49.933;  -73.600;    0.000;23.66666
 856.92;  -69.533;  -76.133;    0.000; 6.60000
 857.17;  -61.667;  -81.733;    0.000;20.06666
 857.41;  -73.800;  -77.800;    0.000; 4.00000
 857.66;  -40.867;  -66.333;    0.000;25.46667
 857.91;  -72.200;  -58.000;    0.000;-14.20000
 858.16;  -56.267;  -78.867;    0.000;22.60000
 858.41;  -66.400;  -79.267;    0.000;12.86667
 858.66;  -68.600;  -80.000;    0.000;11.40000
 858.91;  -65.400;  -61.133;    0.000;-4.26667
 859.15;  -49.200;  -79.533;    0.000;30.33333
 859.40;  -53.067;  -68.533;    0.000;15.46667
 859.65;  -67.800;  -91.000;    0.000;23.20000
 859.90;  -79.600;  -87.133;    0.000; 7.53333
 860.15;  -65.533;  -74.200;    0.000; 8.66666
 860.40;  -53.867;  -64.000;    0.000;10.13334
 860.64;  -40.133;  -57.867;    0.000;17.73333
 860.89;  -63.200;  -91.867;    0.000;28.66667
 861.14;  -62.800;  -73.667;    0.000;10.86666
 861.39;  -72.133;  -68.933;    0.000;-3.20000
 861.64;  -67.533;  -73.667;    0.000; 6.13333
 861.88;  -42.267;  -73.933;    0.000;31.66667
 862.13;  -43.867;  -77.467;    0.000;33.60000
 862.38;  -85.867;  -78.800;    0.000;-7.06667
 862.63;  -55.067;  -87.067;    0.000;32.00000
 862.88;  -68.400;  -81.067;    0.000;12.66666
 863.12;  -65.667;  -62.067;    0.000;-3.60000
 863.37;  -56.933;  -85.267;    0.000;28.33334
 863.62;  -62.000;  -86.000;    0.000;24.00000
 863.87;  -72.733;  -80.067;    0.000; 7.33334
 864.12;  -52.733;  -79.600;    0.000;26.86666
 864.36;  -73.000;  -79.933;    0.000; 6.93333
 864.61;  -56.200;  -70.133;    0.000;13.93333
 864.86;  -58.733;  -92.467;    0.000;33.73333
 865.11;  -52.733;  -53.067;    0.000; 0.33333
 865.35;  -68.000;  -58.867;    0.000;-9.13334
 865.60;  -62.533;  -73.000;    0.000;10.46667
 865.85;  -43.933;  -60.800;    0.000;16.86666
 866.10;  -83.800;  -80.467;    0.000;-3.33334
 866.34;  -59.800;  -78.133;    0.000;18.33333
 866.59;  -42.467;  -46.200;    0.000; 3.73333
 866.84;  -56.800;  -86.467;    0.000;29.66667
 867.09;  -45.600;  -71.000;    0.000;25.40000
 867.33;  -74.933;  -98.600;    0.000;23.66666
 867.58;  -56.467;  -60.400;    0.000; 3.93333
 867.83;  -73.533;  -82.533;    0.000; 9.00000
 868.08;  -55.667;  -60.733;    0.000; 5.06667
 868.32;  -61.733;  -82.067;    0.000;20.33333
 868.57;  -67.467;  -69.667;    0.000; 2.20000
 868.82;  -48.267;  -62.533;    0.000;14.26667
 869.07;  -55.933;  -86.800;    0.000;30.86667
 869.31;  -66.133;  -74.067;    0.000; 7.93333
 869.56;  -56.800;  -80.867;    0.000;24.06667
 869.81;  -56.600;  -90.933;    0.000;34.33334
 870.05;  -73.000;  -86.067;    0.000;13.06667
 870.30;  -67.200;  -63.600;    0.000;-3.60000
 870.55;  -53.933;  -62.600;    0.000; 8.66666
 870.80;  -48.867;  -58.000;    0.000; 9.13334
 871.04;  -46.667;  -54.933;    0.000; 8.26667
 871.29;  -67.333;  -87.000;    0.000;19.66666
 871.54;  -47.467;  -79.733;    0.000;32.26666
 871.78;  -93.933;  -82.267;    0.000;-11.66666
 872.03;  -65.267;  -57.667;    0.000;-7.60000
 872.28;  -60.600;  -72.333;    0.000;11.73334
 872.52;  -62.400;  -81.533;    0.000;19.13333
 872.77;  -51.133;  -95.400;    0.000;44.26667
 873.02;  -54.800;  -87.533;    0.000;32.73333
 873.26;  -66.467;  -88.267;    0.000;21.80000
 873.51;  -39.733;  -64.400;    0.000;24.66667
 873.76;  -54.467;  -66.533;    0.000;12.06667
 874.00;  -44.000;  -61.267;    0.000;17.26667
 874.25;  -80.067;  -98.000;    0.000;17.93333
 874.50;  -62.933;  -72.733;    0.000; 9.80000
 874.74;  -60.133;  -71.533;    0.000;11.40000
 874.99;  -46.467;  -62.333;    0.000;15.86666
 875.24;  -43.067;  -39.667;    0.000;-3.40000
 875.48;  -44.133;  -65.200;    0.000;21.06666
 875.73;  -67.467;  -71.733;    0.000; 4.26666
 875.98;  -50.733;  -78.067;    0.000;27.33333
 876.22;  -49.600;  -78.533;    0.000;28.93333
 876.47;  -37.400;  -48.267;    0.000;10.86666
 876.71;  -57.000;  -64.200;    0.000; 7.20000
 876.96;  -34.533;  -29.200;    0.000;-5.33333
 877.21;  -69.533;  -74.867;    0.000; 5.33334
 877.45;  -72.667;  -79.200;    0.000; 6.53333
 877.70;  -51.933;  -56.933;    0.000; 5.00000
 877.95;  -61.200;  -38.600;    0.000;-22.60000
 878.19;  -38.267;  -50.600;    0.000;12.33333
 878.44;  -49.067;  -66.267;    0.000;17.20000
 878.68;  -14.200;  -39.333;    0.000;25.13333
 878.93;  -35.067;  -64.867;    0.000;29.80000
 879.18;  -48.733;  -76.933;    0.000;28.20000
 879.42;  -42.667;  -62.067;    0.000;19.40000
 879.67;  -70.733;  -71.933;    0.000; 1.20000
 879.91;  -38.000;  -48.067;    0.000;10.06667
 880.16;  -44.667;  -52.467;    0.000; 7.80000
 880.40;  -42.200;  -58.200;    0.000;16.00000
 880.65;  -50.933;  -50.600;    0.000;-0.33334
 880.90;  -23.400;  -48.333;    0.000;24.93333
 881.14;  -43.800;  -53.200;    0.000; 9.40000
 881.39;  -66.000;  -59.867;    0.000;-6.13334
 881.63;  -68.933;  -75.133;    0.000; 6.20000
 881.88;  -40.667;  -81.467;    0.000;40.80000
 882.12;  -60.133;  -63.667;    0.000; 3.53333
 882.37;  -30.867;  -47.333;    0.000;16.46667
 882.62;  -56.667;  -64.667;    0.000; 8.00000
 882.86;  -28.267;  -67.533;    0.000;39.26667
 883.11;  -48.200;  -61.400;    0.000;13.20000
 883.35;  -20.400;  -52.667;    0.000;32.26667
 883.60;  -39.067;  -31.067;    0.000;-8.00000
 883.84;  -42.133;  -62.400;    0.000;20.26667
 884.09;  -48.333;  -52.000;    0.000; 3.66667
 884.33;  -29.000;  -51.600;    0.000;22.60000
 884.58;  -34.067;  -59.533;    0.000;25.46667
 884.82;  -49.200;  -59.667;    0.000;10.46667
 885.07;  -45.667;  -68.067;    0.000;22.40000
 885.31;  -40.267;  -39.533;    0.000;-0.73333
 885.56;  -42.533;  -58.067;    0.000;15.53333
 885.80;  -58.600;  -72.133;    0.000;13.53333
 886.05;  -61.467;  -65.533;    0.000; 4.06667
 886.29;  -15.200;  -44.400;    0.000;29.20000
 886.54;  -53.200;  -63.333;    0.000;10.13333
 886.78;  -34.467;  -55.533;    0.000;21.06667
 887.03;  -39.133;  -63.667;    0.000;24.53333
 887.27;    0.400;  -25.200;    0.000;25.60000
 887.52;  -34.400;  -46.933;    0.000;12.53333
 887.76;  -33.467;  -55.133;    0.000;21.66667
 888.01;  -43.333;  -59.267;    0.000;15.93333
 888.25;  -43.400;  -59.200;    0.000;15.80000
 888.50;  -24.800;  -40.667;    0.000;15.86667
 888.74;  -42.600;  -43.467;    0.000; 0.86667
 888.99;  -36.133;  -50.267;    0.000;14.13333
 889.23;  -20.133;  -47.667;    0.000;27.53333
 889.48;  -50.467;  -54.600;    0.000; 4.13333
 889.72;  -24.267;  -39.733;    0.000;15.46667
 889.97;  -36.333;  -46.267;    0.000; 9.93333
 890.21;  -21.733;  -31.267;    0.000; 9.53333
 890.46;  -37.200;  -38.800;    0.000; 1.60000
 890.70;  -25.867;  -54.933;    0.000;29.06667
 890.94;  -31.200;  -51.533;    0.000;20.33333
 891.19;  -10.333;  -44.067;    0.000;33.73333
 891.43;  -17.200;  -44.200;    0.000;27.00000
 891.68;  -14.067;  -36.867;    0.000;22.80000
 891.92;  -43.267;  -59.800;    0.000;16.53333
 892.17;  -25.333;  -51.333;    0.000;26.00000
 892.41;  -27.667;  -53.200;    0.000;25.53333
 892.66;  -28.600;  -42.400;    0.000;13.80000
 892.90;    0.333;  -26.933;    0.000;27.26667
 893.14;  -23.467;  -28.000;    0.000; 4.53333
 893.39;  -26.667;  -29.600;    0.000; 2.93333
 893.63;  -16.267;  -46.800;    0.000;30.53333
 893.88;  -44.800;  -47.333;    0.000; 2.53333
 894.12;  -19.200;  -31.533;    0.000;12.33333
 894.36;  -23.933;  -43.800;    0.000;19.86667
 894.61;  -15.133;  -41.000;    0.000;25.86667
 894.85;   -5.333;  -24.667;    0.000;19.33333
 895.10;   -7.800;  -24.267;    0.000;16.46667
 895.34;  -20.333;  -39.333;    0.000;19.00000
 895.58;   -8.267;  -28.000;    0.000;19.73333
 895.83;   -9.200;  -29.267;    0.000;20.06667
 896.07;   -6.533;  -37.333;    0.000;30.80000
 896.32;   -4.400;  -41.800;    0.000;37.40000
 896.56;    4.267;  -28.467;    0.000;32.73333
 896.80;   -1.333;  -32.933;    0.000;31.60000
 897.05;  -12.400;  -27.733;    0.000;15.33333
 897.29;   15.600;  -14.200;    0.000;29.80000
 897.53;  -24.200;  -10.067;    0.000;-14.13333
 897.78;   15.067;  -15.333;    0.000;30.40000
 898.02;   13.000;    7.400;    0.000; 5.60000
 898.26;  -29.000;   -7.933;    0.000;-21.06667
 898.51;   -7.200;    0.533;    0.000;-7.73333
 898.75;    4.600;   -7.133;    0.000;11.73333
 898.99;   22.533;    9.600;    0.000;12.93333
 899.24;   -6.000;  -18.067;    0.000;12.06667
 899.48;   13.267;   11.267;    0.000; 2.00000
 899.73;   15.400;  -25.333;    0.000;40.73333
 899.97;   22.000;    6.467;    0.000;15.53333
 900.21;   34.667;   10.533;    0.000;24.13333
 900.46;   27.400;   25.933;    0.000; 1.46667
 900.70;   46.267;   19.600;    0.000;26.66667
 900.94;   20.733;  -12.400;    0.000;33.13333
 901.18;   49.533;   41.067;    0.000; 8.46667
 901.43;   67.333;   44.133;    0.000;23.20000
 901.67;   56.400;   40.000;    0.000;16.40000
 901.91;   62.733;   30.800;    0.000;31.93333
 902.16;   52.400;   32.733;    0.000;19.66667
 902.40;   84.067;   68.067;    0.000;16.00000
 902.64;   70.800;   43.267;    0.000;27.53334
 902.89;   79.067;   63.400;    0.000;15.66666
 903.13;   95.067;   87.933;    0.000; 7.13333
 903.37;  117.733;  118.667;    0.000;-0.93333
 903.61;  135.200;  126.733;    0.000; 8.46667
 903.86;  152.867;  117.467;    0.000;35.40000
 904.10;  153.600;  131.933;    0.000;21.66667
 904.34;  172.533;  167.667;    0.000; 4.86667
 904.59;  191.200;  192.933;    0.000;-1.73334
 904.83;  242.333;  198.667;    0.000;43.66666
 905.07;  273.667;  244.067;    0.000;29.59999
 905.31;  307.267;  300.133;    0.000; 7.13333
 905.56;  333.267;  270.800;    0.000;62.46667
 905.80;  398.867;  346.467;    0.000;52.39999

