point1
Integration time [ms]:  15.000
Averaging Nr. [scans]: 15
Smoothing Nr. [pixels]: 0
Data measured with spectrometer [name]: 1307078U2
Wave   ;Sample   ;Dark     ;Reference;Scope Corrected for Dark
[nm]   ;[counts] ;[counts] ;[counts] 

 351.07;   21.133;   23.733;    0.000;-2.60000
 351.37;    7.733;   -4.467;    0.000;12.20000
 351.66;   -0.733;    3.333;    0.000;-4.06667
 351.95;    6.400;  -13.467;    0.000;19.86667
 352.24;   -4.267;   -8.067;    0.000; 3.80000
 352.54;   10.867;  -24.200;    0.000;35.06667
 352.83;    3.667;    0.267;    0.000; 3.40000
 353.12;   20.800;   -2.733;    0.000;23.53333
 353.42;  -12.533;  -10.267;    0.000;-2.26667
 353.71;   27.400;   -6.533;    0.000;33.93333
 354.00;   30.067;    1.600;    0.000;28.46667
 354.30;    0.600;  -21.333;    0.000;21.93333
 354.59;    5.400;  -15.133;    0.000;20.53333
 354.88;    9.800;    2.333;    0.000; 7.46667
 355.17;  -14.867;   -5.867;    0.000;-9.00000
 355.47;   -8.933;  -19.600;    0.000;10.66667
 355.76;  -15.133;    0.867;    0.000;-16.00000
 356.05;   13.467;  -12.333;    0.000;25.80000
 356.35;  -22.267;   -0.533;    0.000;-21.73333
 356.64;   16.467;   13.200;    0.000; 3.26667
 356.93;    9.000;   -4.933;    0.000;13.93333
 357.22;   22.200;   -8.133;    0.000;30.33333
 357.52;   -2.000;   -2.867;    0.000; 0.86667
 357.81;    7.333;  -14.600;    0.000;21.93333
 358.10;   -4.667;  -13.533;    0.000; 8.86667
 358.39;  -15.733;  -12.400;    0.000;-3.33333
 358.69;    1.400;   -6.000;    0.000; 7.40000
 358.98;    1.267;  -19.267;    0.000;20.53333
 359.27;  -10.267;    6.000;    0.000;-16.26667
 359.57;   25.667;   15.333;    0.000;10.33333
 359.86;    4.933;  -22.333;    0.000;27.26667
 360.15;   11.267;   10.667;    0.000; 0.60000
 360.44;  -18.267;  -15.000;    0.000;-3.26667
 360.74;   15.333;   -6.000;    0.000;21.33333
 361.03;  -16.867;    4.867;    0.000;-21.73333
 361.32;    7.400;   -6.333;    0.000;13.73333
 361.61;  -12.067;   -5.067;    0.000;-7.00000
 361.91;   24.533;   -3.533;    0.000;28.06667
 362.20;    3.267;  -19.200;    0.000;22.46667
 362.49;   10.800;  -10.067;    0.000;20.86667
 362.78;    5.533;    3.733;    0.000; 1.80000
 363.08;   -1.267;  -33.667;    0.000;32.40000
 363.37;  -14.667;   -8.200;    0.000;-6.46667
 363.66;   23.333;   14.267;    0.000; 9.06667
 363.95;  -23.200;    1.400;    0.000;-24.60000
 364.24;  -12.133;   -9.667;    0.000;-2.46667
 364.54;  -14.667;   -8.333;    0.000;-6.33333
 364.83;   -4.867;   -9.533;    0.000; 4.66667
 365.12;   -2.533;  -10.600;    0.000; 8.06667
 365.41;    0.133;   -6.533;    0.000; 6.66667
 365.71;   -1.400;  -12.133;    0.000;10.73333
 366.00;   -5.400;  -10.667;    0.000; 5.26667
 366.29;  -15.333;    0.933;    0.000;-16.26667
 366.58;   19.200;   -8.133;    0.000;27.33333
 366.87;   12.800;  -14.333;    0.000;27.13333
 367.17;    5.933;   -6.467;    0.000;12.40000
 367.46;  -14.333;  -11.133;    0.000;-3.20000
 367.75;   -3.867;  -16.000;    0.000;12.13333
 368.04;  -23.600;  -20.533;    0.000;-3.06667
 368.34;  -18.533;  -21.467;    0.000; 2.93333
 368.63;   -5.800;    3.133;    0.000;-8.93333
 368.92;    2.933;    7.000;    0.000;-4.06667
 369.21;   -8.667;   -1.933;    0.000;-6.73333
 369.50;   19.933;  -17.667;    0.000;37.60000
 369.80;  -14.467;    5.467;    0.000;-19.93333
 370.09;    6.667;   -1.067;    0.000; 7.73333
 370.38;    9.200;  -19.733;    0.000;28.93333
 370.67;   23.667;   -4.800;    0.000;28.46667
 370.96;    9.667;   -1.533;    0.000;11.20000
 371.26;  -10.000;   -6.267;    0.000;-3.73333
 371.55;  -13.400;   -8.933;    0.000;-4.46667
 371.84;   -6.733;  -14.600;    0.000; 7.86667
 372.13;    3.000;  -14.067;    0.000;17.06667
 372.42;    9.200;  -10.600;    0.000;19.80000
 372.71;    4.200;    2.800;    0.000; 1.40000
 373.01;   -4.400;  -12.133;    0.000; 7.73333
 373.30;  -16.800;   -0.067;    0.000;-16.73333
 373.59;    8.267;  -20.200;    0.000;28.46667
 373.88;  -11.600;  -15.133;    0.000; 3.53333
 374.17;   -1.000;   -1.800;    0.000; 0.80000
 374.46;   -3.867;  -18.200;    0.000;14.33333
 374.76;    4.267;    7.667;    0.000;-3.40000
 375.05;   18.267;   29.000;    0.000;-10.73333
 375.34;   -8.200;   -8.467;    0.000; 0.26667
 375.63;  -11.267;    0.467;    0.000;-11.73333
 375.92;   12.200;   -0.533;    0.000;12.73333
 376.21;  -13.067;   -4.600;    0.000;-8.46667
 376.51;  -17.000;  -11.000;    0.000;-6.00000
 376.80;  -14.000;  -11.800;    0.000;-2.20000
 377.09;   17.267;  -11.600;    0.000;28.86667
 377.38;   -6.533;    0.067;    0.000;-6.60000
 377.67;    2.733;  -11.067;    0.000;13.80000
 377.96;  -13.133;  -10.933;    0.000;-2.20000
 378.25;   -0.200;    1.467;    0.000;-1.66667
 378.55;   -2.800;  -17.800;    0.000;15.00000
 378.84;   -3.067;  -23.933;    0.000;20.86667
 379.13;  -18.467;   -1.000;    0.000;-17.46667
 379.42;    6.000;  -29.667;    0.000;35.66667
 379.71;   -2.067;  -16.400;    0.000;14.33333
 380.00;   -2.000;   -1.400;    0.000;-0.60000
 380.29;   -5.533;    7.000;    0.000;-12.53333
 380.59;   -7.200;   -4.800;    0.000;-2.40000
 380.88;  -15.133;  -16.400;    0.000; 1.26667
 381.17;    4.600;  -15.867;    0.000;20.46667
 381.46;  -11.333;    2.800;    0.000;-14.13333
 381.75;    1.600;   -2.533;    0.000; 4.13333
 382.04;   -7.867;   -7.067;    0.000;-0.80000
 382.33;    9.067;  -27.667;    0.000;36.73333
 382.62;  -17.467;  -12.533;    0.000;-4.93333
 382.91;   -4.867;   -2.667;    0.000;-2.20000
 383.21;   -2.000;   -2.067;    0.000; 0.06667
 383.50;  -12.933;  -13.133;    0.000; 0.20000
 383.79;   25.200;  -19.600;    0.000;44.80000
 384.08;    6.000;  -20.467;    0.000;26.46667
 384.37;    3.667;  -20.000;    0.000;23.66667
 384.66;   -7.067;  -16.867;    0.000; 9.80000
 384.95;  -27.733;   -5.000;    0.000;-22.73333
 385.24;  -19.067;  -13.133;    0.000;-5.93333
 385.53;    2.333;  -11.800;    0.000;14.13333
 385.83;   -2.600;   -2.400;    0.000;-0.20000
 386.12;    3.333;  -12.467;    0.000;15.80000
 386.41;   -6.000;  -16.933;    0.000;10.93333
 386.70;   14.400;  -12.933;    0.000;27.33333
 386.99;   -2.933;  -20.533;    0.000;17.60000
 387.28;    4.133;    1.800;    0.000; 2.33333
 387.57;   -5.267;   -9.267;    0.000; 4.00000
 387.86;    6.600;   -3.333;    0.000; 9.93333
 388.15;   -7.467;  -25.200;    0.000;17.73333
 388.44;    4.667;   -7.200;    0.000;11.86667
 388.73;   -2.200;  -13.400;    0.000;11.20000
 389.02;    5.800;    3.467;    0.000; 2.33333
 389.31;  -12.533;  -10.667;    0.000;-1.86667
 389.61;   -0.600;  -10.667;    0.000;10.06667
 389.90;    3.667;  -24.733;    0.000;28.40000
 390.19;   -7.733;   -9.733;    0.000; 2.00000
 390.48;    7.267;  -27.600;    0.000;34.86667
 390.77;   -7.867;    6.467;    0.000;-14.33333
 391.06;  -13.400;   -7.800;    0.000;-5.60000
 391.35;   -9.133;  -22.800;    0.000;13.66667
 391.64;   19.600;    1.133;    0.000;18.46667
 391.93;  -13.733;    0.000;    0.000;-13.73333
 392.22;   -3.600;  -13.533;    0.000; 9.93333
 392.51;   -7.267;  -10.933;    0.000; 3.66667
 392.80;    8.400;   -6.733;    0.000;15.13333
 393.09;  -18.000;  -27.333;    0.000; 9.33333
 393.38;   -1.933;  -14.467;    0.000;12.53333
 393.67;  -18.733;  -32.867;    0.000;14.13333
 393.96;   -0.667;  -11.133;    0.000;10.46667
 394.25;  -15.067;  -28.800;    0.000;13.73333
 394.54;   -7.800;  -18.867;    0.000;11.06667
 394.83;  -21.200;  -16.333;    0.000;-4.86667
 395.13;   17.667;  -12.333;    0.000;30.00000
 395.42;   -4.000;  -11.733;    0.000; 7.73333
 395.71;   19.267;  -31.733;    0.000;51.00000
 396.00;    0.600;  -13.667;    0.000;14.26667
 396.29;   -6.467;   -4.733;    0.000;-1.73333
 396.58;  -18.600;   -9.467;    0.000;-9.13333
 396.87;   -0.733;    1.200;    0.000;-1.93333
 397.16;   -3.600;  -10.133;    0.000; 6.53333
 397.45;    3.733;  -20.333;    0.000;24.06667
 397.74;   -8.333;  -15.200;    0.000; 6.86667
 398.03;   -4.467;  -30.000;    0.000;25.53333
 398.32;    0.933;  -18.733;    0.000;19.66667
 398.61;  -10.267;  -19.667;    0.000; 9.40000
 398.90;   -8.400;  -10.733;    0.000; 2.33333
 399.19;    5.133;  -27.000;    0.000;32.13333
 399.48;  -16.600;  -15.533;    0.000;-1.06667
 399.77;  -11.533;  -12.733;    0.000; 1.20000
 400.06;  -24.267;  -10.667;    0.000;-13.60000
 400.35;   -5.667;   -8.200;    0.000; 2.53333
 400.64;  -35.867;    6.733;    0.000;-42.60000
 400.93;   -4.733;  -24.533;    0.000;19.80000
 401.22;   -0.067;   -5.467;    0.000; 5.40000
 401.51;   -8.400;  -10.600;    0.000; 2.20000
 401.80;  -13.467;  -23.667;    0.000;10.20000
 402.09;   -6.933;  -12.067;    0.000; 5.13333
 402.38;   -5.400;  -16.667;    0.000;11.26667
 402.67;  -20.000;    6.600;    0.000;-26.60000
 402.96;   -4.867;  -22.933;    0.000;18.06667
 403.25;   -0.600;  -26.200;    0.000;25.60000
 403.54;   11.733;  -16.467;    0.000;28.20000
 403.83;   -6.000;   -0.200;    0.000;-5.80000
 404.12;  -25.800;  -10.000;    0.000;-15.80000
 404.41;  -13.733;  -15.067;    0.000; 1.33333
 404.70;   -6.067;    0.533;    0.000;-6.60000
 404.98;  -12.800;   -0.333;    0.000;-12.46667
 405.27;   -6.133;  -23.267;    0.000;17.13333
 405.56;    1.733;   -3.867;    0.000; 5.60000
 405.85;  -16.000;  -32.400;    0.000;16.40000
 406.14;   20.800;  -28.400;    0.000;49.20000
 406.43;    3.733;  -25.933;    0.000;29.66667
 406.72;  -10.600;   -6.400;    0.000;-4.20000
 407.01;  -19.200;  -17.733;    0.000;-1.46667
 407.30;  -20.267;  -23.733;    0.000; 3.46667
 407.59;  -12.600;  -14.200;    0.000; 1.60000
 407.88;  -24.867;  -23.067;    0.000;-1.80000
 408.17;  -14.000;   -4.600;    0.000;-9.40000
 408.46;    6.267;   -9.933;    0.000;16.20000
 408.75;   -2.800;   -1.533;    0.000;-1.26667
 409.04;   -7.533;  -16.533;    0.000; 9.00000
 409.33;    0.133;  -28.200;    0.000;28.33333
 409.62;   12.600;  -19.267;    0.000;31.86667
 409.91;  -20.867;  -12.400;    0.000;-8.46667
 410.20;  -24.533;  -31.000;    0.000; 6.46667
 410.48;  -20.600;   -4.467;    0.000;-16.13333
 410.77;  -13.000;  -27.000;    0.000;14.00000
 411.06;   -5.467;  -23.000;    0.000;17.53333
 411.35;    4.400;    5.667;    0.000;-1.26667
 411.64;   -9.667;   -7.933;    0.000;-1.73333
 411.93;   -8.400;  -26.000;    0.000;17.60000
 412.22;  -26.333;  -21.533;    0.000;-4.80000
 412.51;  -16.867;   -4.467;    0.000;-12.40000
 412.80;  -17.400;    2.467;    0.000;-19.86667
 413.09;    2.800;  -26.667;    0.000;29.46667
 413.38;   14.200;    3.067;    0.000;11.13333
 413.67;   -1.667;  -30.467;    0.000;28.80000
 413.96;  -22.200;  -31.400;    0.000; 9.20000
 414.24;    5.867;   -9.733;    0.000;15.60000
 414.53;    7.400;    5.933;    0.000; 1.46667
 414.82;  -16.667;    2.000;    0.000;-18.66667
 415.11;  -19.200;   11.667;    0.000;-30.86667
 415.40;    0.667;  -18.067;    0.000;18.73333
 415.69;  -10.867;   -9.733;    0.000;-1.13333
 415.98;    1.200;   -1.600;    0.000; 2.80000
 416.27;  -20.333;  -16.267;    0.000;-4.06667
 416.56;    1.133;  -38.667;    0.000;39.80000
 416.84;  -15.800;   -7.600;    0.000;-8.20000
 417.13;   -3.000;  -12.867;    0.000; 9.86667
 417.42;   -0.467;   -7.067;    0.000; 6.60000
 417.71;    2.400;  -20.667;    0.000;23.06667
 418.00;  -23.667;  -17.733;    0.000;-5.93333
 418.29;   24.067;  -14.600;    0.000;38.66667
 418.58;  -11.200;  -36.267;    0.000;25.06667
 418.87;  -13.800;  -16.000;    0.000; 2.20000
 419.15;  -17.200;  -19.800;    0.000; 2.60000
 419.44;   14.000;  -11.533;    0.000;25.53333
 419.73;  -18.333;  -24.200;    0.000; 5.86667
 420.02;    1.800;  -34.533;    0.000;36.33333
 420.31;  -15.467;   -7.800;    0.000;-7.66667
 420.60;    3.067;   -0.667;    0.000; 3.73333
 420.89;   -9.800;  -25.200;    0.000;15.40000
 421.18;    4.800;  -17.533;    0.000;22.33333
 421.46;   -1.267;  -29.267;    0.000;28.00000
 421.75;    3.200;  -25.333;    0.000;28.53333
 422.04;  -14.400;  -29.333;    0.000;14.93333
 422.33;    6.867;   -3.800;    0.000;10.66667
 422.62;  -14.933;  -12.867;    0.000;-2.06667
 422.91;  -19.533;  -28.933;    0.000; 9.40000
 423.19;  -22.400;  -30.533;    0.000; 8.13333
 423.48;    7.667;   -8.200;    0.000;15.86667
 423.77;  -22.467;  -16.533;    0.000;-5.93333
 424.06;   -3.333;  -32.667;    0.000;29.33333
 424.35;   -2.333;  -29.533;    0.000;27.20000
 424.64;   17.533;  -11.667;    0.000;29.20000
 424.93;  -21.000;  -10.267;    0.000;-10.73333
 425.21;  -11.400;  -34.267;    0.000;22.86667
 425.50;   -2.400;  -15.733;    0.000;13.33333
 425.79;    0.733;  -21.533;    0.000;22.26667
 426.08;  -17.133;  -24.467;    0.000; 7.33333
 426.37;    8.933;   -5.533;    0.000;14.46667
 426.65;  -38.467;   -9.733;    0.000;-28.73333
 426.94;   -8.000;  -21.000;    0.000;13.00000
 427.23;   -6.733;  -24.133;    0.000;17.40000
 427.52;    3.133;  -27.333;    0.000;30.46667
 427.81;  -30.667;  -22.067;    0.000;-8.60000
 428.10;    0.133;   -2.667;    0.000; 2.80000
 428.38;  -34.733;  -44.067;    0.000; 9.33333
 428.67;  -14.733;  -13.733;    0.000;-1.00000
 428.96;  -17.000;  -38.867;    0.000;21.86666
 429.25;   -0.533;   -4.400;    0.000; 3.86667
 429.54;   -0.400;  -29.933;    0.000;29.53333
 429.82;   -4.133;   -8.533;    0.000; 4.40000
 430.11;   -7.667;    5.867;    0.000;-13.53333
 430.40;    5.000;   -2.400;    0.000; 7.40000
 430.69;  -14.467;  -11.200;    0.000;-3.26667
 430.98;   -4.733;  -23.667;    0.000;18.93333
 431.26;   -3.333;  -13.867;    0.000;10.53333
 431.55;   12.600;   -3.400;    0.000;16.00000
 431.84;    1.200;  -21.000;    0.000;22.20000
 432.13;    8.867;  -11.267;    0.000;20.13333
 432.41;  -15.533;  -24.200;    0.000; 8.66667
 432.70;    5.667;  -20.200;    0.000;25.86667
 432.99;  -15.000;  -17.533;    0.000; 2.53333
 433.28;   -5.733;  -16.933;    0.000;11.20000
 433.57;   -7.867;  -16.867;    0.000; 9.00000
 433.85;   22.333;  -10.267;    0.000;32.60000
 434.14;  -15.667;   -4.267;    0.000;-11.40000
 434.43;   24.133;  -14.400;    0.000;38.53333
 434.72;  -22.200;  -18.600;    0.000;-3.60000
 435.00;   -0.533;   -6.200;    0.000; 5.66667
 435.29;  -22.133;  -15.933;    0.000;-6.20000
 435.58;   -4.667;   -0.067;    0.000;-4.60000
 435.87;  -20.933;   -7.533;    0.000;-13.40000
 436.15;   -3.333;  -29.000;    0.000;25.66667
 436.44;  -10.667;  -13.200;    0.000; 2.53333
 436.73;    1.333;  -17.133;    0.000;18.46667
 437.02;    1.733;  -12.267;    0.000;14.00000
 437.30;   -6.867;  -12.200;    0.000; 5.33333
 437.59;   13.200;  -14.933;    0.000;28.13333
 437.88;  -18.600;  -27.667;    0.000; 9.06667
 438.17;  -22.133;  -28.000;    0.000; 5.86667
 438.45;   -6.400;  -13.267;    0.000; 6.86667
 438.74;  -21.400;  -10.533;    0.000;-10.86667
 439.03;  -16.533;  -16.933;    0.000; 0.40000
 439.32;  -16.067;   -0.133;    0.000;-15.93333
 439.60;  -12.267;  -37.000;    0.000;24.73333
 439.89;  -14.533;  -11.200;    0.000;-3.33333
 440.18;   -2.600;   -8.200;    0.000; 5.60000
 440.46;  -46.000;  -26.800;    0.000;-19.20000
 440.75;   10.333;  -19.133;    0.000;29.46667
 441.04;  -24.867;  -17.400;    0.000;-7.46667
 441.33;  -12.000;  -25.000;    0.000;13.00000
 441.61;  -12.333;  -16.467;    0.000; 4.13333
 441.90;   15.467;  -10.267;    0.000;25.73333
 442.19;  -24.067;  -40.133;    0.000;16.06667
 442.47;  -11.533;  -10.667;    0.000;-0.86667
 442.76;  -27.133;  -27.267;    0.000; 0.13333
 443.05;   -2.200;  -13.467;    0.000;11.26667
 443.34;  -19.400;  -29.267;    0.000; 9.86667
 443.62;   -8.800;  -16.333;    0.000; 7.53333
 443.91;  -30.467;  -30.600;    0.000; 0.13333
 444.20;   23.467;   -2.067;    0.000;25.53333
 444.48;  -25.067;  -20.600;    0.000;-4.46667
 444.77;    4.067;  -12.200;    0.000;16.26667
 445.06;  -11.267;  -28.733;    0.000;17.46667
 445.34;    2.200;  -19.200;    0.000;21.40000
 445.63;   -6.667;  -32.333;    0.000;25.66667
 445.92;    8.267;    6.733;    0.000; 1.53333
 446.21;  -25.133;   -4.533;    0.000;-20.60000
 446.49;   -1.000;  -22.600;    0.000;21.60000
 446.78;   -5.000;   -2.867;    0.000;-2.13333
 447.07;  -11.467;  -26.067;    0.000;14.60000
 447.35;  -29.667;  -17.200;    0.000;-12.46667
 447.64;   -0.333;  -19.267;    0.000;18.93333
 447.93;  -18.067;  -10.133;    0.000;-7.93333
 448.21;  -30.267;  -11.400;    0.000;-18.86667
 448.50;  -31.600;    1.933;    0.000;-33.53333
 448.79;  -15.267;   -7.267;    0.000;-8.00000
 449.07;  -16.533;  -19.667;    0.000; 3.13333
 449.36;   -1.533;  -32.133;    0.000;30.60000
 449.65;  -19.800;  -27.000;    0.000; 7.20000
 449.93;   -3.600;  -13.200;    0.000; 9.60000
 450.22;   -2.467;  -10.067;    0.000; 7.60000
 450.51;   -1.867;  -36.933;    0.000;35.06667
 450.79;  -12.467;  -24.267;    0.000;11.80000
 451.08;  -19.400;  -18.000;    0.000;-1.40000
 451.36;  -21.333;  -16.533;    0.000;-4.80000
 451.65;    0.400;  -11.267;    0.000;11.66667
 451.94;  -20.933;  -22.400;    0.000; 1.46667
 452.22;   -6.000;  -16.533;    0.000;10.53333
 452.51;  -18.333;   -6.400;    0.000;-11.93333
 452.80;   -1.867;  -17.333;    0.000;15.46667
 453.08;  -20.933;  -30.000;    0.000; 9.06667
 453.37;   -4.133;   -1.267;    0.000;-2.86667
 453.66;   -9.400;  -25.933;    0.000;16.53333
 453.94;  -14.067;  -22.667;    0.000; 8.60000
 454.23;  -35.067;  -12.867;    0.000;-22.20000
 454.51;  -12.933;    6.200;    0.000;-19.13333
 454.80;  -28.933;   -8.933;    0.000;-20.00000
 455.09;   -8.867;  -27.800;    0.000;18.93333
 455.37;  -16.467;    3.867;    0.000;-20.33333
 455.66;  -13.467;  -26.733;    0.000;13.26667
 455.95;  -19.000;  -10.000;    0.000;-9.00000
 456.23;  -16.067;   -9.800;    0.000;-6.26667
 456.52;  -17.933;  -28.867;    0.000;10.93333
 456.80;  -18.133;  -19.933;    0.000; 1.80000
 457.09;  -24.667;  -14.933;    0.000;-9.73333
 457.38;   -0.600;  -15.400;    0.000;14.80000
 457.66;  -21.133;  -12.000;    0.000;-9.13333
 457.95;  -14.533;  -26.867;    0.000;12.33333
 458.23;  -16.667;  -16.133;    0.000;-0.53333
 458.52;    3.667;  -23.467;    0.000;27.13333
 458.81;  -25.333;  -14.733;    0.000;-10.60000
 459.09;   -6.067;   -9.200;    0.000; 3.13333
 459.38;  -24.200;  -16.133;    0.000;-8.06667
 459.66;  -14.000;  -27.267;    0.000;13.26667
 459.95;  -19.600;  -29.133;    0.000; 9.53333
 460.23;   -3.867;   -0.267;    0.000;-3.60000
 460.52;  -21.800;  -27.733;    0.000; 5.93333
 460.81;  -10.400;  -15.067;    0.000; 4.66667
 461.09;  -10.800;  -25.600;    0.000;14.80000
 461.38;   -4.800;  -19.333;    0.000;14.53333
 461.66;  -20.133;  -25.000;    0.000; 4.86667
 461.95;   -1.667;  -13.400;    0.000;11.73333
 462.23;  -14.067;  -27.133;    0.000;13.06667
 462.52;   -7.000;  -35.933;    0.000;28.93333
 462.81;  -10.400;  -28.667;    0.000;18.26667
 463.09;  -20.267;  -41.667;    0.000;21.40000
 463.38;  -49.600;   -7.533;    0.000;-42.06667
 463.66;  -17.533;  -18.933;    0.000; 1.40000
 463.95;  -21.600;  -17.133;    0.000;-4.46667
 464.23;   -7.933;  -19.400;    0.000;11.46667
 464.52;  -12.800;   -7.133;    0.000;-5.66667
 464.80;  -26.200;  -33.333;    0.000; 7.13333
 465.09;   11.667;  -11.733;    0.000;23.40000
 465.38;  -15.867;  -27.067;    0.000;11.20000
 465.66;  -32.600;  -25.733;    0.000;-6.86666
 465.95;   -0.333;  -32.133;    0.000;31.80000
 466.23;  -32.400;   -8.467;    0.000;-23.93334
 466.52;  -10.667;  -31.200;    0.000;20.53333
 466.80;    2.933;   -1.533;    0.000; 4.46667
 467.09;   -5.800;  -19.267;    0.000;13.46667
 467.37;  -23.933;  -20.667;    0.000;-3.26667
 467.66;   -1.600;  -14.933;    0.000;13.33333
 467.94;  -15.133;  -17.933;    0.000; 2.80000
 468.23;  -12.400;   -7.000;    0.000;-5.40000
 468.51;    8.400;    6.867;    0.000; 1.53333
 468.80;  -21.733;  -37.867;    0.000;16.13333
 469.08;  -18.667;   -5.400;    0.000;-13.26667
 469.37;   -1.867;  -31.733;    0.000;29.86667
 469.66;  -26.133;  -10.933;    0.000;-15.20000
 469.94;  -15.067;  -26.933;    0.000;11.86667
 470.23;  -22.467;  -12.267;    0.000;-10.20000
 470.51;   -1.733;  -24.800;    0.000;23.06667
 470.80;  -20.933;   -1.000;    0.000;-19.93333
 471.08;    0.400;  -32.600;    0.000;33.00000
 471.37;   -1.267;  -23.133;    0.000;21.86667
 471.65;   21.667;  -20.067;    0.000;41.73333
 471.94;  -36.867;  -35.333;    0.000;-1.53333
 472.22;  -13.667;  -27.333;    0.000;13.66667
 472.51;  -18.200;  -18.733;    0.000; 0.53333
 472.79;  -16.000;  -22.667;    0.000; 6.66667
 473.08;  -16.667;  -10.600;    0.000;-6.06667
 473.36;    0.267;  -13.333;    0.000;13.60000
 473.64;  -15.600;  -12.667;    0.000;-2.93333
 473.93;   -3.400;  -45.933;    0.000;42.53333
 474.21;  -26.733;  -34.267;    0.000; 7.53333
 474.50;   -5.733;  -14.200;    0.000; 8.46667
 474.78;   -8.333;    2.867;    0.000;-11.20000
 475.07;    0.933;  -25.133;    0.000;26.06667
 475.35;   -9.133;  -12.400;    0.000; 3.26667
 475.64;  -25.133;  -35.800;    0.000;10.66667
 475.92;  -11.533;  -18.267;    0.000; 6.73333
 476.21;   -8.467;  -48.467;    0.000;40.00000
 476.49;   -8.000;  -20.267;    0.000;12.26667
 476.78;   -5.800;  -10.400;    0.000; 4.60000
 477.06;  -26.200;  -14.067;    0.000;-12.13333
 477.35;    9.067;  -21.667;    0.000;30.73333
 477.63;  -21.200;  -24.067;    0.000; 2.86667
 477.91;  -16.133;  -36.000;    0.000;19.86667
 478.20;  -13.467;  -21.667;    0.000; 8.20000
 478.48;    8.067;    1.667;    0.000; 6.40000
 478.77;  -21.267;  -30.667;    0.000; 9.40000
 479.05;  -11.200;  -41.600;    0.000;30.40000
 479.34;   -3.600;  -23.267;    0.000;19.66667
 479.62;   -8.533;  -38.733;    0.000;30.20000
 479.91;  -27.933;  -13.333;    0.000;-14.60000
 480.19;    8.000;   -9.467;    0.000;17.46667
 480.47;   -8.400;  -29.733;    0.000;21.33333
 480.76;  -22.200;  -50.333;    0.000;28.13333
 481.04;  -27.667;  -16.933;    0.000;-10.73333
 481.33;   17.333;   -1.133;    0.000;18.46667
 481.61;   -8.267;  -12.067;    0.000; 3.80000
 481.90;  -14.200;  -21.333;    0.000; 7.13333
 482.18;  -21.733;  -26.600;    0.000; 4.86667
 482.46;    3.000;  -22.867;    0.000;25.86667
 482.75;  -23.067;  -25.400;    0.000; 2.33333
 483.03;  -11.400;  -30.267;    0.000;18.86667
 483.32;  -19.267;  -45.200;    0.000;25.93333
 483.60;  -15.933;  -27.000;    0.000;11.06667
 483.88;  -20.400;  -24.200;    0.000; 3.80000
 484.17;   -6.800;  -13.533;    0.000; 6.73333
 484.45;   -4.067;  -28.267;    0.000;24.20000
 484.74;    6.267;  -40.400;    0.000;46.66667
 485.02;  -25.333;   -2.800;    0.000;-22.53333
 485.30;  -14.467;  -25.533;    0.000;11.06667
 485.59;  -23.200;  -57.333;    0.000;34.13333
 485.87;   18.267;  -13.667;    0.000;31.93333
 486.16;    2.800;  -24.000;    0.000;26.80000
 486.44;   -7.533;  -33.533;    0.000;26.00000
 486.72;  -20.067;  -23.267;    0.000; 3.20000
 487.01;   -4.067;  -40.867;    0.000;36.80000
 487.29;   26.000;  -10.400;    0.000;36.40000
 487.58;    5.800;  -12.467;    0.000;18.26667
 487.86;   -6.400;  -26.000;    0.000;19.60000
 488.14;    5.533;  -25.067;    0.000;30.60000
 488.43;  -10.867;  -20.133;    0.000; 9.26667
 488.71;  -22.533;  -11.467;    0.000;-11.06667
 488.99;   -7.067;   -9.400;    0.000; 2.33333
 489.28;   -1.867;  -34.467;    0.000;32.60000
 489.56;   20.333;  -15.267;    0.000;35.60000
 489.85;   22.933;  -31.600;    0.000;54.53333
 490.13;    8.800;  -28.600;    0.000;37.40000
 490.41;    5.733;  -14.733;    0.000;20.46667
 490.70;    3.400;  -21.400;    0.000;24.80000
 490.98;   25.000;  -39.400;    0.000;64.40000
 491.26;   19.533;  -27.133;    0.000;46.66667
 491.55;   39.667;  -28.067;    0.000;67.73334
 491.83;   35.400;  -30.133;    0.000;65.53333
 492.11;   45.133;  -30.467;    0.000;75.60000
 492.40;   39.067;  -14.600;    0.000;53.66667
 492.68;   68.933;  -22.333;    0.000;91.26667
 492.96;   49.600;  -32.133;    0.000;81.73333
 493.25;   81.200;  -23.267;    0.000;104.46666
 493.53;   74.667;  -17.667;    0.000;92.33333
 493.81;   90.200;  -42.667;    0.000;132.86666
 494.10;   82.800;  -42.467;    0.000;125.26667
 494.38;  138.400;  -37.733;    0.000;176.13333
 494.66;  132.467;  -12.867;    0.000;145.33333
 494.95;  177.000;  -26.000;    0.000;203.00000
 495.23;  160.267;   -7.933;    0.000;168.20000
 495.51;  190.933;  -10.867;    0.000;201.80000
 495.80;  192.800;  -34.067;    0.000;226.86667
 496.08;  260.200;    3.400;    0.000;256.80001
 496.36;  252.600;   -5.867;    0.000;258.46667
 496.65;  275.333;  -15.067;    0.000;290.40001
 496.93;  288.000;   -8.467;    0.000;296.46667
 497.21;  323.467;  -46.667;    0.000;370.13334
 497.50;  346.933;   -9.600;    0.000;356.53332
 497.78;  379.533;  -32.000;    0.000;411.53333
 498.06;  426.467;  -32.733;    0.000;459.20001
 498.34;  445.533;  -25.067;    0.000;470.59999
 498.63;  474.133;  -34.667;    0.000;508.80000
 498.91;  516.000;  -20.067;    0.000;536.06667
 499.19;  563.467;  -33.800;    0.000;597.26667
 499.48;  611.667;  -31.467;    0.000;643.13335
 499.76;  622.467;   -4.533;    0.000;627.00001
 500.04;  719.067;  -35.867;    0.000;754.93332
 500.32;  722.067;  -14.000;    0.000;736.06665
 500.61;  797.400;  -29.133;    0.000;826.53336
 500.89;  847.400;  -24.733;    0.000;872.13336
 501.17;  916.667;  -13.533;    0.000;930.20002
 501.46;  947.267;  -10.867;    0.000;958.13333
 501.74; 1029.467;  -28.533;    0.000;1058.00001
 502.02; 1095.867;    0.867;    0.000;1095.00003
 502.30; 1164.000;  -20.800;    0.000;1184.80000
 502.59; 1211.067;  -19.533;    0.000;1230.59998
 502.87; 1278.333;  -38.067;    0.000;1316.40004
 503.15; 1341.867;  -39.733;    0.000;1381.60003
 503.43; 1390.533;  -29.867;    0.000;1420.39999
 503.72; 1481.933;  -33.867;    0.000;1515.80001
 504.00; 1538.000;  -34.067;    0.000;1572.06667
 504.28; 1660.000;  -26.733;    0.000;1686.73333
 504.56; 1700.000;  -31.600;    0.000;1731.60000
 504.85; 1817.333;  -20.533;    0.000;1837.86671
 505.13; 1897.600;  -27.333;    0.000;1924.93331
 505.41; 1934.933;  -26.333;    0.000;1961.26668
 505.69; 2068.667;  -13.467;    0.000;2082.13341
 505.98; 2140.933;  -13.267;    0.000;2154.20002
 506.26; 2260.600;  -33.133;    0.000;2293.73343
 506.54; 2301.933;  -28.000;    0.000;2329.93335
 506.82; 2453.667;  -24.600;    0.000;2478.26675
 507.11; 2491.867;   -3.800;    0.000;2495.66670
 507.39; 2589.467;  -29.533;    0.000;2618.99989
 507.67; 2703.400;  -25.733;    0.000;2729.13324
 507.95; 2828.133;  -31.000;    0.000;2859.13330
 508.23; 2916.200;  -38.400;    0.000;2954.59995
 508.52; 2978.400;  -20.067;    0.000;2998.46657
 508.80; 3080.467;  -18.467;    0.000;3098.93322
 509.08; 3221.067;  -27.067;    0.000;3248.13332
 509.36; 3295.933;   -8.667;    0.000;3304.60002
 509.65; 3387.800;  -20.333;    0.000;3408.13338
 509.93; 3539.400;  -28.067;    0.000;3567.46657
 510.21; 3680.200;  -12.467;    0.000;3692.66662
 510.49; 3703.533;  -18.067;    0.000;3721.60011
 510.77; 3932.133;  -32.933;    0.000;3965.06664
 511.06; 4008.333;  -41.400;    0.000;4049.73325
 511.34; 4101.000;   -9.267;    0.000;4110.26667
 511.62; 4203.667;   -9.533;    0.000;4213.19984
 511.90; 4307.533;  -30.133;    0.000;4337.66654
 512.18; 4403.533;   -8.333;    0.000;4411.86654
 512.47; 4551.333;  -28.133;    0.000;4579.46683
 512.75; 4643.467;  -11.067;    0.000;4654.53346
 513.03; 4828.667;  -10.267;    0.000;4838.93317
 513.31; 4862.133;  -43.867;    0.000;4905.99997
 513.59; 5010.400;  -23.000;    0.000;5033.39990
 513.87; 5102.333;  -11.000;    0.000;5113.33350
 514.16; 5187.933;  -27.333;    0.000;5215.26644
 514.44; 5370.400;  -23.400;    0.000;5393.79990
 514.72; 5416.400;  -40.333;    0.000;5456.73323
 515.00; 5595.200;   -5.467;    0.000;5600.66686
 515.28; 5668.400;  -30.933;    0.000;5699.33323
 515.56; 5735.867;  -17.133;    0.000;5753.00003
 515.85; 5892.600;  -21.200;    0.000;5913.80010
 516.13; 6029.600;  -16.200;    0.000;6045.80010
 516.41; 6094.333;  -50.467;    0.000;6144.80016
 516.69; 6225.667;  -20.533;    0.000;6246.19984
 516.97; 6301.200;   -2.733;    0.000;6303.93353
 517.25; 6415.933;  -22.267;    0.000;6438.19977
 517.54; 6536.333;  -30.000;    0.000;6566.33350
 517.82; 6577.867;  -31.000;    0.000;6608.86670
 518.10; 6812.333;  -10.600;    0.000;6822.93350
 518.38; 6833.400;  -16.400;    0.000;6849.79990
 518.66; 6911.867;   -7.933;    0.000;6919.80003
 518.94; 7054.933;  -20.133;    0.000;7075.06644
 519.22; 7112.800;  -13.000;    0.000;7125.79980
 519.51; 7237.800;   10.000;    0.000;7227.79980
 519.79; 7332.867;  -17.533;    0.000;7350.40003
 520.07; 7346.933;  -16.067;    0.000;7362.99977
 520.35; 7458.400;  -29.467;    0.000;7487.86657
 520.63; 7561.133;  -20.000;    0.000;7581.13330
 520.91; 7707.333;  -27.867;    0.000;7735.20016
 521.19; 7770.533;  -34.400;    0.000;7804.93320
 521.47; 7916.067;  -16.867;    0.000;7932.93356
 521.75; 8038.200;  -26.133;    0.000;8064.33353
 522.04; 8048.133;  -21.333;    0.000;8069.46663
 522.32; 8159.933;  -36.867;    0.000;8196.79977
 522.60; 8222.800;  -30.933;    0.000;8253.73314
 522.88; 8338.066;  -24.267;    0.000;8362.33307
 523.16; 8302.200;  -42.667;    0.000;8344.86686
 523.44; 8597.000;  -20.867;    0.000;8617.86667
 523.72; 8507.667;  -24.400;    0.000;8532.06699
 524.00; 8654.866;  -13.733;    0.000;8668.59954
 524.28; 8719.134;  -11.667;    0.000;8730.80046
 524.57; 8763.134;  -14.000;    0.000;8777.13379
 524.85; 8899.667;  -31.600;    0.000;8931.26699
 525.13; 8941.600;   -3.933;    0.000;8945.53294
 525.41; 9054.000;  -35.533;    0.000;9089.53333
 525.69; 9050.533;  -23.133;    0.000;9073.66654
 525.97; 9175.733;  -10.467;    0.000;9186.20006
 526.25; 9237.934;  -24.800;    0.000;9262.73359
 526.53; 9295.600;  -41.467;    0.000;9337.06628
 526.81; 9411.000;  -43.667;    0.000;9454.66667
 527.09; 9380.333;    1.000;    0.000;9379.33301
 527.37; 9432.600;  -13.333;    0.000;9445.93294
 527.65; 9544.200;  -28.200;    0.000;9572.40020
 527.93; 9600.934;  -33.067;    0.000;9634.00026
 528.22; 9736.333;  -25.733;    0.000;9762.06634
 528.50; 9755.800;  -23.067;    0.000;9778.86647
 528.78; 9768.134;  -35.733;    0.000;9803.86712
 529.06; 9824.134;  -14.800;    0.000;9838.93379
 529.34; 9998.066;  -35.133;    0.000;10033.19974
 529.62; 9986.934;  -19.933;    0.000;10006.86693
 529.90;10112.866;  -17.200;    0.000;10130.06621
 530.18;10030.200;    8.533;    0.000;10021.66686
 530.46;10104.467;  -13.333;    0.000;10117.80013
 530.74;10178.733;   -3.333;    0.000;10182.06673
 531.02;10348.467;  -20.133;    0.000;10368.60013
 531.30;10383.866;  -11.467;    0.000;10395.33288
 531.58;10317.866;  -21.933;    0.000;10339.79954
 531.86;10439.467;   -6.467;    0.000;10445.93346
 532.14;10549.000;  -28.667;    0.000;10577.66667
 532.42;10547.600;  -19.800;    0.000;10567.39961
 532.70;10443.934;  -16.733;    0.000;10460.66693
 532.98;10665.600;   -9.867;    0.000;10675.46628
 533.26;10599.800;  -23.533;    0.000;10623.33314
 533.54;10647.733;   -9.067;    0.000;10656.80007
 533.82;10808.200;  -39.467;    0.000;10847.66686
 534.10;10775.600;  -23.533;    0.000;10799.13294
 534.38;10788.066;  -44.267;    0.000;10832.33307
 534.66;10808.333;  -21.267;    0.000;10829.59967
 534.94;10873.667;  -11.467;    0.000;10885.13366
 535.22;10924.800;  -18.267;    0.000;10943.06647
 535.50;10997.134;  -22.600;    0.000;11019.73379
 535.78;10992.600;  -21.933;    0.000;11014.53294
 536.06;11009.467;  -16.533;    0.000;11026.00013
 536.34;11086.200;  -14.600;    0.000;11100.80020
 536.62;11151.200;  -26.733;    0.000;11177.93353
 536.90;11126.200;  -11.867;    0.000;11138.06686
 537.18;11256.733;  -16.667;    0.000;11273.40006
 537.46;11254.267;  -27.867;    0.000;11282.13327
 537.74;11236.934;  -36.200;    0.000;11273.13359
 538.02;11332.934;  -19.800;    0.000;11352.73359
 538.30;11263.333;  -10.533;    0.000;11273.86634
 538.58;11389.934;  -33.733;    0.000;11423.66693
 538.86;11515.333;   -2.267;    0.000;11517.59967
 539.14;11491.467;  -26.667;    0.000;11518.13346
 539.42;11544.533;   -6.000;    0.000;11550.53320
 539.70;11625.333;  -13.933;    0.000;11639.26634
 539.98;11586.134;  -11.067;    0.000;11597.20046
 540.26;11522.134;  -38.400;    0.000;11560.53379
 540.54;11703.866;  -39.333;    0.000;11743.19954
 540.82;11657.400;  -21.133;    0.000;11678.53372
 541.10;11746.000;  -28.733;    0.000;11774.73333
 541.38;11768.800;   -5.867;    0.000;11774.66647
 541.66;11856.733;  -23.200;    0.000;11879.93340
 541.94;11802.866;  -26.200;    0.000;11829.06621
 542.22;11821.934;  -32.267;    0.000;11854.20026
 542.50;11753.267;  -34.133;    0.000;11787.39994
 542.78;11858.134;  -28.000;    0.000;11886.13379
 543.06;11933.333;  -27.867;    0.000;11961.19967
 543.34;11910.733;  -34.333;    0.000;11945.06673
 543.62;11980.866;  -18.867;    0.000;11999.73288
 543.90;11892.134;  -16.733;    0.000;11908.86712
 544.17;11977.467;  -32.067;    0.000;12009.53346
 544.45;12076.733;  -34.933;    0.000;12111.66673
 544.73;12004.267;    3.533;    0.000;12000.73327
 545.01;12137.533;  -33.000;    0.000;12170.53320
 545.29;12053.267;  -26.667;    0.000;12079.93327
 545.57;12238.267;  -20.000;    0.000;12258.26660
 545.85;12071.000;  -18.467;    0.000;12089.46667
 546.13;12143.533;  -32.667;    0.000;12176.19987
 546.41;12195.000;  -30.400;    0.000;12225.40000
 546.69;12150.333;  -21.400;    0.000;12171.73301
 546.97;12223.866;  -38.467;    0.000;12262.33288
 547.25;12246.600;  -31.667;    0.000;12278.26628
 547.52;12334.333;  -20.933;    0.000;12355.26634
 547.80;12266.600;  -19.800;    0.000;12286.39961
 548.08;12217.066;  -16.533;    0.000;12233.59974
 548.36;12338.134;  -24.133;    0.000;12362.26712
 548.64;12363.134;  -14.133;    0.000;12377.26712
 548.92;12350.934;  -20.867;    0.000;12371.80026
 549.20;12304.533;   -5.067;    0.000;12309.59987
 549.48;12324.733;   -7.667;    0.000;12332.40006
 549.76;12304.134;   -8.867;    0.000;12313.00046
 550.04;12377.800;  -31.133;    0.000;12408.93314
 550.31;12491.733;  -20.133;    0.000;12511.86673
 550.59;12406.733;  -35.533;    0.000;12442.26673
 550.87;12362.600;  -23.067;    0.000;12385.66628
 551.15;12376.134;   -9.733;    0.000;12385.86712
 551.43;12410.333;  -14.667;    0.000;12424.99967
 551.71;12429.400;  -29.667;    0.000;12459.06706
 551.99;12414.733;   -8.400;    0.000;12423.13340
 552.27;12548.733;  -38.267;    0.000;12587.00006
 552.54;12504.934;   -6.667;    0.000;12511.60026
 552.82;12487.400;  -19.200;    0.000;12506.60039
 553.10;12417.066;  -25.533;    0.000;12442.59974
 553.38;12431.667;   -9.933;    0.000;12441.60033
 553.66;12476.600;  -42.867;    0.000;12519.46627
 553.94;12593.200;  -23.200;    0.000;12616.40020
 554.22;12537.733;  -16.733;    0.000;12554.46673
 554.49;12514.533;  -28.533;    0.000;12543.06654
 554.77;12473.800;  -23.933;    0.000;12497.73314
 555.05;12551.533;   -9.133;    0.000;12560.66654
 555.33;12485.267;  -13.867;    0.000;12499.13327
 555.61;12484.467;  -11.267;    0.000;12495.73346
 555.89;12500.600;  -21.200;    0.000;12521.79961
 556.16;12501.066;  -23.400;    0.000;12524.46641
 556.44;12470.000;   -7.267;    0.000;12477.26667
 556.72;12534.800;  -11.200;    0.000;12545.99980
 557.00;12404.200;  -13.933;    0.000;12418.13353
 557.28;12507.134;   -9.867;    0.000;12517.00046
 557.56;12478.333;  -15.533;    0.000;12493.86634
 557.83;12499.800;  -11.267;    0.000;12511.06647
 558.11;12532.800;    1.067;    0.000;12531.73314
 558.39;12500.733;  -28.400;    0.000;12529.13340
 558.67;12508.667;   -8.333;    0.000;12517.00033
 558.95;12431.134;  -33.200;    0.000;12464.33379
 559.23;12421.467;  -15.000;    0.000;12436.46680
 559.50;12482.533;  -15.533;    0.000;12498.06654
 559.78;12422.866;    8.733;    0.000;12414.13288
 560.06;12421.800;  -13.133;    0.000;12434.93314
 560.34;12482.134;  -12.800;    0.000;12494.93379
 560.62;12501.467;  -28.733;    0.000;12530.20013
 560.89;12422.934;   -4.867;    0.000;12427.80026
 561.17;12409.333;  -27.600;    0.000;12436.93301
 561.45;12337.066;   -0.533;    0.000;12337.59974
 561.73;12411.267;  -26.267;    0.000;12437.53327
 562.00;12280.333;  -23.667;    0.000;12303.99967
 562.28;12333.467;  -24.867;    0.000;12358.33346
 562.56;12369.733;  -25.333;    0.000;12395.06673
 562.84;12270.533;  -18.533;    0.000;12289.06654
 563.12;12262.533;  -18.000;    0.000;12280.53320
 563.39;12322.267;  -25.533;    0.000;12347.79993
 563.67;12273.200;  -11.933;    0.000;12285.13353
 563.95;12268.467;  -12.400;    0.000;12280.86680
 564.23;12318.267;   13.067;    0.000;12305.19993
 564.50;12211.800;  -11.533;    0.000;12223.33314
 564.78;12179.733;  -11.467;    0.000;12191.20006
 565.06;12200.934;  -22.133;    0.000;12223.06693
 565.34;12118.533;   -8.467;    0.000;12126.99987
 565.61;12072.866;   -9.867;    0.000;12082.73288
 565.89;12074.600;   -9.667;    0.000;12084.26628
 566.17;12108.267;  -36.533;    0.000;12144.79993
 566.45;12099.934;  -10.333;    0.000;12110.26693
 566.73;12078.800;  -33.600;    0.000;12112.39980
 567.00;12060.267;  -34.133;    0.000;12094.39994
 567.28;11982.600;  -19.333;    0.000;12001.93294
 567.56;11949.400;  -21.933;    0.000;11971.33372
 567.83;11893.467;  -20.600;    0.000;11914.06680
 568.11;11876.800;  -26.333;    0.000;11903.13314
 568.39;11820.866;  -18.333;    0.000;11839.19954
 568.67;11869.200;   -8.267;    0.000;11877.46686
 568.94;11846.667;  -17.667;    0.000;11864.33366
 569.22;11969.934;  -18.600;    0.000;11988.53359
 569.50;11711.934;  -19.133;    0.000;11731.06693
 569.78;11654.600;    2.333;    0.000;11652.26628
 570.05;11660.267;  -11.067;    0.000;11671.33327
 570.33;11705.400;  -23.800;    0.000;11729.20039
 570.61;11612.400;  -14.800;    0.000;11627.20039
 570.88;11667.600;   -6.000;    0.000;11673.59961
 571.16;11578.200;  -15.600;    0.000;11593.80020
 571.44;11502.934;  -18.267;    0.000;11521.20026
 571.72;11652.667;  -21.333;    0.000;11674.00033
 571.99;11461.066;  -19.133;    0.000;11480.19974
 572.27;11537.934;  -27.133;    0.000;11565.06693
 572.55;11443.667;   -3.933;    0.000;11447.60033
 572.82;11365.733;  -28.733;    0.000;11394.46673
 573.10;11364.866;   -6.533;    0.000;11371.39954
 573.38;11375.400;  -38.067;    0.000;11413.46706
 573.65;11262.267;   19.800;    0.000;11242.46660
 573.93;11293.800;  -12.733;    0.000;11306.53314
 574.21;11173.600;   -0.600;    0.000;11174.19961
 574.48;11215.267;  -18.933;    0.000;11234.19993
 574.76;11234.866;  -19.667;    0.000;11254.53288
 575.04;11074.467;   -9.200;    0.000;11083.66680
 575.32;11118.066;  -16.933;    0.000;11134.99974
 575.59;10954.400;  -24.467;    0.000;10978.86706
 575.87;10996.667;  -26.400;    0.000;11023.06699
 576.15;11019.733;  -24.867;    0.000;11044.60007
 576.42;10979.667;   -8.933;    0.000;10988.60033
 576.70;10853.200;  -32.600;    0.000;10885.80019
 576.98;10848.200;   -6.000;    0.000;10854.20020
 577.25;10798.467;  -49.933;    0.000;10848.40013
 577.53;10784.200;   -0.933;    0.000;10785.13353
 577.80;10765.267;  -13.733;    0.000;10778.99994
 578.08;10676.934;  -31.800;    0.000;10708.73359
 578.36;10611.066;  -24.867;    0.000;10635.93307
 578.63;10584.667;  -31.000;    0.000;10615.66699
 578.91;10558.200;  -21.067;    0.000;10579.26686
 579.19;10532.066;  -19.000;    0.000;10551.06641
 579.46;10459.000;  -34.400;    0.000;10493.40000
 579.74;10369.267;  -27.333;    0.000;10396.59994
 580.02;10420.200;  -17.400;    0.000;10437.60019
 580.29;10373.866;  -13.333;    0.000;10387.19954
 580.57;10299.467;   -8.333;    0.000;10307.80013
 580.84;10264.866;  -18.400;    0.000;10283.26621
 581.12;10184.400;  -16.733;    0.000;10201.13372
 581.40;10140.733;  -18.533;    0.000;10159.26673
 581.67;10133.866;  -12.267;    0.000;10146.13288
 581.95;10030.267;  -27.867;    0.000;10058.13327
 582.23; 9948.267;  -21.133;    0.000;9969.39993
 582.50; 9933.866;  -15.933;    0.000;9949.79954
 582.78;10039.000;  -20.200;    0.000;10059.20000
 583.05; 9804.533;  -24.867;    0.000;9829.39987
 583.33; 9887.000;  -28.067;    0.000;9915.06667
 583.61; 9764.533;   -1.533;    0.000;9766.06654
 583.88; 9691.533;  -30.933;    0.000;9722.46654
 584.16; 9649.600;   -7.600;    0.000;9657.19961
 584.43; 9645.200;  -20.467;    0.000;9665.66686
 584.71; 9573.733;  -21.400;    0.000;9595.13340
 584.99; 9406.667;  -19.133;    0.000;9425.80033
 585.26; 9465.600;   -4.400;    0.000;9469.99961
 585.54; 9435.467;  -27.533;    0.000;9463.00013
 585.81; 9286.733;  -35.200;    0.000;9321.93340
 586.09; 9356.866;  -10.933;    0.000;9367.79954
 586.37; 9274.667;  -20.267;    0.000;9294.93366
 586.64; 9226.400;  -33.400;    0.000;9259.80039
 586.92; 9085.800;  -39.000;    0.000;9124.79980
 587.19; 9090.600;   -2.200;    0.000;9092.79961
 587.47; 9048.000;  -15.000;    0.000;9063.00000
 587.74; 8990.400;   -6.267;    0.000;8996.66706
 588.02; 8974.066;  -27.000;    0.000;9001.06641
 588.30; 8890.667;  -15.133;    0.000;8905.80033
 588.57; 8837.000;  -23.133;    0.000;8860.13333
 588.85; 8783.200;  -23.133;    0.000;8806.33353
 589.12; 8754.733;  -28.400;    0.000;8783.13340
 589.40; 8671.866;  -22.933;    0.000;8694.79954
 589.67; 8659.467;  -28.933;    0.000;8688.40013
 589.95; 8612.134;  -11.267;    0.000;8623.40046
 590.22; 8430.934;  -16.867;    0.000;8447.80026
 590.50; 8447.267;  -41.067;    0.000;8488.33327
 590.77; 8515.600;  -11.667;    0.000;8527.26628
 591.05; 8425.667;  -22.600;    0.000;8448.26699
 591.33; 8308.066;  -24.733;    0.000;8332.79974
 591.60; 8249.800;  -38.000;    0.000;8287.79980
 591.88; 8281.600;  -12.333;    0.000;8293.93294
 592.15; 8212.934;  -10.667;    0.000;8223.60026
 592.43; 8139.133;  -27.533;    0.000;8166.66663
 592.70; 8101.067;  -22.200;    0.000;8123.26690
 592.98; 7999.667;  -26.733;    0.000;8026.39984
 593.25; 8080.133;   -4.067;    0.000;8084.19997
 593.53; 7987.000;  -29.200;    0.000;8016.20000
 593.80; 7915.067;  -27.800;    0.000;7942.86689
 594.08; 7760.600;  -18.267;    0.000;7778.86676
 594.35; 7737.000;  -26.933;    0.000;7763.93333
 594.63; 7683.067;  -21.800;    0.000;7704.86689
 594.90; 7638.933;  -39.200;    0.000;7678.13311
 595.18; 7669.600;   -0.467;    0.000;7670.06676
 595.45; 7483.733;  -16.067;    0.000;7499.80007
 595.73; 7451.000;  -38.733;    0.000;7489.73333
 596.00; 7514.933;  -36.067;    0.000;7550.99977
 596.28; 7363.133;  -26.200;    0.000;7389.33330
 596.55; 7381.600;  -23.067;    0.000;7404.66677
 596.83; 7329.533;  -18.533;    0.000;7348.06654
 597.10; 7224.933;  -20.533;    0.000;7245.46644
 597.38; 7186.200;  -13.400;    0.000;7199.60019
 597.65; 7086.533;  -15.400;    0.000;7101.93320
 597.93; 7114.267;  -38.400;    0.000;7152.66660
 598.20; 7091.867;  -42.067;    0.000;7133.93336
 598.48; 7011.933;  -37.533;    0.000;7049.46644
 598.75; 6939.400;  -19.200;    0.000;6958.59990
 599.03; 6922.667;  -47.800;    0.000;6970.46650
 599.30; 6928.533;  -35.600;    0.000;6964.13320
 599.58; 6786.267;  -19.400;    0.000;6805.66660
 599.85; 6708.133;  -10.400;    0.000;6718.53330
 600.12; 6671.733;  -10.200;    0.000;6681.93340
 600.40; 6664.733;  -25.600;    0.000;6690.33340
 600.67; 6542.067;  -21.467;    0.000;6563.53356
 600.95; 6532.533;  -16.800;    0.000;6549.33320
 601.22; 6434.133;  -11.533;    0.000;6445.66663
 601.50; 6511.533;  -33.067;    0.000;6544.59987
 601.77; 6379.600;   -7.400;    0.000;6387.00010
 602.05; 6382.600;  -16.667;    0.000;6399.26676
 602.32; 6314.133;   -4.800;    0.000;6318.93330
 602.59; 6273.467;  -25.000;    0.000;6298.46680
 602.87; 6232.667;  -37.000;    0.000;6269.66650
 603.14; 6135.733;  -32.600;    0.000;6168.33340
 603.42; 6146.267;  -15.667;    0.000;6161.93327
 603.69; 6083.467;  -31.800;    0.000;6115.26680
 603.97; 6073.000;  -20.267;    0.000;6093.26667
 604.24; 5983.200;  -45.600;    0.000;6028.80019
 604.51; 5925.733;   -9.200;    0.000;5934.93340
 604.79; 5939.333;  -18.000;    0.000;5957.33350
 605.06; 5827.000;  -37.067;    0.000;5864.06667
 605.34; 5878.933;   -3.533;    0.000;5882.46644
 605.61; 5825.200;  -43.800;    0.000;5869.00019
 605.89; 5810.600;  -43.267;    0.000;5853.86676
 606.16; 5657.667;  -26.067;    0.000;5683.73317
 606.43; 5667.467;  -14.067;    0.000;5681.53346
 606.71; 5581.600;  -26.133;    0.000;5607.73343
 606.98; 5613.000;  -33.667;    0.000;5646.66667
 607.26; 5582.667;  -29.133;    0.000;5611.79984
 607.53; 5515.933;  -44.000;    0.000;5559.93311
 607.80; 5419.800;  -39.133;    0.000;5458.93314
 608.08; 5443.467;  -30.733;    0.000;5474.20013
 608.35; 5496.400;  -28.667;    0.000;5525.06657
 608.62; 5321.400;  -28.133;    0.000;5349.53324
 608.90; 5370.667;  -30.200;    0.000;5400.86650
 609.17; 5312.467;  -42.867;    0.000;5355.33346
 609.45; 5289.533;  -20.933;    0.000;5310.46654
 609.72; 5272.200;  -29.200;    0.000;5301.40020
 609.99; 5178.000;  -21.133;    0.000;5199.13333
 610.27; 5185.933;  -25.133;    0.000;5211.06644
 610.54; 5188.067;  -42.200;    0.000;5230.26690
 610.81; 5152.667;  -45.600;    0.000;5198.26650
 611.09; 5107.333;   -6.000;    0.000;5113.33350
 611.36; 5040.867;  -45.400;    0.000;5086.26670
 611.64; 5005.800;  -45.800;    0.000;5051.59980
 611.91; 5004.600;  -28.467;    0.000;5033.06676
 612.18; 4922.000;  -30.400;    0.000;4952.40000
 612.46; 4955.800;  -38.000;    0.000;4993.79980
 612.73; 4890.933;  -19.267;    0.000;4910.19977
 613.00; 4900.200;  -37.600;    0.000;4937.80019
 613.28; 4769.533;  -28.000;    0.000;4797.53320
 613.55; 4745.867;  -42.133;    0.000;4788.00003
 613.82; 4661.400;  -22.267;    0.000;4683.66657
 614.10; 4703.267;  -54.133;    0.000;4757.39994
 614.37; 4607.733;  -32.933;    0.000;4640.66673
 614.64; 4528.200;  -35.133;    0.000;4563.33353
 614.92; 4585.000;  -27.600;    0.000;4612.60000
 615.19; 4512.267;  -34.200;    0.000;4546.46660
 615.46; 4439.533;  -24.133;    0.000;4463.66654
 615.74; 4360.667;  -32.600;    0.000;4393.26650
 616.01; 4318.667;  -26.133;    0.000;4344.79984
 616.28; 4262.067;  -24.600;    0.000;4286.66689
 616.56; 4177.933;  -22.067;    0.000;4199.99977
 616.83; 4081.000;  -25.667;    0.000;4106.66667
 617.10; 3998.933;  -15.267;    0.000;4014.20002
 617.37; 4050.067;  -24.000;    0.000;4074.06665
 617.65; 4067.467;  -26.600;    0.000;4094.06655
 617.92; 4152.000;  -14.333;    0.000;4166.33333
 618.19; 4084.000;  -47.533;    0.000;4131.53333
 618.47; 4122.600;  -30.600;    0.000;4153.20010
 618.74; 4035.200;  -33.333;    0.000;4068.53328
 619.01; 3948.933;  -34.267;    0.000;3983.20002
 619.28; 4063.133;  -28.000;    0.000;4091.13330
 619.56; 4001.133;  -39.267;    0.000;4040.39997
 619.83; 3953.000;  -33.467;    0.000;3986.46667
 620.10; 3965.000;  -40.667;    0.000;4005.66667
 620.38; 3872.333;  -37.467;    0.000;3909.79992
 620.65; 3910.600;  -42.467;    0.000;3953.06676
 620.92; 3861.400;  -18.533;    0.000;3879.93324
 621.19; 3893.000;  -34.733;    0.000;3927.73333
 621.47; 3790.733;  -46.600;    0.000;3837.33340
 621.74; 3805.200;  -44.733;    0.000;3849.93328
 622.01; 3830.600;  -32.467;    0.000;3863.06676
 622.28; 3895.400;  -41.133;    0.000;3936.53324
 622.56; 3893.600;  -21.067;    0.000;3914.66677
 622.83; 3831.467;  -40.600;    0.000;3872.06655
 623.10; 3791.733;  -29.200;    0.000;3820.93340
 623.38; 3825.667;  -46.600;    0.000;3872.26675
 623.65; 3859.467;  -22.000;    0.000;3881.46655
 623.92; 3732.600;  -71.733;    0.000;3804.33343
 624.19; 3772.533;  -53.667;    0.000;3826.20012
 624.46; 3698.533;  -30.933;    0.000;3729.46678
 624.74; 3749.400;  -39.400;    0.000;3788.79990
 625.01; 3713.267;  -30.467;    0.000;3743.73327
 625.28; 3704.200;  -38.600;    0.000;3742.79995
 625.55; 3677.600;  -43.800;    0.000;3721.40010
 625.83; 3687.467;  -38.133;    0.000;3725.59989
 626.10; 3602.200;  -44.933;    0.000;3647.13329
 626.37; 3624.600;  -37.000;    0.000;3661.60010
 626.64; 3600.067;  -40.733;    0.000;3640.79998
 626.92; 3619.400;  -19.333;    0.000;3638.73324
 627.19; 3525.933;  -39.933;    0.000;3565.86668
 627.46; 3559.000;  -30.267;    0.000;3589.26667
 627.73; 3509.067;  -37.400;    0.000;3546.46665
 628.00; 3508.733;  -23.867;    0.000;3532.60007
 628.28; 3509.400;  -41.467;    0.000;3550.86657
 628.55; 3451.667;  -33.800;    0.000;3485.46675
 628.82; 3502.000;  -56.933;    0.000;3558.93333
 629.09; 3421.333;  -33.667;    0.000;3454.99992
 629.36; 3397.600;  -42.600;    0.000;3440.20010
 629.64; 3413.133;  -39.400;    0.000;3452.53330
 629.91; 3451.067;  -14.000;    0.000;3465.06665
 630.18; 3331.600;  -30.133;    0.000;3361.73343
 630.45; 3358.067;  -58.533;    0.000;3416.59998
 630.72; 3331.533;  -42.867;    0.000;3374.40011
 631.00; 3300.533;  -45.333;    0.000;3345.86678
 631.27; 3290.667;  -44.867;    0.000;3335.53341
 631.54; 3271.600;  -49.467;    0.000;3321.06676
 631.81; 3325.067;  -28.200;    0.000;3353.26665
 632.08; 3299.000;  -55.400;    0.000;3354.40000
 632.35; 3214.933;  -26.267;    0.000;3241.20002
 632.63; 3255.600;  -56.600;    0.000;3312.20010
 632.90; 3206.067;  -31.067;    0.000;3237.13332
 633.17; 3171.267;  -52.800;    0.000;3224.06660
 633.44; 3207.267;  -31.667;    0.000;3238.93327
 633.71; 3178.533;  -37.933;    0.000;3216.46678
 633.98; 3213.000;  -25.933;    0.000;3238.93333
 634.25; 3235.400;  -30.667;    0.000;3266.06657
 634.53; 3096.267;  -28.267;    0.000;3124.53327
 634.80; 3187.200;  -31.867;    0.000;3219.06662
 635.07; 3154.400;  -63.267;    0.000;3217.66657
 635.34; 3175.600;  -18.400;    0.000;3194.00010
 635.61; 3111.333;  -22.733;    0.000;3134.06659
 635.88; 3187.667;  -37.000;    0.000;3224.66675
 636.15; 3190.867;  -31.000;    0.000;3221.86670
 636.43; 3157.533;  -33.000;    0.000;3190.53345
 636.70; 3165.600;  -31.400;    0.000;3197.00010
 636.97; 3135.933;  -33.333;    0.000;3169.26668
 637.24; 3111.467;  -45.933;    0.000;3157.39989
 637.51; 3073.200;  -29.533;    0.000;3102.73328
 637.78; 2980.467;  -63.800;    0.000;3044.26655
 638.05; 3033.333;  -29.467;    0.000;3062.79992
 638.32; 3066.733;  -26.533;    0.000;3093.26673
 638.60; 2976.200;  -18.800;    0.000;2994.99995
 638.87; 2950.600;  -47.800;    0.000;2998.40010
 639.14; 2918.400;  -56.133;    0.000;2974.53324
 639.41; 2870.000;  -22.400;    0.000;2892.40000
 639.68; 2910.133;  -58.733;    0.000;2968.86663
 639.95; 2870.733;  -46.467;    0.000;2917.20007
 640.22; 2895.533;  -45.933;    0.000;2941.46678
 640.49; 2821.533;  -17.267;    0.000;2838.80011
 640.76; 2806.000;  -59.400;    0.000;2865.40000
 641.03; 2771.867;  -50.067;    0.000;2821.93336
 641.30; 2721.267;  -39.467;    0.000;2760.73327
 641.58; 2743.000;  -34.467;    0.000;2777.46667
 641.85; 2623.067;  -33.467;    0.000;2656.53332
 642.12; 2662.533;  -47.000;    0.000;2709.53345
 642.39; 2620.267;  -27.867;    0.000;2648.13327
 642.66; 2585.333;  -46.533;    0.000;2631.86658
 642.93; 2626.600;  -43.000;    0.000;2669.60010
 643.20; 2545.733;  -50.533;    0.000;2596.26673
 643.47; 2567.400;  -38.667;    0.000;2606.06657
 643.74; 2512.067;  -60.733;    0.000;2572.79998
 644.01; 2547.933;  -44.200;    0.000;2592.13335
 644.28; 2517.200;  -55.000;    0.000;2572.19995
 644.55; 2563.267;  -49.933;    0.000;2613.19994
 644.82; 2450.133;  -24.867;    0.000;2474.99997
 645.09; 2482.400;  -40.667;    0.000;2523.06657
 645.36; 2426.133;  -23.733;    0.000;2449.86663
 645.63; 2410.533;  -47.733;    0.000;2458.26678
 645.91; 2436.133;  -44.467;    0.000;2480.59997
 646.18; 2372.533;  -28.333;    0.000;2400.86678
 646.45; 2348.667;  -38.800;    0.000;2387.46675
 646.72; 2336.667;  -52.000;    0.000;2388.66675
 646.99; 2342.667;  -30.933;    0.000;2373.60008
 647.26; 2328.733;  -56.600;    0.000;2385.33340
 647.53; 2304.133;  -40.533;    0.000;2344.66663
 647.80; 2318.867;  -34.067;    0.000;2352.93336
 648.07; 2273.867;  -49.400;    0.000;2323.26670
 648.34; 2256.267;  -51.533;    0.000;2307.79993
 648.61; 2265.933;  -37.467;    0.000;2303.40002
 648.88; 2234.267;  -57.733;    0.000;2291.99994
 649.15; 2193.533;  -50.800;    0.000;2244.33345
 649.42; 2178.533;  -38.133;    0.000;2216.66678
 649.69; 2226.067;  -27.733;    0.000;2253.79998
 649.96; 2176.533;  -36.600;    0.000;2213.13345
 650.23; 2176.667;  -30.867;    0.000;2207.53341
 650.50; 2170.733;  -38.667;    0.000;2209.40007
 650.77; 2127.733;  -45.067;    0.000;2172.80006
 651.04; 2106.333;  -58.600;    0.000;2164.93325
 651.31; 2066.400;  -45.000;    0.000;2111.39990
 651.58; 2077.000;  -34.200;    0.000;2111.20000
 651.85; 2045.133;  -23.800;    0.000;2068.93330
 652.12; 2047.667;  -34.733;    0.000;2082.39996
 652.39; 2072.067;  -44.000;    0.000;2116.06665
 652.66; 2031.533;  -45.933;    0.000;2077.46666
 652.93; 2018.067;  -50.733;    0.000;2068.79998
 653.20; 1993.467;  -49.133;    0.000;2042.60001
 653.47; 2002.733;  -45.067;    0.000;2047.79994
 653.74; 2010.533;  -42.467;    0.000;2052.99999
 654.01; 2010.933;  -36.933;    0.000;2047.86668
 654.28; 1932.467;  -30.467;    0.000;1962.93334
 654.55; 1947.133;  -61.533;    0.000;2008.66663
 654.81; 1941.000;  -43.533;    0.000;1984.53333
 655.08; 1902.000;  -63.667;    0.000;1965.66667
 655.35; 1890.133;  -69.067;    0.000;1959.19997
 655.62; 1934.133;  -59.467;    0.000;1993.59997
 655.89; 1883.200;  -61.800;    0.000;1944.99995
 656.16; 1849.000;  -51.133;    0.000;1900.13334
 656.43; 1889.933;  -48.400;    0.000;1938.33335
 656.70; 1799.933;  -30.733;    0.000;1830.66668
 656.97; 1851.733;  -44.933;    0.000;1896.66661
 657.24; 1804.133;  -38.067;    0.000;1842.19997
 657.51; 1790.800;  -62.067;    0.000;1852.86671
 657.78; 1785.400;  -29.333;    0.000;1814.73336
 658.05; 1779.467;  -39.333;    0.000;1818.80001
 658.32; 1757.000;  -41.133;    0.000;1798.13334
 658.59; 1767.933;  -47.333;    0.000;1815.26668
 658.86; 1714.467;  -41.067;    0.000;1755.53334
 659.12; 1756.400;  -57.533;    0.000;1813.93336
 659.39; 1723.133;  -38.733;    0.000;1761.86663
 659.66; 1696.000;  -30.000;    0.000;1726.00000
 659.93; 1699.667;  -29.267;    0.000;1728.93329
 660.20; 1692.200;  -29.800;    0.000;1721.99995
 660.47; 1677.867;  -58.533;    0.000;1736.40003
 660.74; 1644.667;  -46.733;    0.000;1691.39996
 661.01; 1624.667;  -39.733;    0.000;1664.39996
 661.28; 1635.467;  -52.467;    0.000;1687.93334
 661.55; 1603.333;   -0.067;    0.000;1603.40004
 661.81; 1588.200;  -57.600;    0.000;1645.79995
 662.08; 1571.333;  -41.000;    0.000;1612.33337
 662.35; 1613.733;  -49.200;    0.000;1662.93328
 662.62; 1536.133;  -55.200;    0.000;1591.33330
 662.89; 1580.667;  -57.267;    0.000;1637.93329
 663.16; 1532.133;  -32.333;    0.000;1564.46663
 663.43; 1527.600;  -51.067;    0.000;1578.66664
 663.70; 1480.533;  -59.467;    0.000;1539.99999
 663.96; 1507.133;  -47.133;    0.000;1554.26664
 664.23; 1506.800;  -52.400;    0.000;1559.20005
 664.50; 1489.533;  -60.267;    0.000;1549.79999
 664.77; 1448.267;  -49.867;    0.000;1498.13339
 665.04; 1465.467;  -41.200;    0.000;1506.66668
 665.31; 1430.200;  -28.867;    0.000;1459.06662
 665.58; 1456.267;  -39.867;    0.000;1496.13339
 665.84; 1448.533;  -35.467;    0.000;1483.99999
 666.11; 1435.533;  -50.400;    0.000;1485.93333
 666.38; 1448.733;  -46.533;    0.000;1495.26661
 666.65; 1394.133;  -56.667;    0.000;1450.79997
 666.92; 1364.533;  -73.133;    0.000;1437.66666
 667.19; 1379.133;  -45.667;    0.000;1424.79997
 667.46; 1365.400;  -37.067;    0.000;1402.46669
 667.72; 1339.467;  -51.200;    0.000;1390.66668
 667.99; 1375.800;  -40.000;    0.000;1415.80005
 668.26; 1325.000;  -45.933;    0.000;1370.93333
 668.53; 1325.867;  -52.933;    0.000;1378.80003
 668.80; 1297.933;  -41.467;    0.000;1339.40002
 669.06; 1286.867;  -51.133;    0.000;1338.00003
 669.33; 1281.000;  -43.333;    0.000;1324.33333
 669.60; 1235.533;  -51.933;    0.000;1287.46666
 669.87; 1252.667;  -58.533;    0.000;1311.19996
 670.14; 1244.333;  -51.467;    0.000;1295.80004
 670.41; 1276.933;  -60.667;    0.000;1337.60002
 670.67; 1233.067;  -30.333;    0.000;1263.39998
 670.94; 1227.533;  -47.200;    0.000;1274.73333
 671.21; 1229.400;  -39.267;    0.000;1268.66669
 671.48; 1184.600;  -57.200;    0.000;1241.79998
 671.75; 1159.400;  -50.400;    0.000;1209.80003
 672.01; 1183.800;  -31.000;    0.000;1214.80005
 672.28; 1183.600;  -52.667;    0.000;1236.26664
 672.55; 1173.400;  -46.000;    0.000;1219.40002
 672.82; 1178.000;  -56.067;    0.000;1234.06667
 673.08; 1155.133;  -61.000;    0.000;1216.13330
 673.35; 1133.867;  -43.467;    0.000;1177.33337
 673.62; 1124.067;  -43.133;    0.000;1167.19999
 673.89; 1125.267;  -54.600;    0.000;1179.86672
 674.16; 1122.600;  -66.733;    0.000;1189.33331
 674.42; 1099.933;  -51.733;    0.000;1151.66668
 674.69; 1088.333;  -62.933;    0.000;1151.26671
 674.96; 1106.467;  -49.867;    0.000;1156.33334
 675.23; 1091.600;  -71.600;    0.000;1163.19997
 675.49; 1080.733;  -41.533;    0.000;1122.26661
 675.76; 1062.667;  -43.800;    0.000;1106.46663
 676.03; 1028.067;  -36.267;    0.000;1064.33332
 676.30; 1043.200;  -60.333;    0.000;1103.53328
 676.56; 1030.733;  -71.933;    0.000;1102.66661
 676.83; 1050.600;  -55.333;    0.000;1105.93331
 677.10; 1025.067;  -62.600;    0.000;1087.66665
 677.37; 1022.267;  -54.733;    0.000;1077.00000
 677.63; 1021.667;  -62.267;    0.000;1083.93335
 677.90; 1015.667;  -49.333;    0.000;1065.00002
 678.17;  961.067;  -48.533;    0.000;1009.59998
 678.44;  995.133;  -45.467;    0.000;1040.60003
 678.70;  920.800;  -33.867;    0.000;954.66665
 678.97;  959.200;  -63.800;    0.000;1023.00001
 679.24;  939.600;  -48.400;    0.000;987.99998
 679.50;  938.133;  -54.133;    0.000;992.26670
 679.77;  911.000;  -46.667;    0.000;957.66667
 680.04;  960.267;  -54.867;    0.000;1015.13333
 680.31;  897.267;  -67.400;    0.000;964.66666
 680.57;  900.733;  -66.733;    0.000;967.46667
 680.84;  886.867;  -63.933;    0.000;950.79997
 681.11;  918.400;  -54.533;    0.000;972.93336
 681.37;  892.867;  -59.267;    0.000;952.13330
 681.64;  850.933;  -62.867;    0.000;913.80001
 681.91;  842.267;  -45.733;    0.000;888.00000
 682.17;  856.933;  -44.133;    0.000;901.06668
 682.44;  832.933;  -65.067;    0.000;898.00002
 682.71;  860.600;  -39.733;    0.000;900.33331
 682.98;  827.267;  -38.400;    0.000;865.66666
 683.24;  819.067;  -65.733;    0.000;884.79998
 683.51;  797.933;  -65.067;    0.000;863.00002
 683.78;  801.600;  -52.867;    0.000;854.46664
 684.04;  811.800;  -44.333;    0.000;856.13332
 684.31;  802.867;  -51.067;    0.000;853.93330
 684.58;  778.800;  -65.200;    0.000;843.99998
 684.84;  799.667;  -45.400;    0.000;845.06669
 685.11;  764.800;  -53.067;    0.000;817.86665
 685.38;  788.333;  -62.667;    0.000;850.99998
 685.64;  759.067;  -70.600;    0.000;829.66665
 685.91;  752.867;  -53.133;    0.000;805.99997
 686.17;  739.333;  -69.800;    0.000;809.13332
 686.44;  736.867;  -51.533;    0.000;788.39997
 686.71;  703.067;  -61.867;    0.000;764.93332
 686.97;  735.333;  -73.000;    0.000;808.33331
 687.24;  699.667;  -57.067;    0.000;756.73335
 687.51;  720.400;  -52.800;    0.000;773.20002
 687.77;  699.667;  -45.600;    0.000;745.26669
 688.04;  676.667;  -66.333;    0.000;743.00002
 688.31;  684.600;  -58.600;    0.000;743.19997
 688.57;  695.467;  -43.733;    0.000;739.20001
 688.84;  670.000;  -44.667;    0.000;714.66667
 689.10;  668.867;  -48.533;    0.000;717.39997
 689.37;  675.533;  -55.733;    0.000;731.26666
 689.64;  657.333;  -54.067;    0.000;711.39998
 689.90;  657.467;  -66.467;    0.000;723.93334
 690.17;  675.000;  -56.133;    0.000;731.13334
 690.44;  667.267;  -63.933;    0.000;731.20000
 690.70;  649.933;  -76.533;    0.000;726.46668
 690.97;  632.400;  -58.533;    0.000;690.93336
 691.23;  649.600;  -66.400;    0.000;715.99998
 691.50;  629.067;  -52.400;    0.000;681.46665
 691.77;  606.000;  -75.133;    0.000;681.13333
 692.03;  604.000;  -60.600;    0.000;664.60000
 692.30;  617.467;  -46.000;    0.000;663.46667
 692.56;  579.200;  -58.467;    0.000;637.66668
 692.83;  607.933;  -57.867;    0.000;665.80001
 693.10;  594.333;  -50.600;    0.000;644.93331
 693.36;  579.000;  -52.800;    0.000;631.80000
 693.63;  570.933;  -50.733;    0.000;621.66668
 693.89;  575.867;  -52.333;    0.000;628.19997
 694.16;  549.867;  -55.533;    0.000;605.39997
 694.42;  565.867;  -55.467;    0.000;621.33331
 694.69;  549.533;  -30.067;    0.000;579.59999
 694.96;  563.933;  -40.333;    0.000;604.26668
 695.22;  526.800;  -52.533;    0.000;579.33332
 695.49;  523.667;  -28.200;    0.000;551.86669
 695.75;  506.933;  -59.933;    0.000;566.86665
 696.02;  529.133;  -61.200;    0.000;590.33336
 696.28;  500.933;  -50.533;    0.000;551.46665
 696.55;  507.067;  -61.000;    0.000;568.06668
 696.81;  500.667;  -50.933;    0.000;551.59999
 697.08;  486.400;  -71.667;    0.000;558.06666
 697.34;  487.467;  -50.667;    0.000;538.13334
 697.61;  494.333;  -49.400;    0.000;543.73335
 697.88;  439.133;  -49.933;    0.000;489.06667
 698.14;  458.867;  -59.467;    0.000;518.33334
 698.41;  456.333;  -52.000;    0.000;508.33334
 698.67;  472.133;  -59.133;    0.000;531.26667
 698.94;  436.267;  -69.400;    0.000;505.66666
 699.20;  480.000;  -58.600;    0.000;538.60000
 699.47;  396.000;  -69.800;    0.000;465.80000
 699.73;  420.133;  -56.800;    0.000;476.93333
 700.00;  416.400;  -38.200;    0.000;454.59999
 700.26;  446.333;  -59.267;    0.000;505.60001
 700.53;  421.200;  -35.600;    0.000;456.80001
 700.79;  411.467;  -45.600;    0.000;457.06667
 701.06;  397.000;  -60.133;    0.000;457.13334
 701.32;  403.667;  -54.133;    0.000;457.79999
 701.59;  385.200;  -60.800;    0.000;446.00001
 701.85;  381.200;  -52.133;    0.000;433.33335
 702.12;  351.733;  -62.333;    0.000;414.06667
 702.38;  367.267;  -51.333;    0.000;418.59999
 702.65;  364.933;  -43.600;    0.000;408.53332
 702.91;  376.733;  -37.133;    0.000;413.86667
 703.18;  343.800;  -38.600;    0.000;382.39999
 703.44;  348.400;  -65.533;    0.000;413.93333
 703.71;  321.600;  -58.000;    0.000;379.60001
 703.97;  318.933;  -62.133;    0.000;381.06665
 704.24;  335.667;  -57.267;    0.000;392.93332
 704.50;  281.200;  -68.933;    0.000;350.13335
 704.76;  299.467;  -52.200;    0.000;351.66668
 705.03;  310.133;  -69.133;    0.000;379.26666
 705.29;  289.533;  -57.067;    0.000;346.59999
 705.56;  295.800;  -51.133;    0.000;346.93332
 705.82;  272.733;  -69.067;    0.000;341.80000
 706.09;  296.533;  -49.600;    0.000;346.13332
 706.35;  277.133;  -68.267;    0.000;345.40000
 706.62;  287.000;  -52.200;    0.000;339.20000
 706.88;  277.400;  -76.333;    0.000;353.73333
 707.15;  259.067;  -68.133;    0.000;327.20001
 707.41;  252.867;  -73.600;    0.000;326.46667
 707.67;  242.533;  -78.000;    0.000;320.53334
 707.94;  267.867;  -51.933;    0.000;319.80000
 708.20;  230.667;  -61.733;    0.000;292.40001
 708.47;  245.533;  -50.933;    0.000;296.46667
 708.73;  223.867;  -72.667;    0.000;296.53333
 709.00;  213.000;  -44.333;    0.000;257.33333
 709.26;  243.667;  -54.200;    0.000;297.86667
 709.52;  214.400;  -56.067;    0.000;270.46666
 709.79;  229.333;  -62.600;    0.000;291.93333
 710.05;  192.133;  -55.600;    0.000;247.73333
 710.32;  213.533;  -52.800;    0.000;266.33334
 710.58;  181.000;  -71.933;    0.000;252.93333
 710.84;  198.400;  -51.067;    0.000;249.46666
 711.11;  209.067;  -61.467;    0.000;270.53333
 711.37;  207.067;  -62.000;    0.000;269.06667
 711.64;  177.333;  -62.600;    0.000;239.93333
 711.90;  177.067;  -55.333;    0.000;232.40000
 712.16;  188.333;  -57.267;    0.000;245.59999
 712.43;  196.333;  -69.533;    0.000;265.86666
 712.69;  153.600;  -56.467;    0.000;210.06667
 712.96;  166.400;  -77.067;    0.000;243.46666
 713.22;  142.867;  -44.467;    0.000;187.33334
 713.48;  180.933;  -98.333;    0.000;279.26667
 713.75;  175.133;  -45.133;    0.000;220.26667
 714.01;  151.733;  -67.867;    0.000;219.60001
 714.27;  153.467;  -58.400;    0.000;211.86666
 714.54;  183.667;  -54.733;    0.000;238.40001
 714.80;  146.533;  -51.533;    0.000;198.06667
 715.06;  168.067;  -64.067;    0.000;232.13333
 715.33;  147.667;  -62.200;    0.000;209.86667
 715.59;  159.200;  -68.000;    0.000;227.20000
 715.86;  157.733;  -61.800;    0.000;219.53334
 716.12;  157.600;  -75.800;    0.000;233.40001
 716.38;  127.467;  -36.400;    0.000;163.86667
 716.65;  149.400;  -64.400;    0.000;213.80000
 716.91;  138.133;  -73.867;    0.000;212.00000
 717.17;  158.133;  -60.067;    0.000;218.20000
 717.44;  139.400;  -39.533;    0.000;178.93333
 717.70;  139.000;  -58.267;    0.000;197.26667
 717.96;  133.333;  -42.467;    0.000;175.80000
 718.23;  162.933;  -60.667;    0.000;223.60000
 718.49;  124.467;  -71.267;    0.000;195.73334
 718.75;  113.733;  -50.867;    0.000;164.59999
 719.02;  122.067;  -51.333;    0.000;173.40000
 719.28;  141.933;  -74.800;    0.000;216.73334
 719.54;  121.733;  -62.600;    0.000;184.33333
 719.80;  144.533;  -65.667;    0.000;210.20000
 720.07;  100.600;  -39.533;    0.000;140.13333
 720.33;  120.333;  -64.933;    0.000;185.26667
 720.59;  119.933;  -75.400;    0.000;195.33334
 720.86;  119.333;  -81.533;    0.000;200.86667
 721.12;  111.133;  -60.533;    0.000;171.66666
 721.38;  127.667;  -69.667;    0.000;197.33333
 721.65;  114.533;  -68.667;    0.000;183.20000
 721.91;  130.933;  -65.200;    0.000;196.13333
 722.17;  112.867;  -62.000;    0.000;174.86667
 722.43;  134.000;  -66.733;    0.000;200.73333
 722.70;  104.733;  -63.000;    0.000;167.73333
 722.96;  114.333;  -55.133;    0.000;169.46667
 723.22;  115.267;  -64.467;    0.000;179.73334
 723.48;  122.400;  -55.467;    0.000;177.86667
 723.75;  105.533;  -58.667;    0.000;164.20000
 724.01;   97.200;  -63.933;    0.000;161.13333
 724.27;  104.200;  -68.733;    0.000;172.93333
 724.54;  125.267;  -61.467;    0.000;186.73334
 724.80;  121.333;  -74.000;    0.000;195.33334
 725.06;  127.133;  -69.133;    0.000;196.26666
 725.32;  114.467;  -56.800;    0.000;171.26667
 725.59;  109.200;  -58.867;    0.000;168.06666
 725.85;  103.800;  -76.600;    0.000;180.40000
 726.11;  119.867;  -58.733;    0.000;178.60000
 726.37;  139.867;  -54.933;    0.000;194.80000
 726.64;  127.733;  -50.800;    0.000;178.53333
 726.90;   98.733;  -48.267;    0.000;147.00000
 727.16;  103.267;  -66.933;    0.000;170.20000
 727.42;  118.600;  -63.400;    0.000;182.00000
 727.68;   91.467;  -52.267;    0.000;143.73333
 727.95;   88.467;  -70.600;    0.000;159.06667
 728.21;  106.733;  -58.733;    0.000;165.46666
 728.47;  126.667;  -52.867;    0.000;179.53333
 728.73;  134.333;  -45.667;    0.000;180.00000
 729.00;  106.800;  -48.000;    0.000;154.80000
 729.26;  101.467;  -47.000;    0.000;148.46667
 729.52;   85.400;  -61.800;    0.000;147.20000
 729.78;  106.000;  -66.000;    0.000;172.00000
 730.04;   95.867;  -73.400;    0.000;169.26667
 730.31;  110.200;  -62.667;    0.000;172.86666
 730.57;   87.933;  -63.800;    0.000;151.73333
 730.83;   84.467;  -72.267;    0.000;156.73334
 731.09;   86.600;  -34.533;    0.000;121.13333
 731.35;  104.467;  -50.733;    0.000;155.20000
 731.62;  116.600;  -61.733;    0.000;178.33333
 731.88;   98.933;  -54.200;    0.000;153.13334
 732.14;   86.600;  -55.000;    0.000;141.60000
 732.40;  103.600;  -51.933;    0.000;155.53333
 732.66;   86.133;  -62.333;    0.000;148.46666
 732.92;   77.467;  -56.267;    0.000;133.73333
 733.19;   82.800;  -43.933;    0.000;126.73334
 733.45;  107.200;  -52.267;    0.000;159.46666
 733.71;   93.400;  -78.200;    0.000;171.60000
 733.97;  118.333;  -32.000;    0.000;150.33334
 734.23;   62.600;  -46.867;    0.000;109.46666
 734.49;   93.800;  -69.200;    0.000;163.00000
 734.76;   94.133;  -53.533;    0.000;147.66666
 735.02;   80.733;  -80.800;    0.000;161.53333
 735.28;   96.333;  -67.200;    0.000;163.53333
 735.54;   70.200;  -71.600;    0.000;141.80000
 735.80;   75.000;  -72.267;    0.000;147.26667
 736.06;   92.333;  -51.533;    0.000;143.86667
 736.32;   58.400;  -58.333;    0.000;116.73333
 736.59;   68.133;  -74.867;    0.000;143.00000
 736.85;   82.467;  -48.933;    0.000;131.40000
 737.11;   65.800;  -72.267;    0.000;138.06667
 737.37;   72.200;  -73.467;    0.000;145.66666
 737.63;   96.933;  -58.467;    0.000;155.40000
 737.89;   70.467;  -62.533;    0.000;133.00000
 738.15;   85.200;  -56.600;    0.000;141.80000
 738.41;   61.000;  -57.867;    0.000;118.86666
 738.67;   62.533;  -64.067;    0.000;126.60000
 738.94;   70.867;  -58.267;    0.000;129.13334
 739.20;   73.133;  -71.933;    0.000;145.06667
 739.46;   89.467;  -68.333;    0.000;157.80000
 739.72;   54.133;  -84.333;    0.000;138.46667
 739.98;   57.333;  -77.133;    0.000;134.46666
 740.24;   68.200;  -61.000;    0.000;129.20000
 740.50;   40.000;  -63.800;    0.000;103.80000
 740.76;   75.133;  -71.667;    0.000;146.80000
 741.02;   45.533;  -59.200;    0.000;104.73333
 741.28;   64.800;  -63.133;    0.000;127.93334
 741.54;   46.333;  -53.867;    0.000;100.20000
 741.81;   78.333;  -71.133;    0.000;149.46667
 742.07;   46.933;  -70.733;    0.000;117.66666
 742.33;   69.733;  -75.000;    0.000;144.73333
 742.59;   51.267;  -63.933;    0.000;115.20000
 742.85;   80.933;  -68.200;    0.000;149.13333
 743.11;   41.867;  -67.533;    0.000;109.40000
 743.37;   46.400;  -87.267;    0.000;133.66667
 743.63;   43.933;  -65.467;    0.000;109.40000
 743.89;   69.600;  -67.800;    0.000;137.40000
 744.15;   56.400;  -55.267;    0.000;111.66667
 744.41;   61.467;  -55.133;    0.000;116.60000
 744.67;   33.333;  -74.333;    0.000;107.66667
 744.93;   53.133;  -56.200;    0.000;109.33334
 745.19;   33.000;  -69.600;    0.000;102.60000
 745.45;   46.933;  -55.933;    0.000;102.86667
 745.71;   40.933;  -63.867;    0.000;104.80000
 745.97;   68.667;  -62.933;    0.000;131.60000
 746.23;   42.200;  -90.800;    0.000;133.00000
 746.49;   34.400;  -70.533;    0.000;104.93333
 746.75;   45.667;  -67.267;    0.000;112.93334
 747.02;   33.133;  -64.267;    0.000;97.40001
 747.28;   41.933;  -70.867;    0.000;112.80000
 747.54;   21.667;  -71.667;    0.000;93.33333
 747.80;   23.133;  -76.000;    0.000;99.13333
 748.06;   30.800;  -62.200;    0.000;93.00000
 748.32;    8.200;  -63.333;    0.000;71.53333
 748.58;   21.267;  -67.067;    0.000;88.33333
 748.84;   23.133;  -49.733;    0.000;72.86667
 749.10;   93.733;    3.733;    0.000;90.00000
 749.36;   25.200;  -71.533;    0.000;96.73333
 749.62;   28.600;  -82.533;    0.000;111.13333
 749.88;   37.800;  -67.600;    0.000;105.40000
 750.14;   23.600;  -60.867;    0.000;84.46667
 750.40;   26.467;  -78.000;    0.000;104.46667
 750.66;   38.933;  -45.200;    0.000;84.13334
 750.91;    7.333;  -73.533;    0.000;80.86667
 751.17;   22.333;  -60.133;    0.000;82.46667
 751.43;   11.467;  -50.733;    0.000;62.20000
 751.69;    8.133;  -46.267;    0.000;54.40000
 751.95;    9.867;  -52.600;    0.000;62.46667
 752.21;   21.800;  -64.933;    0.000;86.73333
 752.47;    1.067;  -64.600;    0.000;65.66667
 752.73;   20.467;  -78.933;    0.000;99.40000
 752.99;   -5.067;  -75.400;    0.000;70.33333
 753.25;   26.867;  -76.133;    0.000;103.00000
 753.51;   14.467;  -60.800;    0.000;75.26667
 753.77;    9.067;  -53.467;    0.000;62.53333
 754.03;    5.133;  -61.133;    0.000;66.26667
 754.29;   -3.533;  -78.400;    0.000;74.86667
 754.55;   -3.200;  -57.533;    0.000;54.33333
 754.81;    9.867;  -75.467;    0.000;85.33333
 755.07;   -9.333;  -66.200;    0.000;56.86666
 755.33;   15.533;  -76.800;    0.000;92.33334
 755.59;    4.133;  -84.133;    0.000;88.26666
 755.85;    1.133;  -83.333;    0.000;84.46667
 756.10;   19.667;  -64.267;    0.000;83.93334
 756.36;   -9.600;  -55.600;    0.000;46.00000
 756.62;  -18.067;  -67.600;    0.000;49.53333
 756.88;   -7.667;  -56.133;    0.000;48.46667
 757.14;   -8.467;  -35.000;    0.000;26.53333
 757.40;   14.867;  -66.333;    0.000;81.20000
 757.66;   -3.333;  -62.333;    0.000;59.00000
 757.92;    8.933;  -67.400;    0.000;76.33333
 758.18;  -30.733;  -57.267;    0.000;26.53333
 758.44;    9.600;  -64.867;    0.000;74.46667
 758.70;   -8.400;  -59.533;    0.000;51.13333
 758.95;  -11.333;  -56.467;    0.000;45.13333
 759.21;  -20.600;  -73.733;    0.000;53.13333
 759.47;   15.400;  -64.867;    0.000;80.26667
 759.73;  -11.933;  -73.533;    0.000;61.60000
 759.99;  -10.600;  -74.400;    0.000;63.80000
 760.25;  -17.133;  -86.333;    0.000;69.20000
 760.51;   -0.400;  -91.667;    0.000;91.26666
 760.77;    7.733;  -57.800;    0.000;65.53333
 761.02;  -15.467;  -56.600;    0.000;41.13333
 761.28;  -17.400;  -68.800;    0.000;51.40000
 761.54;   -5.067;  -63.800;    0.000;58.73333
 761.80;  -13.267;  -66.267;    0.000;53.00000
 762.06;   11.933;  -84.133;    0.000;96.06666
 762.32;  -26.467;  -74.400;    0.000;47.93333
 762.58;   -7.400;  -52.400;    0.000;45.00000
 762.83;  -12.933;  -50.733;    0.000;37.80000
 763.09;    1.667;  -72.733;    0.000;74.40000
 763.35;  -38.133;  -61.933;    0.000;23.80000
 763.61;    6.133;  -61.333;    0.000;67.46667
 763.87;   -4.867;  -46.667;    0.000;41.80000
 764.13;  -17.133;  -50.267;    0.000;33.13333
 764.38;  -13.267;  -73.067;    0.000;59.80000
 764.64;   -2.400;  -84.267;    0.000;81.86667
 764.90;  -25.733;  -69.667;    0.000;43.93333
 765.16;  -15.333;  -69.200;    0.000;53.86666
 765.42;  -24.933;  -53.200;    0.000;28.26667
 765.68;   -6.600;  -54.133;    0.000;47.53334
 765.93;  -31.267;  -63.600;    0.000;32.33333
 766.19;  -11.600;  -55.600;    0.000;44.00000
 766.45;  -19.333;  -81.800;    0.000;62.46667
 766.71;    4.133;  -64.800;    0.000;68.93334
 766.97;  -34.133;  -65.533;    0.000;31.40000
 767.22;  -22.067;  -78.800;    0.000;56.73334
 767.48;   -9.600;  -64.200;    0.000;54.60000
 767.74;   -4.333;  -72.533;    0.000;68.20000
 768.00;  -25.733;  -72.867;    0.000;47.13334
 768.26;  -14.333;  -74.133;    0.000;59.80000
 768.51;  -51.467;  -70.067;    0.000;18.60000
 768.77;   -8.600;  -54.600;    0.000;46.00000
 769.03;  -36.800;  -80.867;    0.000;44.06667
 769.29;  -33.267;  -70.600;    0.000;37.33333
 769.54;  -38.200;  -67.400;    0.000;29.20000
 769.80;  -23.333;  -89.267;    0.000;65.93334
 770.06;  -30.000;  -68.533;    0.000;38.53333
 770.32;  -29.867;  -63.333;    0.000;33.46667
 770.57;  -38.400;  -69.533;    0.000;31.13333
 770.83;  -30.267;  -55.733;    0.000;25.46667
 771.09;  -37.800;  -88.800;    0.000;51.00000
 771.35;  -31.067;  -69.267;    0.000;38.20000
 771.61;  -28.267;  -78.133;    0.000;49.86666
 771.86;  -34.867;  -76.667;    0.000;41.80000
 772.12;  -47.067;  -61.667;    0.000;14.60000
 772.38;  -14.933;  -62.400;    0.000;47.46667
 772.63;  -39.667;  -74.733;    0.000;35.06666
 772.89;  -25.733;  -71.667;    0.000;45.93333
 773.15;  -25.000;  -76.200;    0.000;51.20000
 773.41;  -16.667;  -74.067;    0.000;57.40000
 773.66;  -31.067;  -76.733;    0.000;45.66666
 773.92;  -23.467;  -64.733;    0.000;41.26666
 774.18;  -30.133;  -54.467;    0.000;24.33333
 774.44;  -15.733;  -72.933;    0.000;57.20000
 774.69;  -45.867;  -64.733;    0.000;18.86666
 774.95;  -42.267;  -55.333;    0.000;13.06667
 775.21;  -37.133;  -55.733;    0.000;18.60000
 775.46;  -40.067;  -87.733;    0.000;47.66666
 775.72;  -65.333;  -54.067;    0.000;-11.26667
 775.98;  -13.467;  -51.400;    0.000;37.93334
 776.24;  -44.600;  -65.067;    0.000;20.46667
 776.49;  -30.600;  -72.400;    0.000;41.80000
 776.75;  -38.000;  -58.533;    0.000;20.53333
 777.01;  -33.800;  -50.800;    0.000;17.00000
 777.26;  -26.867;  -49.200;    0.000;22.33333
 777.52;  -21.667;  -71.200;    0.000;49.53333
 777.78;  -31.667;  -56.933;    0.000;25.26667
 778.03;  -16.733;  -78.000;    0.000;61.26667
 778.29;  -45.400;  -68.867;    0.000;23.46667
 778.55;  -29.267;  -56.933;    0.000;27.66667
 778.80;  -63.067;  -78.867;    0.000;15.80000
 779.06;  -54.267;  -65.333;    0.000;11.06667
 779.32;  -48.333;  -67.867;    0.000;19.53334
 779.57;  -28.133;  -77.333;    0.000;49.20000
 779.83;  -32.600;  -80.000;    0.000;47.40000
 780.09;  -48.733;  -73.800;    0.000;25.06667
 780.34;  -32.600;  -60.000;    0.000;27.40000
 780.60;  -19.667;  -70.867;    0.000;51.20000
 780.86;  -24.667;  -66.400;    0.000;41.73334
 781.11;  -28.667;  -47.933;    0.000;19.26667
 781.37;  -47.400;  -56.600;    0.000; 9.20000
 781.63;  -24.667;  -55.400;    0.000;30.73334
 781.88;  -34.333;  -67.467;    0.000;33.13334
 782.14;  -45.867;  -81.667;    0.000;35.80000
 782.39;  -35.800;  -97.533;    0.000;61.73333
 782.65;  -55.267;  -84.933;    0.000;29.66667
 782.91;  -46.733;  -64.533;    0.000;17.80000
 783.16;  -30.533;  -70.133;    0.000;39.60000
 783.42;  -53.267;  -82.267;    0.000;29.00000
 783.67;  -35.800;  -58.267;    0.000;22.46667
 783.93;  -43.800;  -68.467;    0.000;24.66667
 784.19;  -24.733;  -72.533;    0.000;47.80000
 784.44;  -39.333;  -55.800;    0.000;16.46667
 784.70;  -30.133;  -71.667;    0.000;41.53333
 784.96;  -68.067;  -92.400;    0.000;24.33334
 785.21;  -31.000;  -50.867;    0.000;19.86666
 785.47;  -38.000;  -63.467;    0.000;25.46667
 785.72;  -40.333;  -75.133;    0.000;34.80000
 785.98;  -52.000;  -75.867;    0.000;23.86667
 786.23;  -38.067;  -71.000;    0.000;32.93333
 786.49;  -57.600;  -61.667;    0.000; 4.06667
 786.75;  -48.667;  -83.933;    0.000;35.26667
 787.00;  -62.200;  -73.867;    0.000;11.66667
 787.26;  -49.133;  -80.467;    0.000;31.33333
 787.51;  -71.467;  -61.000;    0.000;-10.46667
 787.77;  -25.333;  -71.200;    0.000;45.86666
 788.02;  -40.533;  -43.200;    0.000; 2.66667
 788.28;  -41.400;  -80.400;    0.000;39.00000
 788.54;  -62.133;  -79.933;    0.000;17.80000
 788.79;  -35.733;  -71.133;    0.000;35.40000
 789.05;  -58.467;  -87.200;    0.000;28.73333
 789.30;  -40.333;  -58.933;    0.000;18.60000
 789.56;  -54.400;  -73.400;    0.000;19.00000
 789.81;  -42.333;  -77.200;    0.000;34.86666
 790.07;  -68.933;  -52.467;    0.000;-16.46667
 790.32;  -41.600;  -73.333;    0.000;31.73334
 790.58;  -61.800;  -53.333;    0.000;-8.46667
 790.83;  -53.733;  -69.200;    0.000;15.46666
 791.09;  -68.333;  -88.200;    0.000;19.86666
 791.35;  -60.333;  -88.200;    0.000;27.86666
 791.60;  -96.800;  -64.733;    0.000;-32.06667
 791.86;  -35.333;  -77.267;    0.000;41.93334
 792.11;  -68.933;  -67.600;    0.000;-1.33334
 792.37;  -51.400;  -76.200;    0.000;24.80000
 792.62;  -49.900;  -64.967;    0.000;15.06667
 792.88;  -48.400;  -53.733;    0.000; 5.33333
 793.13;  -67.667;  -74.533;    0.000; 6.86667
 793.39;  -29.333;  -79.600;    0.000;50.26666
 793.64;  -44.000;  -87.000;    0.000;43.00000
 793.90;  -53.200;  -65.000;    0.000;11.80000
 794.15;  -37.533;  -54.733;    0.000;17.20000
 794.41;  -27.400;  -71.533;    0.000;44.13333
 794.66;  -40.600;  -62.400;    0.000;21.80000
 794.92;  -54.000;  -69.800;    0.000;15.80000
 795.17;  -62.067;  -68.267;    0.000; 6.20000
 795.43;  -70.467;  -65.600;    0.000;-4.86667
 795.68;  -63.600;  -67.933;    0.000; 4.33334
 795.94;  -39.133;  -73.000;    0.000;33.86666
 796.19;  -68.600;  -84.000;    0.000;15.40000
 796.44;  -40.200;  -85.133;    0.000;44.93333
 796.70;  -53.467;  -50.467;    0.000;-3.00000
 796.95;  -45.133;  -77.667;    0.000;32.53333
 797.21;  -62.600;  -80.200;    0.000;17.60000
 797.46;  -46.133;  -82.800;    0.000;36.66667
 797.72;  -71.067;  -71.000;    0.000;-0.06667
 797.97;  -41.467;  -72.800;    0.000;31.33334
 798.23;  -62.400;  -77.200;    0.000;14.80000
 798.48;  -54.600;  -67.333;    0.000;12.73334
 798.74;  -41.667;  -72.333;    0.000;30.66667
 798.99;  -62.533;  -85.267;    0.000;22.73334
 799.24;  -86.467;  -71.133;    0.000;-15.33334
 799.50;  -55.333;  -75.667;    0.000;20.33333
 799.75;  -54.400;  -71.533;    0.000;17.13333
 800.01;  -52.533;  -69.733;    0.000;17.20000
 800.26;  -63.733;  -70.600;    0.000; 6.86666
 800.52;  -66.400;  -66.400;    0.000; 0.00000
 800.77;  -54.200;  -65.267;    0.000;11.06667
 801.02;  -36.600;  -68.667;    0.000;32.06667
 801.28;  -64.333;  -45.067;    0.000;-19.26667
 801.53;  -60.067;  -75.133;    0.000;15.06667
 801.79;  -47.000;  -61.067;    0.000;14.06667
 802.04;  -28.667;  -77.200;    0.000;48.53333
 802.29;  -49.733;  -70.933;    0.000;21.20000
 802.55;  -41.533;  -73.933;    0.000;32.40000
 802.80;  -59.000;  -50.533;    0.000;-8.46667
 803.06;  -49.667;  -67.933;    0.000;18.26667
 803.31;  -71.600;  -67.467;    0.000;-4.13333
 803.56;  -59.867;  -80.333;    0.000;20.46667
 803.82;  -83.667;  -73.600;    0.000;-10.06667
 804.07;  -56.800;  -77.000;    0.000;20.20000
 804.32;  -75.333;  -75.267;    0.000;-0.06667
 804.58;  -51.400;  -83.800;    0.000;32.40000
 804.83;  -58.333;  -62.333;    0.000; 4.00000
 805.09;  -44.800;  -78.800;    0.000;34.00000
 805.34;  -63.000;  -49.333;    0.000;-13.66667
 805.59;  -37.467;  -64.333;    0.000;26.86667
 805.85;  -49.667;  -70.800;    0.000;21.13334
 806.10;  -53.400;  -62.200;    0.000; 8.80000
 806.35;  -43.200;  -69.400;    0.000;26.20000
 806.61;  -46.133;  -87.667;    0.000;41.53333
 806.86;  -72.667;  -74.667;    0.000; 2.00000
 807.11;  -65.133;  -63.067;    0.000;-2.06667
 807.37;  -60.200;  -52.400;    0.000;-7.80000
 807.62;  -67.200;  -80.933;    0.000;13.73334
 807.87;  -70.533;  -61.000;    0.000;-9.53333
 808.13;  -62.067;  -74.733;    0.000;12.66666
 808.38;  -74.133;  -75.867;    0.000; 1.73334
 808.63;  -45.333;  -89.933;    0.000;44.60000
 808.89;  -70.000;  -59.533;    0.000;-10.46667
 809.14;  -48.267;  -82.467;    0.000;34.20000
 809.39;  -55.933;  -72.867;    0.000;16.93333
 809.65;  -50.333;  -86.200;    0.000;35.86666
 809.90;  -73.800;  -76.533;    0.000; 2.73333
 810.15;  -57.933;  -61.133;    0.000; 3.20000
 810.41;  -72.400;  -57.600;    0.000;-14.80000
 810.66;  -53.933;  -74.067;    0.000;20.13333
 810.91;  -76.467;  -78.600;    0.000; 2.13333
 811.16;  -55.600;  -80.400;    0.000;24.80000
 811.42;  -73.067;  -81.600;    0.000; 8.53333
 811.67;  -43.933;  -55.533;    0.000;11.60000
 811.92;  -76.467;  -76.800;    0.000; 0.33334
 812.18;  -50.000;  -69.267;    0.000;19.26667
 812.43;  -66.000;  -79.267;    0.000;13.26667
 812.68;  -54.533;  -84.600;    0.000;30.06667
 812.93;  -41.733;  -57.667;    0.000;15.93333
 813.19;  -50.600;  -86.267;    0.000;35.66667
 813.44;  -67.067;  -72.067;    0.000; 5.00000
 813.69;  -42.467;  -64.467;    0.000;22.00000
 813.95;  -69.000;  -67.867;    0.000;-1.13333
 814.20;  -33.267;  -75.467;    0.000;42.20000
 814.45;  -84.000;  -81.467;    0.000;-2.53333
 814.70;  -44.733;  -67.133;    0.000;22.40000
 814.96;  -52.133;  -72.800;    0.000;20.66667
 815.21;  -61.867;  -78.000;    0.000;16.13334
 815.46;  -64.800;  -64.333;    0.000;-0.46667
 815.71;  -58.333;  -70.533;    0.000;12.20000
 815.96;  -58.133;  -81.133;    0.000;23.00000
 816.22;  -65.933;  -82.733;    0.000;16.80000
 816.47;  -64.600;  -61.333;    0.000;-3.26667
 816.72;  -62.200;  -86.667;    0.000;24.46666
 816.97;  -64.267;  -89.933;    0.000;25.66666
 817.23;  -45.133;  -56.400;    0.000;11.26667
 817.48;  -53.067;  -52.267;    0.000;-0.80000
 817.73;  -56.467;  -82.467;    0.000;26.00000
 817.98;  -57.067;  -79.867;    0.000;22.80000
 818.23;  -56.800;  -71.667;    0.000;14.86666
 818.49;  -64.733;  -68.267;    0.000; 3.53334
 818.74;  -41.333;  -56.600;    0.000;15.26667
 818.99;  -88.333;  -75.333;    0.000;-13.00000
 819.24;  -59.333;  -65.333;    0.000; 6.00000
 819.50;  -67.533;  -86.400;    0.000;18.86667
 819.75;  -51.867;  -73.000;    0.000;21.13334
 820.00;  -53.067;  -60.600;    0.000; 7.53333
 820.25;  -52.467;  -77.267;    0.000;24.80000
 820.50;  -61.600;  -75.867;    0.000;14.26667
 820.75;  -68.600;  -76.000;    0.000; 7.40000
 821.01;  -66.933;  -66.933;    0.000; 0.00000
 821.26;  -48.800;  -67.867;    0.000;19.06667
 821.51;  -83.533;  -73.267;    0.000;-10.26666
 821.76;  -57.333;  -83.733;    0.000;26.40000
 822.01;  -64.467;  -64.933;    0.000; 0.46667
 822.26;  -44.000;  -61.933;    0.000;17.93333
 822.52;  -54.400;  -86.400;    0.000;32.00000
 822.77;  -61.133;  -89.867;    0.000;28.73333
 823.02;  -78.133;  -54.800;    0.000;-23.33333
 823.27;  -66.000;  -79.733;    0.000;13.73333
 823.52;  -82.400;  -77.867;    0.000;-4.53333
 823.77;  -52.733;  -91.267;    0.000;38.53334
 824.03;  -77.533;  -73.400;    0.000;-4.13333
 824.28;  -60.467;  -67.400;    0.000; 6.93333
 824.53;  -72.000;  -49.000;    0.000;-23.00000
 824.78;  -40.400;  -65.600;    0.000;25.20000
 825.03;  -68.000;  -75.133;    0.000; 7.13333
 825.28;  -64.800;  -62.867;    0.000;-1.93334
 825.53;  -73.267;  -70.600;    0.000;-2.66667
 825.78;  -69.800;  -58.733;    0.000;-11.06667
 826.04;  -71.667;  -76.867;    0.000; 5.20000
 826.29;  -52.133;  -65.400;    0.000;13.26667
 826.54;  -70.400;  -75.267;    0.000; 4.86667
 826.79;  -59.667;  -74.800;    0.000;15.13334
 827.04;  -91.667;  -78.333;    0.000;-13.33333
 827.29;  -42.067;  -78.533;    0.000;36.46667
 827.54;  -72.000;  -55.733;    0.000;-16.26667
 827.79;  -53.333;  -70.267;    0.000;16.93334
 828.04;  -69.133;  -61.200;    0.000;-7.93333
 828.29;  -64.867;  -78.400;    0.000;13.53333
 828.55;  -72.867;  -82.733;    0.000; 9.86666
 828.80;  -42.600;  -74.933;    0.000;32.33334
 829.05;  -58.000;  -80.667;    0.000;22.66666
 829.30;  -77.733;  -86.467;    0.000; 8.73334
 829.55;  -69.467;  -78.200;    0.000; 8.73333
 829.80;  -67.467;  -65.667;    0.000;-1.80000
 830.05;  -80.267;  -67.200;    0.000;-13.06667
 830.30;  -53.200;  -87.000;    0.000;33.80000
 830.55;  -72.400;  -69.200;    0.000;-3.20000
 830.80;  -72.600;  -71.600;    0.000;-1.00000
 831.05;  -77.733;  -64.467;    0.000;-13.26666
 831.30;  -52.533;  -76.267;    0.000;23.73334
 831.55;  -69.067;  -54.400;    0.000;-14.66666
 831.80;  -48.533;  -81.333;    0.000;32.80000
 832.05;  -78.400;  -61.867;    0.000;-16.53334
 832.30;  -58.067;  -66.067;    0.000; 8.00000
 832.56;  -76.133;  -85.333;    0.000; 9.20000
 832.81;  -52.400;  -74.067;    0.000;21.66666
 833.06;  -62.933;  -44.800;    0.000;-18.13334
 833.31;  -66.667;  -96.867;    0.000;30.20000
 833.56;  -83.533;  -66.133;    0.000;-17.40000
 833.81;  -67.733;  -64.267;    0.000;-3.46666
 834.06;  -78.267;  -66.333;    0.000;-11.93333
 834.31;  -45.533;  -78.667;    0.000;33.13333
 834.56;  -77.600;  -70.933;    0.000;-6.66666
 834.81;  -74.667;  -93.733;    0.000;19.06667
 835.06;  -76.267;  -86.200;    0.000; 9.93333
 835.31;  -70.200;  -81.000;    0.000;10.80000
 835.56;  -49.267;  -32.200;    0.000;-17.06667
 835.81;  -66.733;  -81.067;    0.000;14.33334
 836.06;  -46.467;  -61.667;    0.000;15.20000
 836.31;  -81.200;  -86.133;    0.000; 4.93333
 836.56;  -55.133;  -76.400;    0.000;21.26667
 836.81;  -49.933;  -73.467;    0.000;23.53333
 837.06;  -72.000;  -82.400;    0.000;10.40000
 837.31;  -80.333;  -80.067;    0.000;-0.26667
 837.56;  -74.733;  -78.000;    0.000; 3.26667
 837.81;  -64.000;  -66.867;    0.000; 2.86667
 838.06;  -55.267;  -72.000;    0.000;16.73333
 838.31;  -51.800;  -68.200;    0.000;16.40000
 838.56;  -78.400;  -88.067;    0.000; 9.66666
 838.80;  -68.467;  -80.333;    0.000;11.86667
 839.05;  -83.733;  -62.067;    0.000;-21.66666
 839.30;  -84.067;  -89.200;    0.000; 5.13333
 839.55;  -55.667;  -60.533;    0.000; 4.86666
 839.80;  -65.000;  -78.000;    0.000;13.00000
 840.05;  -86.733;  -86.533;    0.000;-0.20000
 840.30;  -56.333;  -73.133;    0.000;16.80000
 840.55;  -73.200;  -67.000;    0.000;-6.20000
 840.80;  -59.333;  -45.533;    0.000;-13.80000
 841.05;  -80.667;  -75.400;    0.000;-5.26666
 841.30;  -53.467;  -69.133;    0.000;15.66666
 841.55;  -77.267;  -81.333;    0.000; 4.06667
 841.80;  -60.133;  -89.267;    0.000;29.13334
 842.05;  -75.133;  -80.800;    0.000; 5.66667
 842.30;  -57.133;  -66.733;    0.000; 9.59999
 842.55;  -65.133;  -70.000;    0.000; 4.86667
 842.79;  -74.600;  -61.000;    0.000;-13.60000
 843.04;  -65.533;  -67.333;    0.000; 1.80000
 843.29;  -57.533;  -59.933;    0.000; 2.40000
 843.54;  -73.400;  -69.533;    0.000;-3.86667
 843.79;  -54.333;  -82.467;    0.000;28.13334
 844.04;  -83.000;  -56.000;    0.000;-27.00000
 844.29;  -55.933;  -91.133;    0.000;35.20000
 844.54;  -83.867;  -66.267;    0.000;-17.60000
 844.79;  -52.133;  -72.333;    0.000;20.20000
 845.04;  -82.200;  -64.867;    0.000;-17.33333
 845.28;  -52.667;  -89.533;    0.000;36.86666
 845.53;  -73.133;  -64.800;    0.000;-8.33333
 845.78;  -35.000;  -78.467;    0.000;43.46667
 846.03;  -61.200;  -77.000;    0.000;15.80000
 846.28;  -56.800;  -70.200;    0.000;13.40000
 846.53;  -44.933;  -51.733;    0.000; 6.80000
 846.78;  -63.400;  -57.600;    0.000;-5.80000
 847.02;  -69.067;  -49.267;    0.000;-19.80000
 847.27;  -32.333;  -66.133;    0.000;33.80000
 847.52;  -75.600;  -67.800;    0.000;-7.80000
 847.77;  -61.400;  -72.600;    0.000;11.20000
 848.02;  -64.667;  -67.667;    0.000; 3.00000
 848.27;  -56.600;  -81.000;    0.000;24.40000
 848.52;  -95.533;  -65.267;    0.000;-30.26666
 848.76;  -59.267;  -79.133;    0.000;19.86666
 849.01;  -75.133;  -71.333;    0.000;-3.80000
 849.26;  -59.800;  -74.333;    0.000;14.53334
 849.51;  -59.267;  -71.400;    0.000;12.13334
 849.76;  -56.200;  -92.000;    0.000;35.80000
 850.01;  -80.667;  -82.467;    0.000; 1.80000
 850.25;  -78.400;  -74.067;    0.000;-4.33334
 850.50;  -96.200;  -66.533;    0.000;-29.66666
 850.75;  -48.733;  -55.800;    0.000; 7.06667
 851.00;  -75.867;  -73.667;    0.000;-2.20000
 851.25;  -77.800;  -69.467;    0.000;-8.33334
 851.49;  -80.867;  -99.467;    0.000;18.60000
 851.74;  -72.667;  -79.533;    0.000; 6.86667
 851.99;  -73.467;  -73.267;    0.000;-0.20000
 852.24;  -78.000;  -62.067;    0.000;-15.93333
 852.49;  -71.133;  -74.800;    0.000; 3.66667
 852.73;  -69.867;  -76.667;    0.000; 6.80000
 852.98;  -63.067;  -74.733;    0.000;11.66666
 853.23;  -71.200;  -57.467;    0.000;-13.73333
 853.48;  -74.267;  -94.200;    0.000;19.93333
 853.73;  -56.667;  -64.400;    0.000; 7.73333
 853.97;  -71.667;  -65.867;    0.000;-5.80000
 854.22;  -68.400;  -72.667;    0.000; 4.26666
 854.47;  -84.333;  -81.400;    0.000;-2.93333
 854.72;  -68.867;  -60.267;    0.000;-8.60000
 854.96;  -70.600;  -71.600;    0.000; 1.00000
 855.21;  -60.867;  -76.533;    0.000;15.66667
 855.46;  -66.800;  -61.333;    0.000;-5.46667
 855.71;  -63.733;  -89.467;    0.000;25.73333
 855.95;  -86.467;  -64.400;    0.000;-22.06667
 856.20;  -71.067;  -66.000;    0.000;-5.06667
 856.45;  -76.867;  -74.400;    0.000;-2.46667
 856.70;  -80.200;  -86.267;    0.000; 6.06667
 856.94;  -94.467;  -65.533;    0.000;-28.93333
 857.19;  -57.667;  -78.267;    0.000;20.60000
 857.44;  -68.800;  -79.933;    0.000;11.13333
 857.69;  -62.133;  -83.267;    0.000;21.13334
 857.93;  -82.667;  -66.333;    0.000;-16.33333
 858.18;  -64.467;  -77.267;    0.000;12.80000
 858.43;  -81.800;  -57.333;    0.000;-24.46667
 858.67;  -70.800;  -53.067;    0.000;-17.73334
 858.92;  -76.200;  -58.333;    0.000;-17.86666
 859.17;  -54.867;  -63.933;    0.000; 9.06667
 859.42;  -80.800;  -69.467;    0.000;-11.33334
 859.66;  -74.600;  -76.333;    0.000; 1.73334
 859.91;  -79.067;  -59.133;    0.000;-19.93333
 860.16;  -54.600;  -93.600;    0.000;39.00000
 860.40;  -61.467;  -79.333;    0.000;17.86667
 860.65;  -55.533;  -94.733;    0.000;39.20000
 860.90;  -72.533;  -66.667;    0.000;-5.86667
 861.14;  -75.733;  -80.400;    0.000; 4.66667
 861.39;  -71.000;  -68.000;    0.000;-3.00000
 861.64;  -69.267;  -53.733;    0.000;-15.53334
 861.88;  -72.533;  -76.000;    0.000; 3.46667
 862.13;  -34.067;  -52.933;    0.000;18.86667
 862.38;  -78.667;  -67.933;    0.000;-10.73333
 862.62;  -73.533;  -56.400;    0.000;-17.13333
 862.87;  -57.467;  -81.933;    0.000;24.46667
 863.12;  -68.933;  -72.000;    0.000; 3.06667
 863.36;  -51.467;  -81.800;    0.000;30.33334
 863.61;  -71.867;  -63.200;    0.000;-8.66667
 863.86;  -80.800;  -87.533;    0.000; 6.73333
 864.10;  -80.067;  -69.400;    0.000;-10.66666
 864.35;  -60.200;  -63.200;    0.000; 3.00000
 864.60;  -57.133;  -79.667;    0.000;22.53333
 864.84;  -67.267;  -68.933;    0.000; 1.66666
 865.09;  -79.533;  -72.000;    0.000;-7.53333
 865.33;  -80.267;  -56.800;    0.000;-23.46667
 865.58;  -73.733;  -82.800;    0.000; 9.06667
 865.83;  -62.133;  -71.800;    0.000; 9.66667
 866.07;  -66.800;  -89.067;    0.000;22.26666
 866.32;  -44.267;  -52.667;    0.000; 8.40000
 866.57;  -61.267;  -66.800;    0.000; 5.53334
 866.81;  -96.467;  -66.067;    0.000;-30.40000
 867.06;  -76.400;  -87.733;    0.000;11.33333
 867.30;  -66.467;  -82.267;    0.000;15.80000
 867.55;  -66.600;  -71.867;    0.000; 5.26667
 867.80;  -76.267;  -58.733;    0.000;-17.53334
 868.04;  -60.667;  -68.400;    0.000; 7.73333
 868.29;  -88.667;  -73.000;    0.000;-15.66666
 868.53;  -60.733;  -53.933;    0.000;-6.80000
 868.78;  -95.867;  -66.600;    0.000;-29.26667
 869.03;  -57.933;  -71.267;    0.000;13.33334
 869.27;  -95.800;  -83.533;    0.000;-12.26667
 869.52;  -63.733;  -80.267;    0.000;16.53334
 869.76;  -49.600;  -68.667;    0.000;19.06667
 870.01;  -66.667;  -74.000;    0.000; 7.33334
 870.25;  -70.867;  -65.267;    0.000;-5.60000
 870.50;  -69.400;  -57.200;    0.000;-12.20000
 870.75;  -73.600;  -61.533;    0.000;-12.06667
 870.99;  -61.333;  -65.467;    0.000; 4.13334
 871.24;  -83.467;  -65.133;    0.000;-18.33334
 871.48;  -38.733;  -64.800;    0.000;26.06667
 871.73;  -67.667;  -78.267;    0.000;10.60001
 871.97;  -66.800;  -79.933;    0.000;13.13333
 872.22;  -79.467;  -52.467;    0.000;-27.00000
 872.46;  -62.067;  -63.200;    0.000; 1.13334
 872.71;  -83.933;  -93.600;    0.000; 9.66666
 872.95;  -53.400;  -67.800;    0.000;14.40000
 873.20;  -78.333;  -65.533;    0.000;-12.80000
 873.44;  -67.867;  -60.000;    0.000;-7.86667
 873.69;  -86.667;  -81.800;    0.000;-4.86666
 873.94;  -58.533;  -71.733;    0.000;13.20000
 874.18;  -79.933;  -89.133;    0.000; 9.20000
 874.43;  -55.200;  -63.067;    0.000; 7.86666
 874.67;  -74.333;  -59.733;    0.000;-14.60000
 874.92;  -47.933;  -62.200;    0.000;14.26667
 875.16;  -58.800;  -47.533;    0.000;-11.26667
 875.41;  -60.133;  -99.000;    0.000;38.86666
 875.65;  -64.933;  -50.333;    0.000;-14.60000
 875.90;  -54.400;  -64.400;    0.000;10.00000
 876.14;  -83.800;  -79.000;    0.000;-4.80000
 876.39;  -72.533;  -64.067;    0.000;-8.46667
 876.63;  -85.067;  -55.800;    0.000;-29.26667
 876.88;  -73.200;  -60.867;    0.000;-12.33333
 877.12;  -67.200;  -65.733;    0.000;-1.46667
 877.36;  -51.000;  -85.867;    0.000;34.86667
 877.61;  -67.867;  -77.667;    0.000; 9.80000
 877.85;  -57.267;  -52.667;    0.000;-4.60000
 878.10;  -57.733;  -73.000;    0.000;15.26667
 878.34;  -58.133;  -51.733;    0.000;-6.40000
 878.59;  -71.000;  -68.200;    0.000;-2.80000
 878.83;  -63.733;  -84.667;    0.000;20.93333
 879.08;  -44.533;  -73.600;    0.000;29.06667
 879.32;  -80.267;  -63.400;    0.000;-16.86667
 879.57;  -64.800;  -66.867;    0.000; 2.06667
 879.81;  -61.267;  -80.867;    0.000;19.60000
 880.05;  -49.867;  -60.800;    0.000;10.93333
 880.30;  -48.467;  -74.267;    0.000;25.80000
 880.54;  -69.400;  -71.667;    0.000; 2.26666
 880.79;  -68.000;  -74.600;    0.000; 6.60000
 881.03;  -61.600;  -63.867;    0.000; 2.26667
 881.28;  -62.733;  -48.467;    0.000;-14.26667
 881.52;  -69.333;  -76.533;    0.000; 7.20000
 881.76;  -51.133;  -62.533;    0.000;11.40000
 882.01;  -65.667;  -65.267;    0.000;-0.39999
 882.25;  -64.800;  -75.200;    0.000;10.39999
 882.50;  -70.333;  -69.133;    0.000;-1.20000
 882.74;  -54.000;  -74.200;    0.000;20.20000
 882.98;  -55.667;  -64.667;    0.000; 9.00000
 883.23;  -67.067;  -78.933;    0.000;11.86667
 883.47;  -56.267;  -51.667;    0.000;-4.60000
 883.72;  -57.400;  -67.267;    0.000; 9.86667
 883.96;  -54.200;  -53.133;    0.000;-1.06667
 884.20;  -62.867;  -82.467;    0.000;19.60000
 884.45;  -64.467;  -54.667;    0.000;-9.80000
 884.69;  -64.000;  -57.600;    0.000;-6.40000
 884.94;  -37.133;  -34.733;    0.000;-2.40000
 885.18;  -44.933;  -57.667;    0.000;12.73333
 885.42;  -63.267;  -61.000;    0.000;-2.26667
 885.67;  -50.267;  -77.400;    0.000;27.13334
 885.91;  -67.400;  -67.733;    0.000; 0.33333
 886.15;  -55.667;  -37.933;    0.000;-17.73333
 886.40;  -49.200;  -71.733;    0.000;22.53333
 886.64;  -58.733;  -68.400;    0.000; 9.66667
 886.88;  -66.600;  -59.533;    0.000;-7.06667
 887.13;  -55.867;  -47.333;    0.000;-8.53333
 887.37;  -63.133;  -74.533;    0.000;11.40000
 887.62;  -50.467;  -41.333;    0.000;-9.13334
 887.86;  -70.333;  -55.933;    0.000;-14.40000
 888.10;  -57.733;  -69.867;    0.000;12.13334
 888.35;  -68.133;  -41.867;    0.000;-26.26667
 888.59;  -53.600;  -59.400;    0.000; 5.80000
 888.83;  -56.867;  -57.200;    0.000; 0.33334
 889.07;  -47.667;  -72.467;    0.000;24.80000
 889.32;  -42.933;  -65.800;    0.000;22.86667
 889.56;  -45.733;  -62.800;    0.000;17.06667
 889.80;  -61.133;  -45.000;    0.000;-16.13334
 890.05;  -31.067;  -57.533;    0.000;26.46667
 890.29;  -43.533;  -49.333;    0.000; 5.80000
 890.53;  -49.333;  -41.667;    0.000;-7.66666
 890.78;  -44.933;  -56.067;    0.000;11.13333
 891.02;  -53.067;  -58.400;    0.000; 5.33334
 891.26;  -51.467;  -42.600;    0.000;-8.86667
 891.51;  -39.933;  -46.800;    0.000; 6.86666
 891.75;  -39.267;  -49.267;    0.000;10.00000
 891.99;  -58.600;  -39.467;    0.000;-19.13333
 892.23;  -46.200;  -61.867;    0.000;15.66666
 892.48;  -41.000;  -46.800;    0.000; 5.80000
 892.72;  -43.400;  -38.933;    0.000;-4.46667
 892.96;  -37.933;  -46.333;    0.000; 8.40000
 893.20;  -63.333;  -30.467;    0.000;-32.86666
 893.45;  -51.067;  -57.067;    0.000; 6.00000
 893.69;  -44.400;  -46.933;    0.000; 2.53333
 893.93;  -58.000;  -52.800;    0.000;-5.20000
 894.17;  -54.400;  -39.867;    0.000;-14.53334
 894.42;  -21.600;  -59.400;    0.000;37.80000
 894.66;  -41.133;  -48.000;    0.000; 6.86666
 894.90;  -38.667;  -30.267;    0.000;-8.40000
 895.14;  -46.333;  -21.867;    0.000;-24.46667
 895.39;  -32.467;  -49.600;    0.000;17.13333
 895.63;  -40.667;  -24.133;    0.000;-16.53333
 895.87;  -41.200;  -44.800;    0.000; 3.60000
 896.11;  -23.667;  -13.333;    0.000;-10.33333
 896.36;  -28.400;  -25.200;    0.000;-3.20000
 896.60;  -32.067;  -35.867;    0.000; 3.80000
 896.84;   -5.600;  -10.733;    0.000; 5.13333
 897.08;  -25.333;  -22.067;    0.000;-3.26667
 897.32;  -23.600;  -17.800;    0.000;-5.80000
 897.57;  -21.000;  -23.333;    0.000; 2.33333
 897.81;  -16.200;  -13.667;    0.000;-2.53333
 898.05;  -38.733;  -26.400;    0.000;-12.33333
 898.29;  -11.533;   -7.933;    0.000;-3.60000
 898.53;  -17.067;   -5.800;    0.000;-11.26667
 898.78;   -6.667;   -4.000;    0.000;-2.66667
 899.02;  -31.200;   -9.000;    0.000;-22.20000
 899.26;   -7.000;   -9.133;    0.000; 2.13333
 899.50;    9.533;   19.867;    0.000;-10.33333
 899.74;  -10.600;   15.400;    0.000;-26.00000
 899.99;    5.600;   14.267;    0.000;-8.66667
 900.23;   38.733;    9.867;    0.000;28.86667
 900.47;    1.867;   22.333;    0.000;-20.46667
 900.71;    6.867;   -3.200;    0.000;10.06667
 900.95;   28.733;   22.800;    0.000; 5.93333
 901.19;   47.467;   30.400;    0.000;17.06667
 901.44;   42.467;   57.733;    0.000;-15.26667
 901.68;   59.933;   80.267;    0.000;-20.33334
 901.92;   76.133;   84.533;    0.000;-8.40000
 902.16;   84.133;   82.333;    0.000; 1.80000
 902.40;  101.667;  100.200;    0.000; 1.46667
 902.64;  126.133;  141.400;    0.000;-15.26666
 902.88;  135.467;  166.867;    0.000;-31.40001
 903.13;  190.933;  166.800;    0.000;24.13333

