point2
Integration time [ms]:  30.000
Averaging Nr. [scans]: 15
Smoothing Nr. [pixels]: 0
Data measured with spectrometer [name]: 1307077U2
Wave   ;Sample   ;Dark     ;Reference;Scope Corrected for Dark
[nm]   ;[counts] ;[counts] ;[counts] 

 350.80;   10.000;   -8.467;    0.000;18.46667
 351.10;   -5.467;   -4.133;    0.000;-1.33333
 351.39;   32.067;   10.733;    0.000;21.33333
 351.69;  -13.133;  -17.000;    0.000; 3.86667
 351.99;   -6.200;  -22.067;    0.000;15.86667
 352.28;   -4.400;   -1.733;    0.000;-2.66667
 352.58;  -11.333;  -16.200;    0.000; 4.86667
 352.88;   -8.067;    1.867;    0.000;-9.93333
 353.17;   -0.067;    6.267;    0.000;-6.33333
 353.47;  -12.333;   -4.800;    0.000;-7.53333
 353.76;    0.400;    8.667;    0.000;-8.26667
 354.06;    2.800;   -2.733;    0.000; 5.53333
 354.36;   15.533;    6.200;    0.000; 9.33333
 354.65;   10.800;    1.200;    0.000; 9.60000
 354.95;   17.800;   -5.733;    0.000;23.53333
 355.24;  -18.133;   -3.467;    0.000;-14.66667
 355.54;  -15.400;   -9.867;    0.000;-5.53333
 355.84;   -3.000;    2.133;    0.000;-5.13333
 356.13;   17.200;   35.267;    0.000;-18.06667
 356.43;   -9.667;   -2.000;    0.000;-7.66667
 356.72;  -18.267;  -24.733;    0.000; 6.46667
 357.02;   17.600;    7.267;    0.000;10.33333
 357.31;   14.067;    4.400;    0.000; 9.66667
 357.61;   -7.200;   10.000;    0.000;-17.20000
 357.91;  -15.533;  -10.400;    0.000;-5.13333
 358.20;   -5.533;  -11.067;    0.000; 5.53333
 358.50;   -6.933;   -0.133;    0.000;-6.80000
 358.79;    0.067;   -5.667;    0.000; 5.73333
 359.09;   -8.400;   -7.000;    0.000;-1.40000
 359.38;    2.133;  -11.800;    0.000;13.93333
 359.68;   -1.600;  -19.400;    0.000;17.80000
 359.98;    5.267;  -12.067;    0.000;17.33333
 360.27;    9.867;  -20.467;    0.000;30.33333
 360.57;    2.067;  -24.467;    0.000;26.53333
 360.86;    1.133;  -13.467;    0.000;14.60000
 361.16;  -15.333;  -10.933;    0.000;-4.40000
 361.45;    2.133;    0.933;    0.000; 1.20000
 361.75;  -18.067;  -14.467;    0.000;-3.60000
 362.04;   38.533;   20.200;    0.000;18.33333
 362.34;   -0.800;    7.200;    0.000;-8.00000
 362.64;    8.200;   -3.600;    0.000;11.80000
 362.93;    5.733;  -22.667;    0.000;28.40000
 363.23;  -17.733;  -26.267;    0.000; 8.53333
 363.52;  -13.333;  -31.067;    0.000;17.73333
 363.82;   -7.400;  -15.667;    0.000; 8.26667
 364.11;   10.800;    2.867;    0.000; 7.93333
 364.41;  -26.400;  -19.200;    0.000;-7.20000
 364.70;  -18.133;  -11.067;    0.000;-7.06667
 365.00;    7.667;   -4.333;    0.000;12.00000
 365.29;    0.800;   -9.133;    0.000; 9.93333
 365.59;   -6.800;   -4.267;    0.000;-2.53333
 365.88;   -9.333;   -8.867;    0.000;-0.46667
 366.18;   -5.067;   -2.200;    0.000;-2.86667
 366.47;   -2.333;    6.000;    0.000;-8.33333
 366.77;    6.467;   15.800;    0.000;-9.33333
 367.06;   11.400;  -16.267;    0.000;27.66667
 367.36;    6.467;   -4.267;    0.000;10.73333
 367.65;   12.933;   -1.400;    0.000;14.33333
 367.95;   -5.733;   -3.333;    0.000;-2.40000
 368.24;   -9.200;   -7.667;    0.000;-1.53333
 368.54;   -8.333;  -20.133;    0.000;11.80000
 368.83;   23.467;    2.667;    0.000;20.80000
 369.13;   -0.333;   10.533;    0.000;-10.86667
 369.42;   15.733;   -4.867;    0.000;20.60000
 369.72;    3.400;  -13.400;    0.000;16.80000
 370.01;  -18.467;   -8.267;    0.000;-10.20000
 370.31;    7.867;    5.600;    0.000; 2.26667
 370.60;   15.200;   26.333;    0.000;-11.13333
 370.90;  -13.133;  -20.200;    0.000; 7.06667
 371.19;  -31.533;  -26.200;    0.000;-5.33333
 371.49;   -7.600;    3.400;    0.000;-11.00000
 371.78;    3.733;    3.133;    0.000; 0.60000
 372.08;   11.933;   -7.267;    0.000;19.20000
 372.37;  -12.333;  -14.667;    0.000; 2.33333
 372.67;   -1.400;    6.067;    0.000;-7.46667
 372.96;   -5.800;    0.000;    0.000;-5.80000
 373.26;  -16.267;  -11.133;    0.000;-5.13333
 373.55;    4.333;   -1.933;    0.000; 6.26667
 373.85;  -27.267;  -13.267;    0.000;-14.00000
 374.14;   14.600;    4.933;    0.000; 9.66667
 374.43;   -9.733;   -6.867;    0.000;-2.86667
 374.73;  -16.067;  -10.333;    0.000;-5.73333
 375.02;    6.133;    7.600;    0.000;-1.46667
 375.32;   -5.733;  -20.267;    0.000;14.53333
 375.61;  -11.467;  -15.067;    0.000; 3.60000
 375.91;  -27.267;  -30.467;    0.000; 3.20000
 376.20;  -24.267;  -10.400;    0.000;-13.86667
 376.50;  -13.333;  -20.133;    0.000; 6.80000
 376.79;  -33.667;  -22.667;    0.000;-11.00000
 377.08;  -17.000;  -28.533;    0.000;11.53333
 377.38;  -15.133;  -18.667;    0.000; 3.53333
 377.67;  -25.000;   16.333;    0.000;-41.33333
 377.97;  -18.467;  -18.200;    0.000;-0.26667
 378.26;   -1.933;  -10.133;    0.000; 8.20000
 378.56;  -27.533;  -34.867;    0.000; 7.33333
 378.85;   -1.000;   -6.600;    0.000; 5.60000
 379.14;   -6.000;  -29.133;    0.000;23.13333
 379.44;   -7.200;  -13.533;    0.000; 6.33333
 379.73;    0.000;  -14.267;    0.000;14.26667
 380.03;  -12.667;   14.000;    0.000;-26.66667
 380.32;    1.667;   -6.133;    0.000; 7.80000
 380.62;  -10.333;   -9.267;    0.000;-1.06667
 380.91;   -3.200;   -4.733;    0.000; 1.53333
 381.20;   -4.933;    3.067;    0.000;-8.00000
 381.50;    8.000;  -14.600;    0.000;22.60000
 381.79;  -11.200;  -19.400;    0.000; 8.20000
 382.09;  -16.400;  -19.600;    0.000; 3.20000
 382.38;   -7.667;  -23.667;    0.000;16.00000
 382.67;  -23.667;  -19.000;    0.000;-4.66667
 382.97;   -8.000;  -16.267;    0.000; 8.26667
 383.26;    2.067;  -24.533;    0.000;26.60000
 383.56;  -11.667;    7.333;    0.000;-19.00000
 383.85;   -9.733;  -13.667;    0.000; 3.93333
 384.14;   -5.600;    2.600;    0.000;-8.20000
 384.44;  -18.867;  -26.267;    0.000; 7.40000
 384.73;   -3.600;    8.533;    0.000;-12.13333
 385.02;  -14.200;  -23.800;    0.000; 9.60000
 385.32;   -4.000;   -4.933;    0.000; 0.93333
 385.61;  -19.200;  -17.333;    0.000;-1.86667
 385.91;   -0.600;   -6.933;    0.000; 6.33333
 386.20;  -21.200;  -30.267;    0.000; 9.06667
 386.49;  -14.000;  -30.467;    0.000;16.46667
 386.79;    4.933;    7.867;    0.000;-2.93333
 387.08;   -5.800;  -30.600;    0.000;24.80000
 387.37;  -13.667;  -20.267;    0.000; 6.60000
 387.67;   -8.867;  -21.600;    0.000;12.73333
 387.96;   -1.467;  -13.133;    0.000;11.66667
 388.25;   20.267;   11.600;    0.000; 8.66667
 388.55;  -35.000;  -20.200;    0.000;-14.80000
 388.84;  -25.800;  -14.533;    0.000;-11.26667
 389.14;  -24.667;  -10.333;    0.000;-14.33333
 389.43;    5.200;   -7.467;    0.000;12.66667
 389.72;  -15.133;  -21.200;    0.000; 6.06667
 390.02;  -10.933;    8.333;    0.000;-19.26667
 390.31;  -12.600;  -17.333;    0.000; 4.73333
 390.60;    0.067;  -17.933;    0.000;18.00000
 390.90;  -15.533;  -15.533;    0.000; 0.00000
 391.19;  -13.733;  -21.133;    0.000; 7.40000
 391.48;  -18.400;  -18.733;    0.000; 0.33333
 391.78;   -8.200;  -15.600;    0.000; 7.40000
 392.07;   37.000;   24.600;    0.000;12.40000
 392.36;   -1.067;   -8.067;    0.000; 7.00000
 392.66;  -23.800;   -9.933;    0.000;-13.86667
 392.95;   -9.733;  -23.400;    0.000;13.66667
 393.24;  -23.333;   -7.667;    0.000;-15.66667
 393.53;   -1.933;  -25.267;    0.000;23.33333
 393.83;  -40.400;  -30.133;    0.000;-10.26667
 394.12;   -6.467;   -2.133;    0.000;-4.33333
 394.41;   -3.200;   -0.733;    0.000;-2.46667
 394.71;   -2.067;   -2.267;    0.000; 0.20000
 395.00;   -4.733;   -8.667;    0.000; 3.93333
 395.29;   -7.133;   -0.600;    0.000;-6.53333
 395.59;  -20.867;  -33.333;    0.000;12.46667
 395.88;  -16.867;   -9.800;    0.000;-7.06667
 396.17;  -20.067;  -29.400;    0.000; 9.33333
 396.46;   16.000;   -1.467;    0.000;17.46667
 396.76;  -26.800;  -26.867;    0.000; 0.06667
 397.05;    6.267;   31.267;    0.000;-25.00000
 397.34;  -22.000;  -28.200;    0.000; 6.20000
 397.64;  -13.933;  -27.000;    0.000;13.06667
 397.93;  -21.733;  -28.333;    0.000; 6.60000
 398.22;  -29.600;  -16.600;    0.000;-13.00000
 398.51;  -14.667;  -25.000;    0.000;10.33333
 398.81;   -5.067;  -11.467;    0.000; 6.40000
 399.10;  -17.533;  -16.800;    0.000;-0.73333
 399.39;  -16.067;  -22.000;    0.000; 5.93333
 399.69;   11.400;  -21.933;    0.000;33.33333
 399.98;    2.000;    5.200;    0.000;-3.20000
 400.27;  -25.800;  -31.733;    0.000; 5.93333
 400.56;   -6.467;  -13.400;    0.000; 6.93333
 400.86;  -10.000;  -22.467;    0.000;12.46667
 401.15;    1.533;   -5.467;    0.000; 7.00000
 401.44;  -27.400;  -24.333;    0.000;-3.06667
 401.73;    8.733;   -4.133;    0.000;12.86667
 402.03;   -7.533;  -29.533;    0.000;22.00000
 402.32;  -17.067;  -27.800;    0.000;10.73333
 402.61;  -10.600;  -19.667;    0.000; 9.06667
 402.90;  -19.400;   -8.533;    0.000;-10.86667
 403.20;   -4.667;    3.667;    0.000;-8.33333
 403.49;    3.533;  -21.867;    0.000;25.40000
 403.78;  -18.733;  -23.600;    0.000; 4.86667
 404.07;   -6.467;   -4.667;    0.000;-1.80000
 404.37;   -4.733;    1.400;    0.000;-6.13333
 404.66;    1.733;  -18.667;    0.000;20.40000
 404.95;   -8.400;  -12.200;    0.000; 3.80000
 405.24;  -15.600;  -24.467;    0.000; 8.86667
 405.53;  -19.333;  -20.800;    0.000; 1.46667
 405.83;   -4.333;   -9.933;    0.000; 5.60000
 406.12;  -32.000;  -19.200;    0.000;-12.80000
 406.41;   -3.000;   -6.533;    0.000; 3.53333
 406.70;  -18.467;  -20.600;    0.000; 2.13333
 407.00;  -22.667;  -11.467;    0.000;-11.20000
 407.29;   -3.000;  -23.067;    0.000;20.06667
 407.58;  -12.533;  -22.400;    0.000; 9.86667
 407.87;  -20.467;  -29.133;    0.000; 8.66667
 408.16;   -2.600;  -15.933;    0.000;13.33333
 408.46;  -24.600;  -31.067;    0.000; 6.46667
 408.75;  -13.133;  -17.733;    0.000; 4.60000
 409.04;  -14.867;   -7.733;    0.000;-7.13333
 409.33;   -8.267;  -25.133;    0.000;16.86667
 409.62;    2.067;  -19.000;    0.000;21.06667
 409.92;  -31.200;   -0.600;    0.000;-30.60000
 410.21;  -29.800;  -31.667;    0.000; 1.86667
 410.50;  -24.467;  -24.333;    0.000;-0.13333
 410.79;   -9.400;   -1.333;    0.000;-8.06667
 411.08;  -19.133;  -10.533;    0.000;-8.60000
 411.37;  -21.467;  -37.067;    0.000;15.60000
 411.67;   -8.333;  -34.533;    0.000;26.20000
 411.96;  -19.933;  -20.067;    0.000; 0.13334
 412.25;   -0.333;  -12.533;    0.000;12.20000
 412.54;  -12.200;  -34.133;    0.000;21.93334
 412.83;  -19.800;  -17.867;    0.000;-1.93333
 413.13;   -8.467;  -10.600;    0.000; 2.13333
 413.42;  -11.733;  -21.867;    0.000;10.13333
 413.71;   -1.800;  -13.400;    0.000;11.60000
 414.00;  -13.667;  -17.800;    0.000; 4.13333
 414.29;   -1.733;  -18.000;    0.000;16.26667
 414.58;  -13.200;  -16.067;    0.000; 2.86667
 414.87;  -37.067;   -2.333;    0.000;-34.73333
 415.17;  -32.267;  -26.600;    0.000;-5.66667
 415.46;  -21.400;  -40.267;    0.000;18.86667
 415.75;   -2.333;   -4.333;    0.000; 2.00000
 416.04;  -10.733;  -18.800;    0.000; 8.06667
 416.33;  -12.600;  -21.000;    0.000; 8.40000
 416.62;  -24.400;  -31.400;    0.000; 7.00000
 416.91;  -11.600;  -20.400;    0.000; 8.80000
 417.21;  -42.133;  -32.667;    0.000;-9.46667
 417.50;  -20.933;  -23.400;    0.000; 2.46667
 417.79;  -15.067;  -29.200;    0.000;14.13333
 418.08;   -8.667;  -17.333;    0.000; 8.66667
 418.37;  -29.933;  -15.067;    0.000;-14.86667
 418.66;  -21.800;  -24.933;    0.000; 3.13333
 418.95;    1.267;  -13.667;    0.000;14.93333
 419.24;  -22.400;  -24.600;    0.000; 2.20000
 419.54;  -17.000;  -27.733;    0.000;10.73333
 419.83;   -8.333;  -11.733;    0.000; 3.40000
 420.12;  -26.067;  -10.133;    0.000;-15.93333
 420.41;    9.733;    8.533;    0.000; 1.20000
 420.70;  -19.267;  -16.467;    0.000;-2.80000
 420.99;   -5.533;  -15.600;    0.000;10.06667
 421.28;   -0.533;  -13.400;    0.000;12.86667
 421.57;    5.333;  -12.200;    0.000;17.53333
 421.86;    5.200;   -8.000;    0.000;13.20000
 422.16;   -6.867;  -28.133;    0.000;21.26667
 422.45;  -11.467;  -26.267;    0.000;14.80000
 422.74;  -33.200;  -17.267;    0.000;-15.93333
 423.03;  -11.067;  -17.800;    0.000; 6.73333
 423.32;  -13.267;  -12.400;    0.000;-0.86667
 423.61;    6.933;  -15.867;    0.000;22.80000
 423.90;  -14.667;   -1.333;    0.000;-13.33333
 424.19;   24.467;   27.000;    0.000;-2.53333
 424.48;  -23.200;  -16.267;    0.000;-6.93333
 424.77;   -1.067;  -16.400;    0.000;15.33333
 425.06;   -7.400;   -5.600;    0.000;-1.80000
 425.35;    8.000;   -0.667;    0.000; 8.66667
 425.65;  -11.000;  -20.067;    0.000; 9.06667
 425.94;  -18.333;  -24.600;    0.000; 6.26667
 426.23;  -26.267;  -23.267;    0.000;-3.00000
 426.52;  -28.133;  -33.333;    0.000; 5.20000
 426.81;   17.133;    1.333;    0.000;15.80000
 427.10;  -36.200;  -28.000;    0.000;-8.20000
 427.39;   -3.067;    0.267;    0.000;-3.33333
 427.68;  -23.133;  -26.400;    0.000; 3.26667
 427.97;   -5.933;   -6.400;    0.000; 0.46667
 428.26;  -19.867;  -35.667;    0.000;15.80000
 428.55;   -7.267;   -5.933;    0.000;-1.33333
 428.84;   -2.733;    2.400;    0.000;-5.13333
 429.13;  -13.333;  -11.667;    0.000;-1.66667
 429.42;  -15.067;  -19.333;    0.000; 4.26667
 429.71;  -13.000;    8.400;    0.000;-21.40000
 430.00;  -21.933;  -20.667;    0.000;-1.26667
 430.29;  -24.133;  -17.267;    0.000;-6.86667
 430.58;  -20.200;  -14.267;    0.000;-5.93333
 430.87;  -14.533;  -32.800;    0.000;18.26667
 431.16;  -28.600;  -34.200;    0.000; 5.60000
 431.46;   -2.000;   -2.467;    0.000; 0.46667
 431.75;  -26.733;  -30.600;    0.000; 3.86667
 432.04;   -3.267;    2.467;    0.000;-5.73333
 432.33;  -20.600;  -26.667;    0.000; 6.06667
 432.62;   -9.333;  -24.600;    0.000;15.26667
 432.91;  -14.533;  -45.867;    0.000;31.33333
 433.20;  -14.400;  -12.467;    0.000;-1.93333
 433.49;  -17.067;  -23.333;    0.000; 6.26667
 433.78;  -18.133;  -20.933;    0.000; 2.80000
 434.07;  -32.333;  -39.133;    0.000; 6.80000
 434.36;  -25.200;  -26.800;    0.000; 1.60000
 434.65;  -27.533;  -33.333;    0.000; 5.80000
 434.94;   -5.600;  -18.200;    0.000;12.60000
 435.23;   -9.000;  -18.067;    0.000; 9.06667
 435.52;  -24.133;    4.133;    0.000;-28.26667
 435.81;  -15.333;   -2.267;    0.000;-13.06667
 436.10;   10.933;   -0.933;    0.000;11.86667
 436.39;   -8.133;   -8.000;    0.000;-0.13333
 436.68;   -7.333;  -10.067;    0.000; 2.73333
 436.97;  -36.200;  -30.733;    0.000;-5.46667
 437.26;  -15.000;  -12.267;    0.000;-2.73333
 437.55;   -1.467;  -19.000;    0.000;17.53333
 437.83;  -34.867;  -35.933;    0.000; 1.06667
 438.12;  -25.600;  -37.733;    0.000;12.13333
 438.41;  -19.067;  -19.067;    0.000; 0.00000
 438.70;    5.200;   16.933;    0.000;-11.73333
 438.99;   16.600;   10.267;    0.000; 6.33333
 439.28;   -5.600;  -18.533;    0.000;12.93333
 439.57;  -24.067;  -23.000;    0.000;-1.06667
 439.86;  -26.333;  -21.200;    0.000;-5.13333
 440.15;    2.800;   -6.800;    0.000; 9.60000
 440.44;  -13.600;  -11.267;    0.000;-2.33333
 440.73;  -30.267;  -19.467;    0.000;-10.80000
 441.02;  -18.133;  -25.667;    0.000; 7.53333
 441.31;  -12.200;  -13.200;    0.000; 1.00000
 441.60;  -21.467;  -18.400;    0.000;-3.06667
 441.89;  -35.933;  -31.067;    0.000;-4.86667
 442.18;  -23.400;  -23.200;    0.000;-0.20000
 442.47;   -6.733;   -7.533;    0.000; 0.80000
 442.76;  -29.000;  -40.200;    0.000;11.20000
 443.05;   -3.600;    2.467;    0.000;-6.06667
 443.34;  -18.133;   -4.000;    0.000;-14.13333
 443.63;  -29.933;  -22.800;    0.000;-7.13333
 443.91;  -13.800;  -13.533;    0.000;-0.26667
 444.20;  -15.867;  -17.467;    0.000; 1.60000
 444.49;  -22.667;  -35.267;    0.000;12.60000
 444.78;  -18.533;  -13.933;    0.000;-4.60000
 445.07;    0.933;   -3.733;    0.000; 4.66667
 445.36;  -36.067;  -38.533;    0.000; 2.46667
 445.65;   -8.067;  -19.400;    0.000;11.33333
 445.94;  -18.467;  -29.400;    0.000;10.93333
 446.23;  -19.800;   -2.867;    0.000;-16.93333
 446.52;    5.333;    1.733;    0.000; 3.60000
 446.81;  -13.067;  -30.733;    0.000;17.66667
 447.10;  -36.733;  -26.533;    0.000;-10.20000
 447.38;  -41.133;  -25.333;    0.000;-15.80000
 447.67;    3.267;  -17.000;    0.000;20.26667
 447.96;  -23.267;  -17.800;    0.000;-5.46667
 448.25;  -10.333;   -3.267;    0.000;-7.06667
 448.54;   90.200;   67.267;    0.000;22.93333
 448.83;   -8.067;    1.133;    0.000;-9.20000
 449.12;  -48.200;  -33.733;    0.000;-14.46667
 449.41;  -34.333;  -32.600;    0.000;-1.73333
 449.70;  -13.067;  -31.067;    0.000;18.00000
 449.98;  -38.667;  -30.067;    0.000;-8.60000
 450.27;    2.000;  -25.400;    0.000;27.40000
 450.56;  -28.933;  -29.333;    0.000; 0.40000
 450.85;   -3.467;  -20.933;    0.000;17.46667
 451.14;  -12.867;  -24.267;    0.000;11.40000
 451.43;  -13.400;  -29.933;    0.000;16.53333
 451.72;  -30.867;  -11.267;    0.000;-19.60000
 452.01;   -2.000;  -12.733;    0.000;10.73333
 452.29;  -17.800;  -37.800;    0.000;20.00000
 452.58;  -28.467;  -28.000;    0.000;-0.46667
 452.87;  -10.200;  -25.400;    0.000;15.20000
 453.16;  -45.467;  -34.200;    0.000;-11.26667
 453.45;   -4.533;   -9.667;    0.000; 5.13333
 453.74;    6.933;  -23.933;    0.000;30.86667
 454.03;  -24.067;  -20.400;    0.000;-3.66667
 454.31;  -18.333;  -25.600;    0.000; 7.26667
 454.60;  -13.600;  -19.400;    0.000; 5.80000
 454.89;  -17.133;  -10.333;    0.000;-6.80000
 455.18;  -22.933;  -23.733;    0.000; 0.80000
 455.47;  -28.067;  -25.600;    0.000;-2.46667
 455.76;  -33.200;   -6.133;    0.000;-27.06667
 456.04;  -13.467;  -14.800;    0.000; 1.33333
 456.33;  -28.067;  -23.800;    0.000;-4.26667
 456.62;  -11.200;  -22.200;    0.000;11.00000
 456.91;  -34.267;  -21.600;    0.000;-12.66667
 457.20;    3.667;  -15.600;    0.000;19.26667
 457.49;  -15.533;   -8.733;    0.000;-6.80000
 457.77;  -15.600;  -37.067;    0.000;21.46667
 458.06;  -13.800;   -5.933;    0.000;-7.86667
 458.35;  -22.133;  -29.333;    0.000; 7.20000
 458.64;  -22.800;  -16.400;    0.000;-6.40000
 458.93;  -24.867;  -32.267;    0.000; 7.40000
 459.21;   -9.933;  -13.867;    0.000; 3.93333
 459.50;   -4.800;  -29.400;    0.000;24.60000
 459.79;  -21.400;  -22.333;    0.000; 0.93333
 460.08;  -29.600;  -22.600;    0.000;-7.00000
 460.37;  -12.333;  -28.733;    0.000;16.40000
 460.65;  -17.733;  -21.467;    0.000; 3.73333
 460.94;  -20.667;  -12.933;    0.000;-7.73333
 461.23;  -20.067;  -17.200;    0.000;-2.86667
 461.52;   11.533;   14.667;    0.000;-3.13333
 461.81;  -18.933;  -27.333;    0.000; 8.40000
 462.09;   -4.467;   -8.067;    0.000; 3.60000
 462.38;  -13.267;  -30.333;    0.000;17.06667
 462.67;  -12.800;  -11.400;    0.000;-1.40000
 462.96;  -10.733;  -35.867;    0.000;25.13333
 463.24;  -14.400;   -1.733;    0.000;-12.66667
 463.53;    0.200;   -9.333;    0.000; 9.53333
 463.82;  -11.400;  -32.400;    0.000;21.00000
 464.11;  -37.400;  -17.400;    0.000;-20.00000
 464.40;  -19.200;  -25.933;    0.000; 6.73333
 464.68;  -23.333;  -30.267;    0.000; 6.93333
 464.97;   -4.400;  -20.000;    0.000;15.60000
 465.26;  -14.867;  -19.600;    0.000; 4.73333
 465.55;   -8.867;   -7.600;    0.000;-1.26667
 465.83;  -12.600;  -34.933;    0.000;22.33333
 466.12;  -25.467;  -31.400;    0.000; 5.93333
 466.41;    9.467;  -32.933;    0.000;42.40000
 466.70;  -17.800;  -36.000;    0.000;18.20000
 466.98;  -36.533;  -15.867;    0.000;-20.66667
 467.27;    1.733;   -6.467;    0.000; 8.20000
 467.56;   -5.667;  -19.733;    0.000;14.06667
 467.85;   -0.467;  -10.267;    0.000; 9.80000
 468.13;   -4.067;  -31.933;    0.000;27.86667
 468.42;  -37.467;   -2.200;    0.000;-35.26667
 468.71;  -11.400;  -19.600;    0.000; 8.20000
 468.99;  -12.400;  -30.600;    0.000;18.20000
 469.28;  -12.600;  -31.333;    0.000;18.73333
 469.57;  -19.000;  -22.067;    0.000; 3.06667
 469.86;   -6.667;   -7.733;    0.000; 1.06667
 470.14;  -14.267;  -28.533;    0.000;14.26667
 470.43;    3.333;  -15.200;    0.000;18.53333
 470.72;  -34.733;  -20.733;    0.000;-14.00000
 471.00;  -12.667;  -30.200;    0.000;17.53333
 471.29;    9.533;  -11.267;    0.000;20.80000
 471.58;    8.133;   -9.733;    0.000;17.86667
 471.87;  -17.267;  -10.800;    0.000;-6.46667
 472.15;  -29.333;  -20.600;    0.000;-8.73333
 472.44;   -5.800;   -9.667;    0.000; 3.86667
 472.73;  -30.000;  -17.267;    0.000;-12.73333
 473.01;  -16.933;  -10.133;    0.000;-6.80000
 473.30;  -11.667;  -23.200;    0.000;11.53333
 473.59;   -8.933;  -34.867;    0.000;25.93333
 473.87;  -17.933;  -32.067;    0.000;14.13333
 474.16;  -19.000;  -33.067;    0.000;14.06667
 474.45;  -18.400;  -29.400;    0.000;11.00000
 474.74;  -47.000;  -32.333;    0.000;-14.66667
 475.02;  -14.867;  -28.600;    0.000;13.73333
 475.31;  -13.133;  -19.733;    0.000; 6.60000
 475.60;   -9.067;   -1.867;    0.000;-7.20000
 475.88;    4.667;  -18.067;    0.000;22.73333
 476.17;   -1.533;  -14.800;    0.000;13.26667
 476.46;  -16.867;  -30.267;    0.000;13.40000
 476.74;  -29.333;  -31.333;    0.000; 2.00000
 477.03;  -13.800;  -32.333;    0.000;18.53333
 477.32;    4.733;  -22.800;    0.000;27.53333
 477.60;   -4.200;  -23.933;    0.000;19.73333
 477.89;    5.200;  -16.267;    0.000;21.46667
 478.18;   -8.333;  -25.667;    0.000;17.33333
 478.46;  -11.333;  -22.200;    0.000;10.86667
 478.75;  -19.000;  -21.667;    0.000; 2.66667
 479.03;  -17.067;  -35.333;    0.000;18.26666
 479.32;   -4.400;   -5.800;    0.000; 1.40000
 479.61;  -18.867;  -18.133;    0.000;-0.73333
 479.89;    7.200;  -50.133;    0.000;57.33333
 480.18;  -13.600;  -32.533;    0.000;18.93333
 480.47;   -5.200;  -22.933;    0.000;17.73333
 480.75;    0.600;  -25.800;    0.000;26.40000
 481.04;   -8.267;  -15.867;    0.000; 7.60000
 481.33;    6.067;  -23.733;    0.000;29.80000
 481.61;   -2.867;  -23.800;    0.000;20.93333
 481.90;  -12.667;  -32.267;    0.000;19.60000
 482.18;    4.200;    8.400;    0.000;-4.20000
 482.47;   -2.600;  -15.400;    0.000;12.80000
 482.76;   13.533;  -31.333;    0.000;44.86667
 483.04;  -18.867;  -28.267;    0.000; 9.40000
 483.33;   12.533;  -37.133;    0.000;49.66667
 483.61;    8.200;   -7.667;    0.000;15.86667
 483.90;   29.933;  -16.600;    0.000;46.53333
 484.19;  -18.000;  -36.533;    0.000;18.53333
 484.47;   31.333;  -32.067;    0.000;63.40000
 484.76;   16.400;  -45.267;    0.000;61.66667
 485.05;   36.733;  -18.467;    0.000;55.20000
 485.33;   41.067;  -24.933;    0.000;66.00000
 485.62;   28.400;  -27.600;    0.000;56.00000
 485.90;   56.733;  -20.667;    0.000;77.40000
 486.19;   66.267;  -22.000;    0.000;88.26667
 486.47;   65.800;  -14.933;    0.000;80.73334
 486.76;   56.867;  -24.933;    0.000;81.80000
 487.05;   93.867;   -3.200;    0.000;97.06667
 487.33;   93.467;   -4.667;    0.000;98.13333
 487.62;  109.333;  -40.867;    0.000;150.20000
 487.90;  110.667;  -32.667;    0.000;143.33333
 488.19;  152.867;   -9.933;    0.000;162.80000
 488.47;  143.867;  -17.733;    0.000;161.60000
 488.76;  135.800;  -21.267;    0.000;157.06667
 489.05;  208.200;  -18.533;    0.000;226.73333
 489.33;  201.267;  -33.533;    0.000;234.80000
 489.62;  214.867;  -28.400;    0.000;243.26667
 489.90;  222.867;  -44.400;    0.000;267.26667
 490.19;  256.133;  -20.867;    0.000;277.00000
 490.47;  282.733;  -26.133;    0.000;308.86667
 490.76;  299.667;  -18.933;    0.000;318.59999
 491.05;  321.333;  -17.000;    0.000;338.33334
 491.33;  377.533;  -16.467;    0.000;393.99999
 491.62;  377.533;  -31.067;    0.000;408.59999
 491.90;  396.400;  -26.733;    0.000;423.13333
 492.19;  440.067;  -17.333;    0.000;457.40001
 492.47;  447.067;  -28.133;    0.000;475.20001
 492.76;  479.200;  -37.667;    0.000;516.86668
 493.04;  562.533;  -12.933;    0.000;575.46666
 493.33;  573.000;  -37.667;    0.000;610.66667
 493.61;  629.133;  -24.133;    0.000;653.26670
 493.90;  640.133;  -26.533;    0.000;666.66669
 494.18;  704.133;    3.467;    0.000;700.66670
 494.47;  718.133;   -8.000;    0.000;726.13336
 494.75;  762.000;  -29.667;    0.000;791.66667
 495.04;  808.267;  -43.067;    0.000;851.33333
 495.32;  856.667;  -17.400;    0.000;874.06669
 495.61;  881.467;  -35.467;    0.000;916.93334
 495.89;  950.267;  -34.733;    0.000;985.00000
 496.18;  994.867;  -32.600;    0.000;1027.46664
 496.46; 1038.067;  -32.400;    0.000;1070.46665
 496.75; 1065.267;  -29.933;    0.000;1095.20006
 497.03; 1156.533;  -26.667;    0.000;1183.19999
 497.32; 1200.200;  -15.000;    0.000;1215.19995
 497.60; 1263.600;  -22.467;    0.000;1286.06664
 497.89; 1333.267;  -17.533;    0.000;1350.80006
 498.17; 1425.600;  -24.800;    0.000;1450.39997
 498.46; 1437.933;  -48.133;    0.000;1486.06668
 498.74; 1501.400;   -5.200;    0.000;1506.60002
 499.03; 1507.533;  -17.000;    0.000;1524.53333
 499.31; 1644.333;  -20.400;    0.000;1664.73337
 499.60; 1706.133;  -14.667;    0.000;1720.79997
 499.88; 1800.867;    9.933;    0.000;1790.93337
 500.17; 1851.400;  -35.267;    0.000;1886.66669
 500.45; 1879.133;  -20.600;    0.000;1899.73330
 500.74; 1991.333;  -31.000;    0.000;2022.33337
 501.02; 2038.267;  -37.267;    0.000;2075.53339
 501.31; 2133.000;  -32.600;    0.000;2165.60000
 501.59; 2184.933;  -35.533;    0.000;2220.46668
 501.88; 2307.667;  -27.200;    0.000;2334.86675
 502.16; 2344.400;  -20.733;    0.000;2365.13324
 502.45; 2360.000;  -19.667;    0.000;2379.66667
 502.73; 2462.067;  -10.000;    0.000;2472.06665
 503.01; 2533.067;  -29.133;    0.000;2562.19998
 503.30; 2558.333;  -48.200;    0.000;2606.53325
 503.58; 2692.067;  -34.133;    0.000;2726.19999
 503.87; 2787.933;  -23.333;    0.000;2811.26668
 504.15; 2851.200;  -31.200;    0.000;2882.39995
 504.44; 2964.733;  -12.333;    0.000;2977.06673
 504.72; 3055.733;   -0.267;    0.000;3056.00007
 505.00; 3148.800;  -18.200;    0.000;3167.00005
 505.29; 3232.533;  -24.533;    0.000;3257.06678
 505.57; 3287.600;  -18.400;    0.000;3306.00010
 505.86; 3364.400;  -30.200;    0.000;3394.59990
 506.14; 3437.067;  -42.933;    0.000;3479.99998
 506.43; 3521.267;  -12.800;    0.000;3534.06660
 506.71; 3632.467;  -41.267;    0.000;3673.73322
 506.99; 3680.933;  -35.133;    0.000;3716.06668
 507.28; 3844.333;  -11.467;    0.000;3855.79992
 507.56; 3844.067;  -17.667;    0.000;3861.73332
 507.85; 3946.667;  -14.667;    0.000;3961.33342
 508.13; 4011.600;  -27.200;    0.000;4038.80010
 508.41; 4148.733;   22.933;    0.000;4125.80007
 508.70; 4205.267;   -9.000;    0.000;4214.26660
 508.98; 4260.933;  -16.800;    0.000;4277.73310
 509.27; 4337.267;  -26.867;    0.000;4364.13327
 509.55; 4449.133;  -10.533;    0.000;4459.66663
 509.83; 4494.200;  -46.200;    0.000;4540.40020
 510.12; 4584.067;  -30.200;    0.000;4614.26690
 510.40; 4660.400;   -9.733;    0.000;4670.13324
 510.69; 4703.333;  -31.000;    0.000;4734.33350
 510.97; 4859.333;  -16.867;    0.000;4876.20016
 511.25; 4892.133;  -24.067;    0.000;4916.19997
 511.54; 5014.133;  -24.933;    0.000;5039.06663
 511.82; 5092.667;    1.067;    0.000;5091.59984
 512.11; 5104.200;  -21.000;    0.000;5125.20020
 512.39; 5221.467;  -21.200;    0.000;5242.66680
 512.67; 5314.000;   -6.200;    0.000;5320.20000
 512.96; 5429.133;  -37.733;    0.000;5466.86663
 513.24; 5442.467;  -26.800;    0.000;5469.26680
 513.52; 5541.067;   -2.933;    0.000;5544.00023
 513.81; 5627.533;   -4.600;    0.000;5632.13320
 514.09; 5639.600;  -21.400;    0.000;5661.00010
 514.37; 5744.000;  -10.600;    0.000;5754.60000
 514.66; 5728.400;   -7.800;    0.000;5736.19990
 514.94; 5875.333;  -32.133;    0.000;5907.46683
 515.22; 5944.667;  -20.000;    0.000;5964.66650
 515.51; 5965.800;  -29.600;    0.000;5995.39981
 515.79; 6173.733;  -25.267;    0.000;6199.00006
 516.07; 6165.467;  -25.867;    0.000;6191.33346
 516.36; 6258.000;  -37.067;    0.000;6295.06667
 516.64; 6282.533;  -34.600;    0.000;6317.13320
 516.92; 6350.200;  -23.733;    0.000;6373.93353
 517.21; 6423.867;  -28.067;    0.000;6451.93337
 517.49; 6613.733;  -31.800;    0.000;6645.53340
 517.77; 6630.600;   -5.200;    0.000;6635.80010
 518.06; 6762.533;  -25.933;    0.000;6788.46654
 518.34; 6805.333;  -33.800;    0.000;6839.13350
 518.62; 6935.867;   -4.533;    0.000;6940.40003
 518.91; 7092.200;  131.467;    0.000;6960.73354
 519.19; 7008.533;  -11.800;    0.000;7020.33320
 519.47; 6984.933;   -7.133;    0.000;6992.06644
 519.76; 7121.333;   -5.533;    0.000;7126.86683
 520.04; 7213.400;   -8.933;    0.000;7222.33324
 520.32; 7286.067;  -10.600;    0.000;7296.66689
 520.61; 7386.600;   10.667;    0.000;7375.93343
 520.89; 7338.733;  -14.000;    0.000;7352.73340
 521.17; 7407.400;  -29.867;    0.000;7437.26657
 521.45; 7489.200;  -16.067;    0.000;7505.26686
 521.74; 7531.200;  -17.200;    0.000;7548.40020
 522.02; 7640.933;  -21.267;    0.000;7662.19977
 522.30; 7671.667;  -20.200;    0.000;7691.86650
 522.59; 7710.200;    6.267;    0.000;7703.93353
 522.87; 7843.800;    3.800;    0.000;7839.99980
 523.15; 7836.733;    3.067;    0.000;7833.66673
 523.43; 7851.400;  -39.333;    0.000;7890.73323
 523.72; 7967.867;  -22.933;    0.000;7990.80003
 524.00; 8013.133;  -22.333;    0.000;8035.46663
 524.28; 8034.000;  -22.133;    0.000;8056.13333
 524.57; 8118.067;  -14.867;    0.000;8132.93356
 524.85; 8111.400;  -26.000;    0.000;8137.39990
 525.13; 8281.733;  -16.000;    0.000;8297.73340
 525.41; 8303.200;  -26.933;    0.000;8330.13353
 525.70; 8397.934;  -41.200;    0.000;8439.13359
 525.98; 8365.267;  -18.467;    0.000;8383.73327
 526.26; 8334.800;  -24.667;    0.000;8359.46647
 526.54; 8538.866;  -19.867;    0.000;8558.73288
 526.83; 8493.600;  -19.600;    0.000;8513.19961
 527.11; 8692.000;   -3.067;    0.000;8695.06667
 527.39; 8622.200;   -9.200;    0.000;8631.40020
 527.67; 8735.400;  -15.000;    0.000;8750.40039
 527.96; 8653.467;  -16.600;    0.000;8670.06680
 528.24; 8830.866;  -30.867;    0.000;8861.73288
 528.52; 8804.267;  -16.733;    0.000;8820.99994
 528.80; 8858.066;   10.400;    0.000;8847.66641
 529.08; 8897.600;  -21.133;    0.000;8918.73294
 529.37; 9056.267;  -23.667;    0.000;9079.93327
 529.65; 8989.134;   -2.867;    0.000;8992.00046
 529.93; 9095.533;   -7.800;    0.000;9103.33320
 530.21; 9057.134;  -29.867;    0.000;9087.00046
 530.50; 9135.267;  -12.267;    0.000;9147.53327
 530.78; 9193.333;  -23.333;    0.000;9216.66634
 531.06; 9237.467;  -24.200;    0.000;9261.66680
 531.34; 9312.200;  -18.733;    0.000;9330.93353
 531.62; 9329.800;  -22.333;    0.000;9352.13314
 531.91; 9320.866;  -32.067;    0.000;9352.93288
 532.19; 9374.333;  -24.467;    0.000;9398.79967
 532.47; 9403.800;  -14.600;    0.000;9418.39981
 532.75; 9538.400;   -7.733;    0.000;9546.13372
 533.03; 9523.467;   13.200;    0.000;9510.26680
 533.32; 9532.267;   -6.533;    0.000;9538.79993
 533.60; 9520.333;   -6.333;    0.000;9526.66634
 533.88; 9638.333;   10.867;    0.000;9627.46634
 534.16; 9681.800;  -34.533;    0.000;9716.33314
 534.44; 9831.066;    5.133;    0.000;9825.93307
 534.72; 9741.200;  -28.333;    0.000;9769.53353
 535.01; 9705.400;  -34.333;    0.000;9739.73372
 535.29; 9898.934;  -26.867;    0.000;9925.80026
 535.57; 9816.533;  -25.333;    0.000;9841.86654
 535.85; 9912.467;  -21.200;    0.000;9933.66680
 536.13; 9923.267;  -14.533;    0.000;9937.79994
 536.42; 9826.934;  -26.133;    0.000;9853.06693
 536.70;10055.467;  -21.267;    0.000;10076.73346
 536.98;10009.200;  -12.400;    0.000;10021.60019
 537.26;10037.000;  -10.067;    0.000;10047.06667
 537.54;10120.066;  -10.533;    0.000;10130.59974
 537.82;10098.066;    3.800;    0.000;10094.26641
 538.10;10168.134;  -15.667;    0.000;10183.80046
 538.39;10165.066;   -7.867;    0.000;10172.93307
 538.67;10217.267;   -9.667;    0.000;10226.93327
 538.95;10198.467;  -27.000;    0.000;10225.46680
 539.23;10259.866;  -35.600;    0.000;10295.46621
 539.51;10396.733;   -9.933;    0.000;10406.66673
 539.79;10368.934;  -34.533;    0.000;10403.46693
 540.07;10389.400;  -43.267;    0.000;10432.66706
 540.36;10357.600;  -42.867;    0.000;10400.46627
 540.64;10377.400;  -23.600;    0.000;10401.00039
 540.92;10392.267;  -21.667;    0.000;10413.93327
 541.20;10527.733;  -11.133;    0.000;10538.86673
 541.48;10575.533;    0.200;    0.000;10575.33320
 541.76;10490.000;  -12.067;    0.000;10502.06667
 542.04;10508.066;  -18.400;    0.000;10526.46641
 542.32;10531.667;  -27.000;    0.000;10558.66699
 542.61;10600.467;  -18.600;    0.000;10619.06680
 542.89;10588.200;    0.067;    0.000;10588.13353
 543.17;10724.000;  -37.133;    0.000;10761.13334
 543.45;10681.667;  -35.000;    0.000;10716.66699
 543.73;10715.333;  -23.467;    0.000;10738.79967
 544.01;10735.934;  -11.000;    0.000;10746.93359
 544.29;10615.066;  -20.733;    0.000;10635.79974
 544.57;10716.200;  -25.600;    0.000;10741.80020
 544.85;10674.467;  -20.733;    0.000;10695.20013
 545.13;10864.866;   -7.733;    0.000;10872.59954
 545.42;10975.934;   -8.600;    0.000;10984.53359
 545.70;10896.000;  -10.667;    0.000;10906.66667
 545.98;10860.667;  -30.667;    0.000;10891.33366
 546.26;10915.800;    2.867;    0.000;10912.93314
 546.54;10933.200;  -23.667;    0.000;10956.86686
 546.82;10910.467;  -17.600;    0.000;10928.06680
 547.10;11014.667;    5.533;    0.000;11009.13366
 547.38;10818.934;  -20.267;    0.000;10839.20026
 547.66;10859.667;  -15.600;    0.000;10875.26699
 547.94;10933.200;  -31.333;    0.000;10964.53353
 548.22;11009.333;  -27.600;    0.000;11036.93301
 548.50;11025.066;  -28.400;    0.000;11053.46641
 548.78;10994.667;  -19.533;    0.000;11014.20033
 549.06;11022.934;  -10.200;    0.000;11033.13359
 549.34;10933.866;  -26.867;    0.000;10960.73288
 549.63;10941.200;   17.867;    0.000;10923.33353
 549.91;10896.934;   -6.400;    0.000;10903.33359
 550.19;11038.866;  -18.400;    0.000;11057.26621
 550.47;11088.134;  -19.800;    0.000;11107.93379
 550.75;11030.200;  -22.800;    0.000;11053.00019
 551.03;11061.000;  -26.067;    0.000;11087.06667
 551.31;11079.667;   -8.600;    0.000;11088.26699
 551.59;11157.134;  -15.200;    0.000;11172.33379
 551.87;11119.800;   -8.333;    0.000;11128.13314
 552.15;11036.000;  -31.267;    0.000;11067.26667
 552.43;11200.000;   -4.533;    0.000;11204.53333
 552.71;11071.800;  -23.467;    0.000;11095.26647
 552.99;11114.600;  -20.533;    0.000;11135.13294
 553.27;11098.000;  -33.800;    0.000;11131.80000
 553.55;11089.200;  -17.667;    0.000;11106.86686
 553.83;11201.267;  -31.533;    0.000;11232.79993
 554.11;11204.667;  -13.267;    0.000;11217.93366
 554.39;11138.733;   -4.333;    0.000;11143.06673
 554.67;11131.267;  -21.467;    0.000;11152.73327
 554.95;11138.733;    6.667;    0.000;11132.06673
 555.23;11028.000;    3.533;    0.000;11024.46667
 555.51;11048.733;  -33.867;    0.000;11082.60006
 555.79;11087.200;  -16.067;    0.000;11103.26686
 556.07;11176.600;  -17.467;    0.000;11194.06628
 556.35;11107.000;  -18.600;    0.000;11125.60000
 556.63;11036.200;  -16.667;    0.000;11052.86686
 556.91;11075.134;   -5.867;    0.000;11081.00046
 557.19;11030.066;  -13.600;    0.000;11043.66641
 557.47;11051.134;   -8.267;    0.000;11059.40046
 557.75;11070.600;  -27.267;    0.000;11097.86628
 558.03;11029.733;    5.200;    0.000;11024.53340
 558.31;11147.200;  -33.533;    0.000;11180.73353
 558.59;11207.800;  -18.267;    0.000;11226.06647
 558.87;11078.467;  -21.467;    0.000;11099.93346
 559.15;11131.800;  -29.133;    0.000;11160.93314
 559.43;11049.533;   -9.467;    0.000;11058.99987
 559.71;11031.800;   -1.267;    0.000;11033.06647
 559.99;11092.066;  -21.067;    0.000;11113.13307
 560.27;11110.267;   -9.467;    0.000;11119.73327
 560.55;10992.800;   -7.400;    0.000;11000.19980
 560.82;11024.667;  -30.733;    0.000;11055.40033
 561.10;10993.733;  -22.667;    0.000;11016.40006
 561.38;10996.600;    3.733;    0.000;10992.86628
 561.66;11015.000;  -16.200;    0.000;11031.20000
 561.94;11032.333;  -25.267;    0.000;11057.59967
 562.22;10896.934;  -14.267;    0.000;10911.20026
 562.50;10972.267;   -4.733;    0.000;10976.99993
 562.78;10901.733;  -19.333;    0.000;10921.06673
 563.06;10899.066;  -12.400;    0.000;10911.46641
 563.34;11046.600;  -24.133;    0.000;11070.73294
 563.62;10870.800;   -9.867;    0.000;10880.66647
 563.90;10834.333;  -31.467;    0.000;10865.79967
 564.18;10846.200;  -19.867;    0.000;10866.06686
 564.46;10832.667;  -11.600;    0.000;10844.26699
 564.74;10791.333;  -16.467;    0.000;10807.79967
 565.01;10813.467;  -22.467;    0.000;10835.93346
 565.29;10832.066;   -8.933;    0.000;10840.99974
 565.57;10686.333;  -23.000;    0.000;10709.33301
 565.85;10776.533;   -3.267;    0.000;10779.79987
 566.13;10713.134;  -16.533;    0.000;10729.66712
 566.41;10724.200;   23.600;    0.000;10700.60019
 566.69;10658.400;  -21.133;    0.000;10679.53372
 566.97;10727.934;  -13.267;    0.000;10741.20026
 567.25;10598.066;   -6.867;    0.000;10604.93307
 567.53;10591.533;  -28.867;    0.000;10620.39987
 567.80;10705.200;   -2.600;    0.000;10707.80020
 568.08;10548.866;   -7.267;    0.000;10556.13288
 568.36;10516.000;  -24.600;    0.000;10540.60000
 568.64;10506.333;  -19.067;    0.000;10525.39968
 568.92;10581.467;    1.467;    0.000;10580.00013
 569.20;10377.600;  -12.667;    0.000;10390.26628
 569.48;10426.400;  -29.467;    0.000;10455.86706
 569.76;10410.667;  -36.933;    0.000;10447.60033
 570.03;10361.333;  -11.400;    0.000;10372.73301
 570.31;10220.267;   -9.600;    0.000;10229.86660
 570.59;10382.866;  -14.600;    0.000;10397.46621
 570.87;10238.467;  -11.267;    0.000;10249.73346
 571.15;10336.533;  -39.867;    0.000;10376.39987
 571.43;10292.467;  -28.933;    0.000;10321.40013
 571.71;10168.533;  -31.267;    0.000;10199.79987
 571.98;10196.800;  -11.600;    0.000;10208.39981
 572.26;10260.200;  -15.267;    0.000;10275.46686
 572.54;10176.934;  -12.333;    0.000;10189.26693
 572.82;10071.400;  -26.200;    0.000;10097.60039
 573.10;10106.267;   -9.933;    0.000;10116.19993
 573.38;10063.667;  -22.800;    0.000;10086.46699
 573.66;10013.533;  -18.133;    0.000;10031.66654
 573.93;10028.667;   -3.800;    0.000;10032.46699
 574.21; 9920.533;  -28.933;    0.000;9949.46654
 574.49; 9961.066;  -27.933;    0.000;9988.99974
 574.77; 9959.800;   -7.667;    0.000;9967.46647
 575.05; 9905.066;  -19.067;    0.000;9924.13307
 575.33; 9896.000;  -24.600;    0.000;9920.60000
 575.60; 9888.400;  -31.400;    0.000;9919.80039
 575.88; 9837.866;  -17.467;    0.000;9855.33288
 576.16; 9724.467;  -16.000;    0.000;9740.46680
 576.44; 9693.333;   -9.867;    0.000;9703.19967
 576.72; 9640.134;   -9.067;    0.000;9649.20046
 576.99; 9628.733;  -19.867;    0.000;9648.60007
 577.27; 9641.000;  -11.400;    0.000;9652.40000
 577.55; 9582.800;    2.200;    0.000;9580.59980
 577.83; 9582.934;  -25.000;    0.000;9607.93359
 578.11; 9494.267;   -3.200;    0.000;9497.46660
 578.38; 9369.533;  -26.133;    0.000;9395.66654
 578.66; 9401.467;  -26.667;    0.000;9428.13346
 578.94; 9442.800;  -41.867;    0.000;9484.66647
 579.22; 9375.134;  -27.600;    0.000;9402.73379
 579.50; 9227.866;    2.933;    0.000;9224.93288
 579.77; 9281.467;  -10.067;    0.000;9291.53346
 580.05; 9201.267;  -32.733;    0.000;9233.99994
 580.33; 9164.333;  -14.533;    0.000;9178.86634
 580.61; 9070.533;  -30.000;    0.000;9100.53320
 580.88; 9120.333;  -11.733;    0.000;9132.06634
 581.16; 9030.333;  -38.867;    0.000;9069.19967
 581.44; 9095.200;  -13.200;    0.000;9108.40020
 581.72; 9019.467;  -11.933;    0.000;9031.40013
 581.99; 8946.800;   -4.933;    0.000;8951.73314
 582.27; 8984.533;  -23.467;    0.000;9007.99987
 582.55; 8890.267;  -32.733;    0.000;8922.99994
 582.83; 8822.866;  -15.933;    0.000;8838.79954
 583.10; 8794.533;   -8.533;    0.000;8803.06654
 583.38; 8789.866;  -26.933;    0.000;8816.79954
 583.66; 8740.000;   -3.267;    0.000;8743.26667
 583.94; 8643.866;  -33.467;    0.000;8677.33288
 584.21; 8480.066;  -18.600;    0.000;8498.66641
 584.49; 8570.000;  -28.400;    0.000;8598.40000
 584.77; 8504.934;  -38.067;    0.000;8543.00026
 585.05; 8535.934;  -15.800;    0.000;8551.73359
 585.32; 8495.333;  -10.533;    0.000;8505.86634
 585.60; 8293.000;  -19.933;    0.000;8312.93333
 585.88; 8402.934;  -19.133;    0.000;8422.06693
 586.16; 8240.066;  -11.733;    0.000;8251.79974
 586.43; 8259.267;   -0.667;    0.000;8259.93327
 586.71; 8190.733;   -6.667;    0.000;8197.40006
 586.99; 8132.533;  -38.867;    0.000;8171.39987
 587.26; 8093.533;  -30.933;    0.000;8124.46654
 587.54; 8151.733;  -17.600;    0.000;8169.33340
 587.82; 8054.800;  -16.000;    0.000;8070.79980
 588.10; 8047.267;  -28.200;    0.000;8075.46660
 588.37; 7976.067;  -31.533;    0.000;8007.60023
 588.65; 7897.867;  -32.933;    0.000;7930.80003
 588.93; 7778.667;  -31.200;    0.000;7809.86650
 589.20; 7833.600;   -5.200;    0.000;7838.80010
 589.48; 7843.000;  -14.000;    0.000;7857.00000
 589.76; 7787.933;    9.733;    0.000;7778.19977
 590.03; 7745.800;   -8.467;    0.000;7754.26647
 590.31; 7716.867;  -14.333;    0.000;7731.20003
 590.59; 7630.600;  -10.933;    0.000;7641.53343
 590.86; 7507.067;  -23.533;    0.000;7530.60023
 591.14; 7526.467;  -40.867;    0.000;7567.33346
 591.42; 7418.533;  -25.467;    0.000;7443.99987
 591.70; 7439.067;   -2.467;    0.000;7441.53356
 591.97; 7388.733;  -32.800;    0.000;7421.53340
 592.25; 7361.067;  -21.400;    0.000;7382.46689
 592.53; 7231.467;  -12.200;    0.000;7243.66680
 592.80; 7207.867;  -42.000;    0.000;7249.86670
 593.08; 7184.467;   -9.667;    0.000;7194.13346
 593.36; 7201.800;    6.733;    0.000;7195.06647
 593.63; 7129.133;  -14.400;    0.000;7143.53330
 593.91; 7028.733;  -26.400;    0.000;7055.13340
 594.18; 6937.600;   -4.600;    0.000;6942.20010
 594.46; 6895.333;  -35.333;    0.000;6930.66683
 594.74; 6889.733;  -15.733;    0.000;6905.46673
 595.01; 6884.400;  -53.600;    0.000;6937.99990
 595.29; 6790.600;  -34.467;    0.000;6825.06676
 595.57; 6798.267;  -22.200;    0.000;6820.46660
 595.84; 6624.467;  -28.800;    0.000;6653.26680
 596.12; 6601.467;  -32.533;    0.000;6634.00013
 596.40; 6597.067;  -21.667;    0.000;6618.73356
 596.67; 6517.800;  -44.867;    0.000;6562.66647
 596.95; 6458.067;  -26.267;    0.000;6484.33356
 597.22; 6431.667;  -16.333;    0.000;6447.99984
 597.50; 6445.400;    2.800;    0.000;6442.59990
 597.78; 6363.933;  -19.133;    0.000;6383.06644
 598.05; 6302.267;  -25.933;    0.000;6328.19993
 598.33; 6251.533;  -38.000;    0.000;6289.53320
 598.61; 6300.800;  -25.867;    0.000;6326.66647
 598.88; 6153.733;  -26.067;    0.000;6179.80007
 599.16; 6163.267;  -17.067;    0.000;6180.33327
 599.43; 6121.733;  -42.200;    0.000;6163.93340
 599.71; 6041.400;  -23.067;    0.000;6064.46657
 599.99; 6000.867;  -28.533;    0.000;6029.40003
 600.26; 5945.000;  -30.933;    0.000;5975.93333
 600.54; 5972.400;  -12.867;    0.000;5985.26657
 600.81; 5918.467;  -10.800;    0.000;5929.26680
 601.09; 5829.667;  -35.067;    0.000;5864.73317
 601.36; 5786.600;  -22.067;    0.000;5808.66677
 601.64; 5789.933;   -9.333;    0.000;5799.26644
 601.92; 5736.867;  -14.667;    0.000;5751.53337
 602.19; 5681.867;  -31.867;    0.000;5713.73337
 602.47; 5541.600;  -30.667;    0.000;5572.26676
 602.74; 5546.867;  -13.067;    0.000;5559.93337
 603.02; 5615.400;  -37.067;    0.000;5652.46657
 603.29; 5534.000;  -30.733;    0.000;5564.73333
 603.57; 5403.200;  -23.133;    0.000;5426.33353
 603.85; 5397.133;  -32.000;    0.000;5429.13330
 604.12; 5449.533;   12.267;    0.000;5437.26654
 604.40; 5423.000;  -32.467;    0.000;5455.46667
 604.67; 5297.133;  -32.733;    0.000;5329.86663
 604.95; 5312.867;  -37.800;    0.000;5350.66670
 605.22; 5282.667;  -13.067;    0.000;5295.73317
 605.50; 5224.733;  -20.933;    0.000;5245.66673
 605.77; 5126.600;  -10.867;    0.000;5137.46676
 606.05; 5144.067;  -34.067;    0.000;5178.13356
 606.33; 5122.067;  -12.467;    0.000;5134.53356
 606.60; 5075.867;  -31.200;    0.000;5107.06670
 606.88; 5035.200;   -4.400;    0.000;5039.60020
 607.15; 5063.000;  -16.867;    0.000;5079.86667
 607.43; 4993.400;  -17.733;    0.000;5011.13324
 607.70; 4924.333;  -21.933;    0.000;4946.26683
 607.98; 4877.600;  -51.333;    0.000;4928.93343
 608.25; 4826.267;  -33.467;    0.000;4859.73327
 608.53; 4848.067;  -39.867;    0.000;4887.93356
 608.80; 4768.067;  -48.867;    0.000;4816.93356
 609.08; 4791.667;  -22.400;    0.000;4814.06650
 609.35; 4832.467;  -35.600;    0.000;4868.06680
 609.63; 4697.533;  -30.067;    0.000;4727.59987
 609.90; 4726.467;  -28.067;    0.000;4754.53346
 610.18; 4722.867;  -21.000;    0.000;4743.86670
 610.45; 4679.467;  -37.133;    0.000;4716.60013
 610.73; 4646.267;  -21.000;    0.000;4667.26660
 611.00; 4611.667;  -12.000;    0.000;4623.66650
 611.28; 4589.533;  -45.267;    0.000;4634.79987
 611.55; 4508.067;  -54.667;    0.000;4562.73356
 611.83; 4496.400;  -43.200;    0.000;4539.59990
 612.10; 4500.400;  -31.600;    0.000;4531.99990
 612.38; 4471.733;  -38.067;    0.000;4509.80006
 612.65; 4409.067;  -35.200;    0.000;4444.26690
 612.93; 4404.867;  -49.933;    0.000;4454.80003
 613.20; 4360.333;  -27.667;    0.000;4388.00016
 613.48; 4435.400;  -43.733;    0.000;4479.13324
 613.75; 4328.667;  -45.867;    0.000;4374.53317
 614.03; 4284.467;   -9.400;    0.000;4293.86680
 614.30; 4293.733;  -31.933;    0.000;4325.66673
 614.57; 4228.000;  -55.267;    0.000;4283.26667
 614.85; 4230.933;  -18.400;    0.000;4249.33311
 615.12; 4217.400;  -46.400;    0.000;4263.79990
 615.40; 4205.267;  -57.000;    0.000;4262.26660
 615.67; 4132.933;  -36.000;    0.000;4168.93311
 615.95; 4131.133;  -34.800;    0.000;4165.93330
 616.22; 4124.400;  -28.867;    0.000;4153.26657
 616.50; 4149.867;  -28.733;    0.000;4178.60003
 616.77; 4002.467;  -40.000;    0.000;4042.46655
 617.05; 4062.867;  -19.733;    0.000;4082.60003
 617.32; 4008.867;  -42.933;    0.000;4051.80003
 617.59; 3890.933;  -43.067;    0.000;3934.00002
 617.87; 3874.200;  -16.533;    0.000;3890.73328
 618.14; 3895.333;  -36.400;    0.000;3931.73325
 618.42; 3890.067;  -50.600;    0.000;3940.66665
 618.69; 3811.133;  -54.467;    0.000;3865.59997
 618.97; 3766.733;  -42.067;    0.000;3808.80006
 619.24; 3783.333;  -37.267;    0.000;3820.59992
 619.51; 3638.333;  -30.667;    0.000;3668.99992
 619.79; 3692.933;  -36.667;    0.000;3729.60002
 620.06; 3605.467;  -28.400;    0.000;3633.86655
 620.34; 3467.467;  -38.267;    0.000;3505.73322
 620.61; 3558.533;  -43.800;    0.000;3602.33345
 620.88; 3439.733;  -33.600;    0.000;3473.33340
 621.16; 3480.333;  -34.333;    0.000;3514.66658
 621.43; 3553.733;  -35.667;    0.000;3589.40007
 621.71; 3528.533;  -20.133;    0.000;3548.66678
 621.98; 3458.067;  -43.667;    0.000;3501.73332
 622.25; 3446.333;  -35.467;    0.000;3481.79992
 622.53; 3380.333;  -33.200;    0.000;3413.53325
 622.80; 3406.533;  -49.200;    0.000;3455.73345
 623.08; 3352.933;  -54.400;    0.000;3407.33335
 623.35; 3375.400;  -26.467;    0.000;3401.86657
 623.62; 3325.600;  -41.000;    0.000;3366.60010
 623.90; 3319.467;  -36.667;    0.000;3356.13322
 624.17; 3272.267;  -36.600;    0.000;3308.86660
 624.44; 3249.800;  -37.533;    0.000;3287.33338
 624.72; 3199.267;  -52.133;    0.000;3251.39994
 624.99; 3226.333;  -35.000;    0.000;3261.33325
 625.26; 3222.000;  -56.200;    0.000;3278.20000
 625.54; 3239.733;  -27.667;    0.000;3267.40006
 625.81; 3196.133;  -45.733;    0.000;3241.86663
 626.09; 3172.800;  -46.467;    0.000;3219.26672
 626.36; 3220.267;  -50.200;    0.000;3270.46660
 626.63; 3264.400;  -33.267;    0.000;3297.66657
 626.91; 3193.533;  -41.667;    0.000;3235.20012
 627.18; 3161.667;  -29.533;    0.000;3191.20008
 627.45; 3168.600;  -47.400;    0.000;3216.00010
 627.73; 3131.867;  -27.200;    0.000;3159.06670
 628.00; 3100.467;  -49.400;    0.000;3149.86655
 628.27; 3153.933;  -27.533;    0.000;3181.46668
 628.55; 3135.200;  -33.000;    0.000;3168.19995
 628.82; 3045.667;  -49.267;    0.000;3094.93341
 629.09; 3093.867;  -20.867;    0.000;3114.73337
 629.37; 3044.800;  -53.267;    0.000;3098.06672
 629.64; 3017.800;  -28.267;    0.000;3046.06672
 629.91; 3036.800;  -45.467;    0.000;3082.26672
 630.18; 3013.200;  -44.333;    0.000;3057.53328
 630.46; 3022.200;  -29.467;    0.000;3051.66662
 630.73; 3034.800;  -33.533;    0.000;3068.33338
 631.00; 3016.067;  -39.867;    0.000;3055.93332
 631.28; 2948.667;  -61.667;    0.000;3010.33342
 631.55; 2964.067;  -56.467;    0.000;3020.53332
 631.82; 2967.333;  -43.467;    0.000;3010.79992
 632.10; 2922.133;  -35.600;    0.000;2957.73330
 632.37; 2873.667;  -37.800;    0.000;2911.46675
 632.64; 2969.067;  -41.933;    0.000;3010.99998
 632.91; 2899.600;  -21.533;    0.000;2921.13343
 633.19; 2862.467;  -27.200;    0.000;2889.66655
 633.46; 2864.800;  -45.533;    0.000;2910.33338
 633.73; 2878.200;  -18.467;    0.000;2896.66662
 634.01; 2878.067;  -21.267;    0.000;2899.33332
 634.28; 2867.467;  -31.467;    0.000;2898.93322
 634.55; 2893.267;  -12.933;    0.000;2906.19993
 634.82; 2886.533;  -40.800;    0.000;2927.33345
 635.10; 2852.000;  -50.200;    0.000;2902.20000
 635.37; 2857.733;  -41.467;    0.000;2899.20007
 635.64; 2865.400;  -56.800;    0.000;2922.19990
 635.91; 2826.267;  -63.133;    0.000;2889.39994
 636.19; 2893.667;  -44.067;    0.000;2937.73341
 636.46; 2898.667;  -59.733;    0.000;2958.40008
 636.73; 2891.133;  -17.333;    0.000;2908.46663
 637.00; 2917.667;  -47.133;    0.000;2964.80008
 637.28; 2840.400;  -42.533;    0.000;2882.93324
 637.55; 2926.733;  -19.600;    0.000;2946.33340
 637.82; 2769.200;  -54.200;    0.000;2823.39995
 638.09; 2818.133;  -41.667;    0.000;2859.79997
 638.37; 2731.533;  -64.200;    0.000;2795.73344
 638.64; 2786.267;  -54.600;    0.000;2840.86660
 638.91; 2792.200;  -31.867;    0.000;2824.06662
 639.18; 2719.600;  -43.933;    0.000;2763.53343
 639.46; 2735.533;  -43.533;    0.000;2779.06678
 639.73; 2718.867;  -39.600;    0.000;2758.46670
 640.00; 2680.733;  -51.600;    0.000;2732.33340
 640.27; 2638.667;  -51.933;    0.000;2690.60008
 640.54; 2655.800;  -53.333;    0.000;2709.13338
 640.82; 2660.867;  -23.800;    0.000;2684.66670
 641.09; 2616.067;  -48.533;    0.000;2664.59998
 641.36; 2571.533;  -52.533;    0.000;2624.06678
 641.63; 2546.267;  -62.733;    0.000;2608.99994
 641.91; 2496.267;  -50.133;    0.000;2546.39994
 642.18; 2406.133;  -75.067;    0.000;2481.19997
 642.45; 2445.667;  -50.133;    0.000;2495.80008
 642.72; 2410.133;  -50.400;    0.000;2460.53330
 642.99; 2414.533;  -10.533;    0.000;2425.06678
 643.26; 2343.667;  -43.133;    0.000;2386.80008
 643.54; 2339.733;  -32.533;    0.000;2372.26673
 643.81; 2333.600;  -61.933;    0.000;2395.53343
 644.08; 2352.933;  -43.000;    0.000;2395.93335
 644.35; 2311.533;  -48.667;    0.000;2360.20012
 644.62; 2250.000;  -34.400;    0.000;2284.40000
 644.90; 2269.067;  -40.533;    0.000;2309.59998
 645.17; 2260.333;  -35.200;    0.000;2295.53325
 645.44; 2232.933;  -56.467;    0.000;2289.40002
 645.71; 2227.333;  -61.600;    0.000;2288.93325
 645.98; 2223.067;  -53.733;    0.000;2276.79998
 646.25; 2201.800;  -49.333;    0.000;2251.13338
 646.53; 2205.800;  -48.600;    0.000;2254.40005
 646.80; 2166.133;  -45.267;    0.000;2211.39997
 647.07; 2129.867;  -51.867;    0.000;2181.73336
 647.34; 2143.467;  -30.133;    0.000;2173.59989
 647.61; 2124.800;  -27.533;    0.000;2152.33338
 647.88; 2106.467;  -15.067;    0.000;2121.53322
 648.15; 2104.667;  -64.333;    0.000;2169.00008
 648.43; 2108.733;  -24.067;    0.000;2132.80007
 648.70; 2131.667;  -66.733;    0.000;2198.40008
 648.97; 2028.533;  -58.133;    0.000;2086.66666
 649.24; 2045.533;  -53.733;    0.000;2099.26666
 649.51; 2030.000;  -52.267;    0.000;2082.26667
 649.78; 1986.733;  -38.533;    0.000;2025.26661
 650.05; 2050.733;  -11.867;    0.000;2062.60007
 650.32; 2083.600;   15.800;    0.000;2067.80010
 650.60; 1966.933;  -46.733;    0.000;2013.66668
 650.87; 1988.867;  -44.000;    0.000;2032.86670
 651.14; 1913.600;  -48.933;    0.000;1962.53331
 651.41; 1969.933;  -47.333;    0.000;2017.26668
 651.68; 1932.400;  -53.200;    0.000;1985.60003
 651.95; 1904.667;  -38.733;    0.000;1943.39996
 652.22; 1916.200;  -43.133;    0.000;1959.33329
 652.49; 1869.733;  -53.867;    0.000;1923.59994
 652.76; 1903.200;  -46.200;    0.000;1949.39995
 653.03; 1895.867;  -64.867;    0.000;1960.73337
 653.31; 1869.400;  -35.133;    0.000;1904.53336
 653.58; 1868.200;  -57.267;    0.000;1925.46662
 653.85; 1829.400;  -50.800;    0.000;1880.20002
 654.12; 1855.000;  -57.600;    0.000;1912.60000
 654.39; 1834.067;  -25.333;    0.000;1859.39998
 654.66; 1793.267;  -42.533;    0.000;1835.80006
 654.93; 1798.933;   11.800;    0.000;1787.13335
 655.20; 1733.267;  -53.333;    0.000;1786.60006
 655.47; 1764.600;  -57.267;    0.000;1821.86664
 655.74; 1755.067;  -29.800;    0.000;1784.86665
 656.01; 1775.733;  -65.733;    0.000;1841.46661
 656.28; 1727.533;  -52.000;    0.000;1779.53333
 656.55; 1722.333;  -33.000;    0.000;1755.33337
 656.83; 1664.733;  -47.267;    0.000;1711.99994
 657.10; 1629.600;  -60.733;    0.000;1690.33331
 657.37; 1702.667;  -45.067;    0.000;1747.73329
 657.64; 1639.933;  -50.000;    0.000;1689.93335
 657.91; 1621.400;  -53.867;    0.000;1675.26669
 658.18; 1580.533;  -48.067;    0.000;1628.59999
 658.45; 1657.667;  -42.467;    0.000;1700.13329
 658.72; 1610.800;  -42.267;    0.000;1653.06672
 658.99; 1603.733;  -39.000;    0.000;1642.73328
 659.26; 1595.267;  -19.000;    0.000;1614.26672
 659.53; 1589.200;  -53.800;    0.000;1642.99995
 659.80; 1530.867;  -43.133;    0.000;1574.00003
 660.07; 1593.533;  -41.733;    0.000;1635.26666
 660.34; 1538.933;  -43.133;    0.000;1582.06668
 660.61; 1518.067;  -67.800;    0.000;1585.86665
 660.88; 1536.200;  -76.600;    0.000;1612.79995
 661.15; 1538.600;  -54.733;    0.000;1593.33331
 661.42; 1519.067;  -59.533;    0.000;1578.59998
 661.69; 1467.667;  -54.333;    0.000;1521.99996
 661.96; 1488.333;  -60.800;    0.000;1549.13337
 662.23; 1469.400;  -68.133;    0.000;1537.53336
 662.50; 1451.533;  -51.867;    0.000;1503.39999
 662.77; 1470.400;  -57.733;    0.000;1528.13336
 663.04; 1433.533;  -67.133;    0.000;1500.66666
 663.31; 1456.267;  -82.933;    0.000;1539.20006
 663.58; 1441.467;  -38.067;    0.000;1479.53334
 663.85; 1412.133;  -58.800;    0.000;1470.93330
 664.12; 1444.133;  -53.667;    0.000;1497.79997
 664.39; 1400.067;  -61.600;    0.000;1461.66665
 664.66; 1396.867;  -71.067;    0.000;1467.93336
 664.93; 1374.600;  -66.333;    0.000;1440.93331
 665.20; 1348.400;  -38.133;    0.000;1386.53336
 665.47; 1377.000;  -44.933;    0.000;1421.93333
 665.74; 1310.600;  -64.400;    0.000;1374.99998
 666.01; 1349.800;  -57.733;    0.000;1407.53338
 666.28; 1327.467;  -54.400;    0.000;1381.86668
 666.55; 1347.267;  -49.667;    0.000;1396.93339
 666.82; 1292.400;  -48.467;    0.000;1340.86669
 667.09; 1301.200;  -49.667;    0.000;1350.86662
 667.36; 1267.133;  -65.467;    0.000;1332.59997
 667.63; 1273.000;  -59.533;    0.000;1332.53333
 667.90; 1244.800;  -53.133;    0.000;1297.93338
 668.16; 1236.400;  -56.267;    0.000;1292.66669
 668.43; 1230.133;  -51.400;    0.000;1281.53330
 668.70; 1239.600;  -30.067;    0.000;1269.66664
 668.97; 1264.400;  -71.133;    0.000;1335.53336
 669.24; 1215.200;  -55.533;    0.000;1270.73328
 669.51; 1213.867;  -56.733;    0.000;1270.60003
 669.78; 1236.933;  -53.067;    0.000;1290.00002
 670.05; 1175.200;  -62.467;    0.000;1237.66662
 670.32; 1190.800;  -46.533;    0.000;1237.33338
 670.59; 1167.533;  -59.733;    0.000;1227.26666
 670.86; 1139.600;  -68.867;    0.000;1208.46664
 671.13; 1129.800;  -32.933;    0.000;1162.73338
 671.40; 1160.067;  -70.600;    0.000;1230.66665
 671.67; 1136.667;  -31.667;    0.000;1168.33329
 671.93; 1154.667;  -85.533;    0.000;1240.19996
 672.20; 1085.533;  -58.667;    0.000;1144.19999
 672.47; 1112.333;  -54.000;    0.000;1166.33337
 672.74; 1114.733;  -73.800;    0.000;1188.53328
 673.01; 1064.200;  -72.400;    0.000;1136.59995
 673.28; 1060.667;  -39.400;    0.000;1100.06663
 673.55; 1030.933;  -52.467;    0.000;1083.40002
 673.82; 1060.000;  -58.933;    0.000;1118.93333
 674.09; 1044.533;  -55.133;    0.000;1099.66666
 674.35; 1029.800;  -64.800;    0.000;1094.60005
 674.62; 1078.600;  -69.000;    0.000;1147.59998
 674.89; 1032.933;  -66.467;    0.000;1099.40002
 675.16;  986.200;  -66.200;    0.000;1052.40001
 675.43; 1046.533;  -63.200;    0.000;1109.73333
 675.70; 1056.867;  -44.533;    0.000;1101.40003
 675.97; 1000.933;  -48.933;    0.000;1049.86668
 676.24;  972.733;  -73.733;    0.000;1046.46667
 676.50;  972.333;  -74.267;    0.000;1046.59998
 676.77;  945.133;  -65.267;    0.000;1010.40003
 677.04;  971.400;  -63.200;    0.000;1034.60003
 677.31;  942.733;  -78.133;    0.000;1020.86667
 677.58;  934.000;  -51.467;    0.000;985.46667
 677.85;  957.600;  -67.067;    0.000;1024.66664
 678.12;  947.467;  -47.133;    0.000;994.60001
 678.38;  943.600;  -44.267;    0.000;987.86664
 678.65;  909.667;  -52.933;    0.000;962.60002
 678.92;  871.133;  -70.067;    0.000;941.20003
 679.19;  951.933;  -33.933;    0.000;985.86668
 679.46;  907.867;  -58.600;    0.000;966.46664
 679.73;  901.133;  -54.800;    0.000;955.93336
 679.99;  876.467;  -81.533;    0.000;958.00001
 680.26;  870.867;  -64.067;    0.000;934.93330
 680.53;  862.800;  -74.267;    0.000;937.06666
 680.80;  859.333;  -68.533;    0.000;927.86665
 681.07;  864.600;  -59.733;    0.000;924.33331
 681.33;  844.067;  -61.933;    0.000;905.99998
 681.60;  866.667;  -61.867;    0.000;928.53335
 681.87;  827.800;  -67.267;    0.000;895.06666
 682.14;  840.800;  -55.800;    0.000;896.59999
 682.41;  810.133;  -67.200;    0.000;877.33336
 682.67;  858.400;  -53.067;    0.000;911.46669
 682.94;  823.067;  -61.067;    0.000;884.13332
 683.21;  804.200;  -72.733;    0.000;876.93334
 683.48;  794.200;  -63.133;    0.000;857.33335
 683.75;  808.000;  -64.200;    0.000;872.20000
 684.01;  771.933;  -35.800;    0.000;807.73335
 684.28;  771.533;  -82.733;    0.000;854.26665
 684.55;  792.467;  -48.533;    0.000;841.00001
 684.82;  749.067;  -62.600;    0.000;811.66665
 685.09;  770.333;  -22.467;    0.000;792.79998
 685.35;  730.267;  -44.667;    0.000;774.93333
 685.62;  744.533;  -58.067;    0.000;802.59999
 685.89;  743.267;  -50.467;    0.000;793.73333
 686.16;  723.400;  -64.667;    0.000;788.06669
 686.42;  727.333;  -73.533;    0.000;800.86665
 686.69;  709.533;  -45.400;    0.000;754.93333
 686.96;  701.000;  -79.067;    0.000;780.06667
 687.23;  743.667;  -32.600;    0.000;776.26669
 687.49;  733.400;  -57.000;    0.000;790.40002
 687.76;  714.667;  -60.067;    0.000;774.73335
 688.03;  673.333;  -84.467;    0.000;757.79998
 688.30;  692.533;  -64.267;    0.000;756.80000
 688.56;  681.867;  -64.133;    0.000;745.99997
 688.83;  653.733;  -60.600;    0.000;714.33334
 689.10;  645.600;  -66.000;    0.000;711.59998
 689.37;  638.067;  -81.400;    0.000;719.46665
 689.63;  640.600;  -62.000;    0.000;702.59998
 689.90;  608.667;  -60.133;    0.000;668.80002
 690.17;  607.933;  -63.933;    0.000;671.86668
 690.44;  587.933;  -71.267;    0.000;659.20002
 690.70;  617.200;  -85.667;    0.000;702.86668
 690.97;  609.867;  -45.067;    0.000;654.93330
 691.24;  638.133;  -44.067;    0.000;682.20003
 691.50;  585.867;  -64.933;    0.000;650.79997
 691.77;  600.200;  -59.000;    0.000;659.20001
 692.04;  590.333;  -61.333;    0.000;651.66665
 692.30;  592.600;  -61.533;    0.000;654.13331
 692.57;  601.733;  -67.867;    0.000;669.60001
 692.84;  585.533;  -85.000;    0.000;670.53333
 693.11;  561.533;  -47.333;    0.000;608.86666
 693.37;  555.933;  -61.800;    0.000;617.73335
 693.64;  556.733;  -57.267;    0.000;614.00000
 693.91;  545.333;  -68.733;    0.000;614.06664
 694.17;  555.533;  -48.333;    0.000;603.86666
 694.44;  545.267;  -63.200;    0.000;608.46666
 694.71;  539.067;  -71.333;    0.000;610.39999
 694.97;  525.533;  -65.667;    0.000;591.19999
 695.24;  508.600;  -68.600;    0.000;577.20000
 695.51;  482.400;  -89.600;    0.000;571.99999
 695.77;  500.267;  -64.933;    0.000;565.20000
 696.04;  494.467;  -80.333;    0.000;574.80001
 696.31;  484.133;  -59.667;    0.000;543.80000
 696.57;  492.200;  -44.533;    0.000;536.73335
 696.84;  492.733;  -57.000;    0.000;549.73334
 697.11;  500.133;  -66.200;    0.000;566.33333
 697.37;  502.000;  -44.733;    0.000;546.73333
 697.64;  468.267;  -60.800;    0.000;529.06666
 697.91;  477.667;  -68.733;    0.000;546.39999
 698.17;  465.200;  -78.400;    0.000;543.60001
 698.44;  455.933;  -52.467;    0.000;508.39999
 698.71;  435.933;  -62.667;    0.000;498.59999
 698.97;  420.400;  -59.667;    0.000;480.06666
 699.24;  424.667;  -63.067;    0.000;487.73332
 699.50;  441.333;  -50.267;    0.000;491.60001
 699.77;  461.467;  -43.067;    0.000;504.53334
 700.04;  419.733;  -56.533;    0.000;476.26667
 700.30;  411.400;  -78.933;    0.000;490.33333
 700.57;  377.333;  -75.533;    0.000;452.86668
 700.84;  416.067;  -49.933;    0.000;466.00002
 701.10;  399.200;  -77.133;    0.000;476.33334
 701.37;  377.133;  -50.867;    0.000;428.00000
 701.63;  385.400;  -59.667;    0.000;445.06666
 701.90;  378.067;  -64.333;    0.000;442.40002
 702.17;  387.467;  -50.067;    0.000;437.53334
 702.43;  366.667;  -71.533;    0.000;438.19999
 702.70;  388.533;  -42.533;    0.000;431.06666
 702.96;  349.800;  -78.200;    0.000;427.99998
 703.23;  352.600;  -67.400;    0.000;420.00001
 703.50;  306.267;  -72.667;    0.000;378.93333
 703.76;  322.867;  -55.200;    0.000;378.06667
 704.03;  328.867;  -61.333;    0.000;390.20000
 704.29;  302.867;  -79.267;    0.000;382.13334
 704.56;  303.533;  -73.333;    0.000;376.86666
 704.82;  293.600;  -65.267;    0.000;358.86668
 705.09;  322.000;  -70.800;    0.000;392.80000
 705.36;  313.400;  -78.267;    0.000;391.66666
 705.62;  285.800;  -45.200;    0.000;330.99999
 705.89;  263.467;  -77.867;    0.000;341.33334
 706.15;  266.533;  -78.733;    0.000;345.26665
 706.42;  282.800;  -38.333;    0.000;321.13332
 706.68;  246.933;  -78.400;    0.000;325.33334
 706.95;  263.400;  -54.067;    0.000;317.46666
 707.21;  255.600;  -88.067;    0.000;343.66667
 707.48;  252.667;  -62.533;    0.000;315.20000
 707.75;  247.067;  -75.533;    0.000;322.60000
 708.01;  235.933;  -76.400;    0.000;312.33334
 708.28;  243.200;  -57.667;    0.000;300.86666
 708.54;  219.933;  -59.267;    0.000;279.20000
 708.81;  255.200;  -68.600;    0.000;323.80000
 709.07;  219.667;  -67.600;    0.000;287.26667
 709.34;  217.267;  -81.933;    0.000;299.20000
 709.60;  187.067;  -75.667;    0.000;262.73333
 709.87;  211.267;  -49.200;    0.000;260.46666
 710.13;  173.800;  -74.200;    0.000;248.00000
 710.40;  183.933;  -83.667;    0.000;267.60000
 710.66;  219.267;  -78.200;    0.000;297.46666
 710.93;  200.800;  -71.333;    0.000;272.13334
 711.19;  200.933;  -66.133;    0.000;267.06667
 711.46;  190.267;  -62.667;    0.000;252.93333
 711.72;  207.867;  -47.600;    0.000;255.46667
 711.99;  192.533;  -73.733;    0.000;266.26667
 712.25;  180.467;  -52.067;    0.000;232.53333
 712.52;  174.600;  -54.867;    0.000;229.46667
 712.78;  200.867;  -71.867;    0.000;272.73334
 713.05;  161.533;  -81.667;    0.000;243.20000
 713.31;  159.600;  -70.133;    0.000;229.73334
 713.58;  183.467;  -54.333;    0.000;237.79999
 713.84;  185.000;  -66.600;    0.000;251.60000
 714.11;  180.733;  -68.533;    0.000;249.26667
 714.37;  188.733;  -46.133;    0.000;234.86667
 714.64;  153.067;  -95.067;    0.000;248.13333
 714.90;  169.400;  -52.333;    0.000;221.73333
 715.17;  141.133;  -59.933;    0.000;201.06667
 715.43;  148.667;  -56.667;    0.000;205.33334
 715.70;  151.667;  -78.467;    0.000;230.13334
 715.96;  144.933;  -61.067;    0.000;206.00000
 716.22;  158.133;  -78.200;    0.000;236.33333
 716.49;  129.200;  -65.933;    0.000;195.13333
 716.75;  119.200;  -87.733;    0.000;206.93333
 717.02;  149.133;  -63.267;    0.000;212.40000
 717.28;  137.467;  -83.200;    0.000;220.66666
 717.55;  144.133;  -90.133;    0.000;234.26666
 717.81;  132.067;  -56.467;    0.000;188.53333
 718.08;  131.667;  -68.200;    0.000;199.86667
 718.34;  131.067;  -83.600;    0.000;214.66666
 718.60;  152.333;  -61.200;    0.000;213.53333
 718.87;  129.133;  -65.800;    0.000;194.93333
 719.13;  138.200;  -67.267;    0.000;205.46667
 719.40;  127.733;  -70.800;    0.000;198.53333
 719.66;  141.200;  -79.067;    0.000;220.26666
 719.93;  144.533;  -70.867;    0.000;215.40001
 720.19;  135.267;  -67.800;    0.000;203.06667
 720.45;  139.200;  -78.533;    0.000;217.73333
 720.72;  174.000;  -45.533;    0.000;219.53333
 720.98;  138.200;  -72.000;    0.000;210.20000
 721.25;  125.600;  -82.000;    0.000;207.60000
 721.51;  110.333;  -64.733;    0.000;175.06667
 721.77;  142.467;  -66.867;    0.000;209.33333
 722.04;  157.800;  -51.200;    0.000;209.00000
 722.30;  148.733;  -42.133;    0.000;190.86667
 722.57;  144.333;  -67.400;    0.000;211.73333
 722.83;  141.533;  -64.533;    0.000;206.06667
 723.09;  130.733;  -73.600;    0.000;204.33334
 723.36;  114.267;  -96.667;    0.000;210.93333
 723.62;  147.133;  -71.800;    0.000;218.93333
 723.88;  129.133;  -71.133;    0.000;200.26666
 724.15;  127.933;  -66.067;    0.000;194.00000
 724.41;  113.067;  -72.067;    0.000;185.13333
 724.68;  115.267;  -74.867;    0.000;190.13334
 724.94;  147.400;  -39.533;    0.000;186.93333
 725.20;  114.667;  -65.000;    0.000;179.66666
 725.47;  137.133;  -76.600;    0.000;213.73333
 725.73;  121.467;  -85.667;    0.000;207.13333
 725.99;  124.067;  -53.533;    0.000;177.60000
 726.26;  136.867;  -64.867;    0.000;201.73334
 726.52;  126.533;  -50.933;    0.000;177.46667
 726.78;  112.867;  -79.467;    0.000;192.33334
 727.05;  133.467;  -49.067;    0.000;182.53333
 727.31;  124.267;  -73.133;    0.000;197.40000
 727.57;  116.267;  -66.733;    0.000;183.00000
 727.84;  124.667;  -62.333;    0.000;187.00000
 728.10;  119.867;  -64.733;    0.000;184.60000
 728.36;   96.867;  -64.333;    0.000;161.20000
 728.63;  111.333;  -82.800;    0.000;194.13334
 728.89;  108.600;  -80.600;    0.000;189.20000
 729.15;  123.000;  -72.600;    0.000;195.60000
 729.42;   96.467;  -74.933;    0.000;171.40000
 729.68;  111.600;  -66.200;    0.000;177.80000
 729.94;   71.467;  -72.667;    0.000;144.13333
 730.21;  111.133;  -88.800;    0.000;199.93333
 730.47;  103.400;  -88.867;    0.000;192.26667
 730.73;   98.667;  -74.533;    0.000;173.20000
 731.00;  104.467;  -81.533;    0.000;186.00000
 731.26;  108.133;  -74.400;    0.000;182.53333
 731.52;  104.800;  -92.733;    0.000;197.53333
 731.78;   96.600;  -94.133;    0.000;190.73333
 732.05;   90.333;  -90.867;    0.000;181.20000
 732.31;  105.200;  -59.533;    0.000;164.73333
 732.57;   90.333;  -69.867;    0.000;160.20000
 732.84;   91.667;  -75.800;    0.000;167.46667
 733.10;   94.333;  -92.000;    0.000;186.33334
 733.36;  112.600;  -65.933;    0.000;178.53333
 733.62;   89.533;  -82.800;    0.000;172.33334
 733.89;   80.933;  -77.067;    0.000;158.00000
 734.15;   81.333;  -91.000;    0.000;172.33334
 734.41;  101.200;  -65.267;    0.000;166.46667
 734.67;   71.467;  -63.533;    0.000;135.00000
 734.94;   87.467;  -70.800;    0.000;158.26667
 735.20;   91.867;  -78.867;    0.000;170.73334
 735.46;   94.467;  -51.600;    0.000;146.06667
 735.73;   88.267;  -79.333;    0.000;167.60001
 735.99;   98.933;  -65.200;    0.000;164.13333
 736.25;   83.200;  -68.067;    0.000;151.26666
 736.51;   82.000;  -76.933;    0.000;158.93333
 736.77;   97.800;  -79.200;    0.000;177.00000
 737.04;  105.267;  -56.600;    0.000;161.86667
 737.30;   81.400;  -87.867;    0.000;169.26667
 737.56;   86.400;  -61.800;    0.000;148.20000
 737.82;   75.467;  -88.533;    0.000;164.00000
 738.09;  100.267;  -71.867;    0.000;172.13334
 738.35;   61.533;  -79.267;    0.000;140.80000
 738.61;   85.600;  -62.667;    0.000;148.26667
 738.87;   77.600;  -58.533;    0.000;136.13333
 739.14;   58.533;  -73.933;    0.000;132.46667
 739.40;   52.867;  -91.333;    0.000;144.20000
 739.66;   81.000;  -77.600;    0.000;158.60000
 739.92;   42.667;  -89.533;    0.000;132.20000
 740.18;   73.533;  -82.600;    0.000;156.13333
 740.45;   63.533;  -88.400;    0.000;151.93333
 740.71;   76.133;  -55.400;    0.000;131.53333
 740.97;   55.000;  -51.533;    0.000;106.53333
 741.23;   51.133;  -66.200;    0.000;117.33333
 741.49;   43.400;  -74.600;    0.000;118.00000
 741.76;   42.400;  -89.000;    0.000;131.40000
 742.02;   57.867;  -74.533;    0.000;132.40000
 742.28;   57.200;  -65.600;    0.000;122.80000
 742.54;   54.133;  -87.800;    0.000;141.93334
 742.80;   43.933;  -73.600;    0.000;117.53333
 743.06;   60.667;  -74.733;    0.000;135.40000
 743.33;   60.600;  -82.867;    0.000;143.46667
 743.59;   45.067;  -90.533;    0.000;135.60000
 743.85;   29.800;  -87.467;    0.000;117.26667
 744.11;   50.000;  -90.467;    0.000;140.46667
 744.37;   62.267;  -55.467;    0.000;117.73333
 744.63;   34.867;  -81.800;    0.000;116.66667
 744.90;   43.533;  -82.133;    0.000;125.66666
 745.16;   54.533;  -76.867;    0.000;131.40000
 745.42;   51.800;  -68.667;    0.000;120.46666
 745.68;   68.467;  -76.067;    0.000;144.53333
 745.94;   71.200;  -51.800;    0.000;123.00000
 746.20;   61.533;  -80.067;    0.000;141.60000
 746.46;   48.933;  -62.133;    0.000;111.06667
 746.72;   39.800;  -64.333;    0.000;104.13334
 746.99;   46.400;  -61.267;    0.000;107.66667
 747.25;   52.267;  -47.533;    0.000;99.80000
 747.51;   31.800;  -74.133;    0.000;105.93333
 747.77;   35.867;  -73.067;    0.000;108.93333
 748.03;   39.000;  -89.267;    0.000;128.26667
 748.29;   25.133;  -93.133;    0.000;118.26666
 748.55;   50.067;  -59.733;    0.000;109.80000
 748.81;   23.400;  -84.400;    0.000;107.80000
 749.08;   45.933;  -67.200;    0.000;113.13333
 749.34;   30.667;  -68.067;    0.000;98.73333
 749.60;   27.000;  -68.067;    0.000;95.06667
 749.86;   44.000;  -76.467;    0.000;120.46667
 750.12;   33.067;  -75.600;    0.000;108.66666
 750.38;   25.933;  -76.533;    0.000;102.46667
 750.64;   21.267;  -79.667;    0.000;100.93333
 750.90;   46.867;  -62.133;    0.000;109.00000
 751.16;   42.533;  -85.133;    0.000;127.66666
 751.42;   29.000;  -67.067;    0.000;96.06667
 751.68;   35.733;  -59.067;    0.000;94.80000
 751.95;    9.800;  -89.200;    0.000;99.00000
 752.21;   16.733;  -81.933;    0.000;98.66667
 752.47;   -2.800;  -83.667;    0.000;80.86666
 752.73;    5.133;  -73.733;    0.000;78.86666
 752.99;    4.867;  -84.400;    0.000;89.26667
 753.25;   12.400;  -80.200;    0.000;92.60000
 753.51;   23.133;  -78.133;    0.000;101.26666
 753.77;   32.200;  -71.067;    0.000;103.26667
 754.03;    8.467;  -70.133;    0.000;78.60000
 754.29;   26.200;  -77.733;    0.000;103.93333
 754.55;   -5.000;  -77.733;    0.000;72.73333
 754.81;  -11.867;  -65.800;    0.000;53.93334
 755.07;   -0.133;  -84.667;    0.000;84.53333
 755.33;    7.067;  -60.467;    0.000;67.53333
 755.59;  -11.067;  -81.067;    0.000;70.00000
 755.85;    7.333;  -95.667;    0.000;103.00000
 756.11;    9.800;  -89.333;    0.000;99.13334
 756.37;    8.867;  -70.000;    0.000;78.86667
 756.63;   17.200;  -62.067;    0.000;79.26667
 756.89;   -6.333;  -90.600;    0.000;84.26666
 757.15;    0.733;  -79.067;    0.000;79.80000
 757.41;   38.067;  -43.333;    0.000;81.40000
 757.68;    5.333;  -95.067;    0.000;100.40000
 757.94;   11.333;  -60.733;    0.000;72.06667
 758.20;   -3.400;  -65.333;    0.000;61.93334
 758.46;   -5.600;  -71.733;    0.000;66.13333
 758.72;   -6.067;  -87.200;    0.000;81.13333
 758.98;   18.267;  -61.200;    0.000;79.46667
 759.24;   -1.800;  -83.800;    0.000;82.00000
 759.50;   -2.800;  -68.800;    0.000;66.00000
 759.76;   16.133;  -81.333;    0.000;97.46667
 760.02;   -0.667;  -78.400;    0.000;77.73333
 760.27;  -14.333;  -61.400;    0.000;47.06667
 760.53;  -11.267;  -72.733;    0.000;61.46666
 760.79;    4.667;  -78.733;    0.000;83.40000
 761.05;  -11.267;  -56.067;    0.000;44.80000
 761.31;   13.533;  -59.333;    0.000;72.86667
 761.57;   -3.333;  -67.533;    0.000;64.20000
 761.83;   -8.533;  -76.800;    0.000;68.26667
 762.09;  -16.333;  -88.667;    0.000;72.33333
 762.35;  -18.733;  -90.733;    0.000;72.00000
 762.61;  -19.200;  -71.800;    0.000;52.60000
 762.87;   11.533;  -72.333;    0.000;83.86667
 763.13;  -28.067;  -90.067;    0.000;62.00000
 763.39;   10.133;  -65.067;    0.000;75.20000
 763.65;    1.000;  -68.467;    0.000;69.46667
 763.91;  -20.067;  -71.933;    0.000;51.86667
 764.17;   -8.933;  -66.667;    0.000;57.73333
 764.43;   -1.200;  -59.600;    0.000;58.40000
 764.69;   -5.667;  -83.600;    0.000;77.93333
 764.95;  -11.867;  -96.267;    0.000;84.40000
 765.21;  -24.867;  -87.867;    0.000;63.00000
 765.47;    2.600;  -69.533;    0.000;72.13333
 765.73;  -29.933;  -67.400;    0.000;37.46667
 765.98;   -4.133;  -50.133;    0.000;46.00000
 766.24;  -32.733;  -76.333;    0.000;43.60000
 766.50;  -37.400;  -88.133;    0.000;50.73333
 766.76;   -3.733;  -70.267;    0.000;66.53334
 767.02;  -12.467;  -88.933;    0.000;76.46667
 767.28;  -10.933;  -71.467;    0.000;60.53333
 767.54;  -22.800;  -61.467;    0.000;38.66667
 767.80;  -14.667;  -70.133;    0.000;55.46666
 768.06;  -11.600;  -73.933;    0.000;62.33333
 768.32;  -19.467;  -73.933;    0.000;54.46667
 768.58;  -22.733;  -78.267;    0.000;55.53334
 768.83;  -15.200;  -61.333;    0.000;46.13333
 769.09;  -24.600;  -70.400;    0.000;45.80000
 769.35;  -13.733;  -57.200;    0.000;43.46667
 769.61;  -13.933;  -79.533;    0.000;65.60000
 769.87;   -0.267;  -72.133;    0.000;71.86666
 770.13;  -16.800;  -84.533;    0.000;67.73333
 770.39;  -49.600;  -84.067;    0.000;34.46667
 770.65;  -24.333;  -73.533;    0.000;49.20000
 770.90;  -41.133;  -78.133;    0.000;37.00000
 771.16;  -33.267;  -82.667;    0.000;49.40000
 771.42;  -29.000;  -71.800;    0.000;42.80000
 771.68;  -24.267;  -82.867;    0.000;58.60000
 771.94;   -2.933;  -74.933;    0.000;72.00000
 772.20;  -17.533;  -67.733;    0.000;50.20000
 772.46;  -44.133;  -94.267;    0.000;50.13334
 772.71;   -8.600;  -77.733;    0.000;69.13333
 772.97;  -13.667;  -58.933;    0.000;45.26667
 773.23;  -41.000;  -77.400;    0.000;36.40000
 773.49;  -18.200;  -58.800;    0.000;40.60000
 773.75;  -24.467;  -76.800;    0.000;52.33334
 774.01;  -23.867;  -79.267;    0.000;55.40000
 774.26;  -53.733;  -90.467;    0.000;36.73333
 774.52;  -12.667;  -64.067;    0.000;51.40000
 774.78;  -34.667;  -82.400;    0.000;47.73333
 775.04;  -14.733;  -46.800;    0.000;32.06667
 775.30;  -19.200;  -60.800;    0.000;41.60000
 775.56;  -32.467;  -75.200;    0.000;42.73333
 775.81;  -22.333;  -65.000;    0.000;42.66667
 776.07;  -27.933;  -82.667;    0.000;54.73333
 776.33;  -28.667;  -91.333;    0.000;62.66667
 776.59;  -30.067;  -71.867;    0.000;41.80000
 776.85;  -36.933;  -82.000;    0.000;45.06667
 777.10;  -37.733;  -66.800;    0.000;29.06667
 777.36;  -44.933;  -75.867;    0.000;30.93333
 777.62;   -8.067;  -75.733;    0.000;67.66666
 777.88;  -28.067;  -80.800;    0.000;52.73334
 778.14;  -43.333;  -74.333;    0.000;31.00000
 778.39;  -32.800;  -83.533;    0.000;50.73333
 778.65;  -41.200;  -67.067;    0.000;25.86666
 778.91;  -43.067;  -82.400;    0.000;39.33334
 779.17;  -34.800;  -57.333;    0.000;22.53333
 779.42;  -38.600;  -84.867;    0.000;46.26667
 779.68;  -34.467;  -86.000;    0.000;51.53333
 779.94;  -36.667;  -83.733;    0.000;47.06666
 780.20;  -34.733;  -86.600;    0.000;51.86666
 780.46;  -57.000;  -77.733;    0.000;20.73333
 780.71;  -21.133;  -69.933;    0.000;48.80000
 780.97;  -37.800;  -76.933;    0.000;39.13334
 781.23;  -36.600;  -60.800;    0.000;24.20000
 781.49;  -46.200;  -68.133;    0.000;21.93333
 781.74;  -29.933;  -76.667;    0.000;46.73333
 782.00;  -46.800;  -71.533;    0.000;24.73333
 782.26;  -30.400;  -68.733;    0.000;38.33333
 782.52;  -24.533;  -81.533;    0.000;57.00000
 782.77;  -31.600;  -74.267;    0.000;42.66667
 783.03;  -49.067;  -96.333;    0.000;47.26667
 783.29;  -38.867;  -84.267;    0.000;45.40001
 783.54;  -46.267;  -78.200;    0.000;31.93333
 783.80;  -33.733;  -60.200;    0.000;26.46667
 784.06;  -63.067;  -72.133;    0.000; 9.06667
 784.32;  -49.667;  -78.133;    0.000;28.46666
 784.57;  -17.400;  -62.933;    0.000;45.53333
 784.83;  -63.200;  -86.200;    0.000;23.00000
 785.09;  -50.000;  -88.533;    0.000;38.53333
 785.34;  -58.333;  -84.000;    0.000;25.66667
 785.60;  -16.333;  -57.667;    0.000;41.33333
 785.86;  -34.000;  -90.933;    0.000;56.93333
 786.12;  -35.933;  -68.733;    0.000;32.80000
 786.37;  -15.000;  -53.933;    0.000;38.93333
 786.63;  -48.333; -104.800;    0.000;56.46667
 786.89;  -18.800;  -71.867;    0.000;53.06667
 787.14;  -32.067;  -66.933;    0.000;34.86667
 787.40;  -27.067;  -79.467;    0.000;52.40000
 787.66;  -42.267;  -85.867;    0.000;43.60000
 787.91;  -12.067;  -60.600;    0.000;48.53333
 788.17;  -65.200;  -76.400;    0.000;11.20000
 788.43;  -68.133;  -84.200;    0.000;16.06667
 788.68;  -47.800;  -82.333;    0.000;34.53334
 788.94;  -52.467;  -70.067;    0.000;17.60000
 789.20;  -48.333;  -85.867;    0.000;37.53334
 789.45;  -60.933;  -85.067;    0.000;24.13333
 789.71;  -53.733;  -92.600;    0.000;38.86666
 789.97;  -24.333;  -45.933;    0.000;21.60000
 790.22;  -48.267;  -71.600;    0.000;23.33333
 790.48;  -45.600;  -83.267;    0.000;37.66667
 790.74;  -54.133;  -43.667;    0.000;-10.46667
 790.99;  -43.867;  -83.867;    0.000;40.00000
 791.25;  -36.533;  -83.133;    0.000;46.60000
 791.51;  -62.533;  -76.400;    0.000;13.86667
 791.76;  -21.667;  -56.933;    0.000;35.26667
 792.02;  -29.333;  -72.400;    0.000;43.06667
 792.27;  -36.533;  -75.400;    0.000;38.86667
 792.53;  -44.733;  -89.667;    0.000;44.93333
 792.79;  -45.533;  -86.133;    0.000;40.60000
 793.04;  -50.733;  -73.333;    0.000;22.60000
 793.30;  -50.200;  -85.800;    0.000;35.60000
 793.56;  -58.933;  -76.600;    0.000;17.66666
 793.81;  -35.800;  -65.267;    0.000;29.46667
 794.07;  -52.400;  -91.933;    0.000;39.53333
 794.32;  -38.733;  -76.067;    0.000;37.33333
 794.58;  -46.200;  -76.867;    0.000;30.66667
 794.84;  -58.533;  -64.533;    0.000; 6.00000
 795.09;  -46.733;  -44.333;    0.000;-2.40000
 795.35;  -55.200;  -64.333;    0.000; 9.13334
 795.60;  -43.067;  -76.867;    0.000;33.80000
 795.86;  -26.467;  -73.400;    0.000;46.93333
 796.12;  -56.667;  -98.000;    0.000;41.33333
 796.37;  -61.467;  -79.533;    0.000;18.06667
 796.63;  -48.400;  -66.533;    0.000;18.13333
 796.88;  -51.800;  -75.800;    0.000;24.00000
 797.14;  -47.733;  -68.200;    0.000;20.46666
 797.39;  -44.133;  -63.800;    0.000;19.66666
 797.65;  -25.600;  -89.800;    0.000;64.20000
 797.91;  -53.533;  -80.267;    0.000;26.73334
 798.16;  -53.333;  -90.733;    0.000;37.40000
 798.42;  -46.000;  -79.000;    0.000;33.00000
 798.67;  -46.200;  -79.667;    0.000;33.46666
 798.93;  -64.467;  -84.733;    0.000;20.26666
 799.18;  -58.600;  -73.667;    0.000;15.06667
 799.44;  -65.400;  -87.200;    0.000;21.80000
 799.69;  -56.200;  -70.133;    0.000;13.93333
 799.95;  -60.800;  -81.400;    0.000;20.60000
 800.21;  -35.200;  -92.000;    0.000;56.80000
 800.46;  -32.867;  -72.667;    0.000;39.80000
 800.72;  -77.467;  -94.800;    0.000;17.33334
 800.97;  -59.200;  -80.600;    0.000;21.40000
 801.23;  -58.800;  -96.733;    0.000;37.93333
 801.48;  -83.400; -101.800;    0.000;18.40000
 801.74;  -56.533;  -95.800;    0.000;39.26667
 801.99;  -46.733;  -68.333;    0.000;21.60000
 802.25;  -49.933;  -88.867;    0.000;38.93333
 802.50;  -42.267;  -66.400;    0.000;24.13334
 802.76;  -50.800;  -49.467;    0.000;-1.33333
 803.01;  -65.800;  -88.133;    0.000;22.33333
 803.27;  -54.867;  -63.200;    0.000; 8.33334
 803.52;  -48.400;  -79.067;    0.000;30.66666
 803.78;  -34.667;  -72.933;    0.000;38.26667
 804.03;  -67.133;  -80.333;    0.000;13.20000
 804.29;  -74.933;  -77.933;    0.000; 3.00000
 804.54;  -71.467;  -83.667;    0.000;12.20000
 804.80;  -61.133;  -91.333;    0.000;30.20000
 805.05;  -63.933;  -89.200;    0.000;25.26666
 805.31;  -31.600;  -55.133;    0.000;23.53333
 805.56;  -55.067;  -62.733;    0.000; 7.66667
 805.82;  -71.800;  -81.467;    0.000; 9.66666
 806.07;  -48.467;  -57.933;    0.000; 9.46667
 806.33;  -61.733;  -53.267;    0.000;-8.46667
 806.58;  -54.600;  -92.133;    0.000;37.53333
 806.84;  -57.267;  -74.600;    0.000;17.33333
 807.09;  -56.667;  -81.733;    0.000;25.06666
 807.34;  -39.333;  -78.533;    0.000;39.20000
 807.60;  -52.267;  -85.800;    0.000;33.53334
 807.85;  -48.933;  -53.200;    0.000; 4.26667
 808.11;  -69.800;  -83.467;    0.000;13.66666
 808.36;  -21.800;  -54.467;    0.000;32.66667
 808.62;  -61.933;  -82.933;    0.000;21.00000
 808.87;  -51.933;  -80.800;    0.000;28.86667
 809.13;  -68.467;  -79.667;    0.000;11.20000
 809.38;  -27.800;  -63.467;    0.000;35.66667
 809.63;  -62.867;  -77.867;    0.000;15.00000
 809.89;  -48.400;  -70.467;    0.000;22.06667
 810.14;  -57.667;  -76.267;    0.000;18.60000
 810.40;  -40.667;  -58.200;    0.000;17.53333
 810.65;  -64.267;  -80.133;    0.000;15.86666
 810.91;  -63.600;  -97.200;    0.000;33.60000
 811.16;  -58.800;  -85.733;    0.000;26.93333
 811.41;  -47.733;  -79.067;    0.000;31.33333
 811.67;  -51.600;  -96.600;    0.000;45.00000
 811.92;  -44.133;  -75.333;    0.000;31.20000
 812.18;  -44.200;  -82.333;    0.000;38.13334
 812.43;  -58.133;  -66.800;    0.000; 8.66667
 812.68;  -53.267;  -89.200;    0.000;35.93333
 812.94;  -49.133;  -81.467;    0.000;32.33333
 813.19;  -56.267;  -76.067;    0.000;19.80000
 813.45;  -25.467;  -50.667;    0.000;25.20000
 813.70;  -64.533;  -94.467;    0.000;29.93333
 813.95;  -47.133;  -77.867;    0.000;30.73333
 814.21;  -39.600;  -87.000;    0.000;47.40000
 814.46;  -66.000;  -68.400;    0.000; 2.40000
 814.71;  -69.133;  -83.800;    0.000;14.66667
 814.97;  -59.600;  -81.467;    0.000;21.86667
 815.22;  -64.067;  -92.333;    0.000;28.26667
 815.48;  -68.733;  -88.133;    0.000;19.40000
 815.73;   17.667;  -23.800;    0.000;41.46667
 815.98;  -47.933;  -83.267;    0.000;35.33334
 816.24;  -60.067;  -76.133;    0.000;16.06667
 816.49;  -51.267;  -65.733;    0.000;14.46666
 816.74;  -59.400;  -83.067;    0.000;23.66666
 817.00;  -30.000;  -54.667;    0.000;24.66667
 817.25;  -59.933;  -65.600;    0.000; 5.66666
 817.50;  -49.067;  -81.200;    0.000;32.13333
 817.76;  -61.733;  -80.000;    0.000;18.26667
 818.01;  -78.933;  -79.267;    0.000; 0.33334
 818.26;  -57.067;  -92.867;    0.000;35.80000
 818.52;  -66.667;  -93.133;    0.000;26.46667
 818.77;  -70.467;  -87.467;    0.000;17.00000
 819.02;  131.933;  -43.200;    0.000;175.13334
 819.28;  -60.267;  -80.267;    0.000;20.00000
 819.53;  -76.333;  -66.467;    0.000;-9.86667
 819.78;  -44.067;  -76.533;    0.000;32.46667
 820.04;  -65.867;  -64.600;    0.000;-1.26667
 820.29;  -60.333;  -85.733;    0.000;25.40000
 820.54;  -42.533;  -54.867;    0.000;12.33333
 820.79;  -59.733;  -63.867;    0.000; 4.13333
 821.05;  -70.133;  -89.800;    0.000;19.66667
 821.30;  -55.333;  -71.200;    0.000;15.86666
 821.55;  -32.133;  -61.333;    0.000;29.20000
 821.81;  -65.267;  -73.800;    0.000; 8.53333
 822.06;  -38.533;  -67.533;    0.000;29.00000
 822.31;  -14.867;  -61.867;    0.000;47.00000
 822.56;  -72.200;  -84.533;    0.000;12.33334
 822.82;  -67.800;  -95.533;    0.000;27.73333
 823.07;  -41.000;  -64.267;    0.000;23.26667
 823.32;  -83.400;  -90.067;    0.000; 6.66666
 823.58;  -68.067;  -71.667;    0.000; 3.60000
 823.83;  -68.867;  -79.600;    0.000;10.73333
 824.08;  -50.800;  -79.800;    0.000;29.00000
 824.33;  -67.867;  -86.000;    0.000;18.13333
 824.59;  -69.933;  -79.667;    0.000; 9.73333
 824.84;  -74.600;  -78.400;    0.000; 3.80000
 825.09;  -41.467;  -79.400;    0.000;37.93333
 825.34;  -62.733;  -82.067;    0.000;19.33333
 825.60;  -54.800;  -83.800;    0.000;29.00000
 825.85;  -70.467;  -82.667;    0.000;12.20000
 826.10;  -83.133;  -86.600;    0.000; 3.46667
 826.35;  -53.533;  -70.933;    0.000;17.40000
 826.61;  -57.133;  -69.133;    0.000;12.00000
 826.86;  -74.200;  -95.867;    0.000;21.66667
 827.11;  -77.200;  -79.067;    0.000; 1.86667
 827.36;  -74.000;  -90.333;    0.000;16.33334
 827.61;  -77.467;  -96.067;    0.000;18.60000
 827.87;  -67.600;  -92.067;    0.000;24.46667
 828.12;  -72.000;  -73.533;    0.000; 1.53333
 828.37;  -64.667;  -80.867;    0.000;16.20000
 828.62;  -67.733;  -94.400;    0.000;26.66667
 828.88;  -74.200;  -92.800;    0.000;18.60001
 829.13;  -49.067;  -86.400;    0.000;37.33334
 829.38;  -71.933;  -82.733;    0.000;10.80000
 829.63;  -65.533;  -81.467;    0.000;15.93333
 829.88;  -62.533;  -70.800;    0.000; 8.26667
 830.14;  -62.933;  -92.600;    0.000;29.66666
 830.39;  -45.467;  -65.867;    0.000;20.40000
 830.64;  -80.800;  -86.867;    0.000; 6.06667
 830.89;  -62.067;  -72.333;    0.000;10.26667
 831.14;  -69.000;  -71.667;    0.000; 2.66666
 831.39;  -77.600;  -87.867;    0.000;10.26667
 831.65;  -99.733;  -88.267;    0.000;-11.46666
 831.90;  -69.867;  -91.733;    0.000;21.86666
 832.15;  -59.067;  -81.267;    0.000;22.20000
 832.40;  -66.467;  -66.533;    0.000; 0.06667
 832.65;  -61.800;  -77.733;    0.000;15.93333
 832.90;  -76.667;  -97.933;    0.000;21.26667
 833.16;  -70.067;  -75.400;    0.000; 5.33334
 833.41;  -77.667;  -72.800;    0.000;-4.86666
 833.66;  -64.000;  -86.533;    0.000;22.53333
 833.91;  -69.400;  -85.667;    0.000;16.26666
 834.16;  -78.267;  -87.267;    0.000; 9.00000
 834.41;  -56.000;  -84.800;    0.000;28.80000
 834.66;  -59.600;  -62.600;    0.000; 3.00000
 834.92;  -71.600;  -78.933;    0.000; 7.33334
 835.17;  -48.133;  -94.267;    0.000;46.13334
 835.42;  -55.000;  -66.067;    0.000;11.06667
 835.67;  -78.067;  -67.467;    0.000;-10.60000
 835.92;  -79.467;  -68.333;    0.000;-11.13333
 836.17;  -65.733;  -91.667;    0.000;25.93333
 836.42;  -77.333;  -91.400;    0.000;14.06667
 836.67;  -68.067;  -82.200;    0.000;14.13333
 836.93;  -71.400; -102.267;    0.000;30.86667
 837.18;  -60.467;  -63.800;    0.000; 3.33333
 837.43;  -66.133;  -82.667;    0.000;16.53333
 837.68;  -48.400;  -70.200;    0.000;21.80000
 837.93;  -87.733;  -81.667;    0.000;-6.06667
 838.18;  -51.800; -103.200;    0.000;51.40000
 838.43;  -80.333; -100.600;    0.000;20.26666
 838.68;  -74.267;  -82.200;    0.000; 7.93333
 838.93;  -78.467;  -79.533;    0.000; 1.06667
 839.18;  -63.867;  -82.600;    0.000;18.73333
 839.43;  -58.067;  -67.000;    0.000; 8.93333
 839.69;  -75.667;  -80.200;    0.000; 4.53333
 839.94;  -85.800;  -93.667;    0.000; 7.86666
 840.19;  -53.267;  -92.267;    0.000;39.00000
 840.44;  -69.000; -100.933;    0.000;31.93333
 840.69;  -51.200;  -60.933;    0.000; 9.73333
 840.94;  -58.133;  -78.467;    0.000;20.33333
 841.19;  -61.667;  -51.467;    0.000;-10.20000
 841.44;  -65.400;  -72.667;    0.000; 7.26666
 841.69;  -50.200;  -60.533;    0.000;10.33333
 841.94;  -59.600;  -85.200;    0.000;25.60000
 842.19;  -75.267;  -64.267;    0.000;-11.00000
 842.44;  -66.400;  -94.800;    0.000;28.40000
 842.69;  -84.333;  -88.400;    0.000; 4.06667
 842.94;  -69.467;  -80.400;    0.000;10.93333
 843.19;  -65.667;  -79.267;    0.000;13.60001
 843.44;  -71.467;  -82.067;    0.000;10.60000
 843.69;  -72.600;  -88.533;    0.000;15.93333
 843.94;  -21.333;  -36.333;    0.000;15.00000
 844.19;  -60.667;  -87.067;    0.000;26.40000
 844.44;  -48.467;  -78.800;    0.000;30.33334
 844.69;  -78.733;  -79.867;    0.000; 1.13334
 844.95;  -79.067;  -94.067;    0.000;15.00000
 845.20;  -62.800;  -83.733;    0.000;20.93333
 845.45;  -75.200;  -74.200;    0.000;-1.00000
 845.70;  -74.400;  -73.400;    0.000;-1.00000
 845.95;  -69.000;  -87.600;    0.000;18.60000
 846.20;  -60.867;  -67.133;    0.000; 6.26667
 846.45;  -86.133;  -83.467;    0.000;-2.66666
 846.70;  -85.067;  -72.400;    0.000;-12.66666
 846.95;  -78.667;  -84.333;    0.000; 5.66667
 847.20;  -56.333;  -82.067;    0.000;25.73333
 847.44;  -54.267;  -51.400;    0.000;-2.86666
 847.69;  -84.133;  -81.067;    0.000;-3.06667
 847.94;  -62.800;  -67.533;    0.000; 4.73333
 848.19;  -74.600;  -81.067;    0.000; 6.46667
 848.44;  -49.467;  -74.867;    0.000;25.40000
 848.69;  -72.467;  -81.267;    0.000; 8.80000
 848.94;  -57.733;  -76.267;    0.000;18.53334
 849.19;  -78.067;  -82.667;    0.000; 4.60000
 849.44;  -79.600;  -88.733;    0.000; 9.13333
 849.69;  -66.933;  -50.067;    0.000;-16.86667
 849.94;  -87.933; -100.067;    0.000;12.13333
 850.19;  -72.067;  -66.067;    0.000;-6.00000
 850.44;  -61.800;  -72.000;    0.000;10.20000
 850.69;  -87.533;  -77.733;    0.000;-9.80000
 850.94;  -84.667;  -89.600;    0.000; 4.93333
 851.19;  -65.467;  -80.133;    0.000;14.66666
 851.44;  -54.400;  -87.667;    0.000;33.26666
 851.69;  -83.400;  -82.667;    0.000;-0.73334
 851.94;  -73.667;  -72.533;    0.000;-1.13333
 852.19;  -56.200;  -83.067;    0.000;26.86666
 852.44;  -82.933;  -98.333;    0.000;15.40000
 852.68;  -73.800;  -80.467;    0.000; 6.66666
 852.93;  -63.000;  -80.000;    0.000;17.00000
 853.18;  -66.400;  -89.400;    0.000;23.00000
 853.43;  -65.467;  -83.133;    0.000;17.66666
 853.68;  -62.600;  -77.933;    0.000;15.33334
 853.93;  -59.133;  -78.667;    0.000;19.53333
 854.18;  -62.200;  -72.267;    0.000;10.06667
 854.43;  -51.067;  -84.733;    0.000;33.66666
 854.68;  -87.533;  -70.467;    0.000;-17.06667
 854.93;  -54.800;  -69.933;    0.000;15.13334
 855.18;  -77.600;  -76.600;    0.000;-1.00000
 855.42;  -53.133;  -77.600;    0.000;24.46666
 855.67;  -71.267;  -67.600;    0.000;-3.66667
 855.92;  -70.667;  -87.067;    0.000;16.40000
 856.17;  -50.800;  -65.800;    0.000;15.00000
 856.42;  -72.667;  -92.533;    0.000;19.86667
 856.67;  -69.000;  -73.600;    0.000; 4.60000
 856.92;  -56.400;  -76.133;    0.000;19.73333
 857.17;  -63.933;  -81.733;    0.000;17.80000
 857.41;  -78.800;  -77.800;    0.000;-1.00000
 857.66;  -65.000;  -66.333;    0.000; 1.33334
 857.91;  -57.200;  -58.000;    0.000; 0.80000
 858.16;  -72.400;  -78.867;    0.000; 6.46667
 858.41;  -68.333;  -79.267;    0.000;10.93333
 858.66;  -59.067;  -80.000;    0.000;20.93333
 858.91;  -68.133;  -61.133;    0.000;-7.00000
 859.15;  -76.533;  -79.533;    0.000; 3.00000
 859.40;  -62.533;  -68.533;    0.000; 6.00000
 859.65;  -58.867;  -91.000;    0.000;32.13334
 859.90;  -67.600;  -87.133;    0.000;19.53333
 860.15;  -80.800;  -74.200;    0.000;-6.60001
 860.40;  -61.333;  -64.000;    0.000; 2.66667
 860.64;  -59.067;  -57.867;    0.000;-1.20000
 860.89;  -89.933;  -91.867;    0.000; 1.93333
 861.14;  -62.600;  -73.667;    0.000;11.06667
 861.39;  -76.867;  -68.933;    0.000;-7.93333
 861.64;  -84.867;  -73.667;    0.000;-11.20000
 861.88;  -72.133;  -73.933;    0.000; 1.80000
 862.13;  -57.800;  -77.467;    0.000;19.66667
 862.38;  -59.533;  -78.800;    0.000;19.26667
 862.63;  -85.133;  -87.067;    0.000; 1.93333
 862.88;  -61.333;  -81.067;    0.000;19.73333
 863.12;  -58.067;  -62.067;    0.000; 4.00000
 863.37;  -82.267;  -85.267;    0.000; 3.00000
 863.62;  -71.067;  -86.000;    0.000;14.93333
 863.87;  -74.467;  -80.067;    0.000; 5.60000
 864.12;  -61.200;  -79.600;    0.000;18.40000
 864.36;  -71.933;  -79.933;    0.000; 8.00000
 864.61;  -58.733;  -70.133;    0.000;11.40000
 864.86;  -81.533;  -92.467;    0.000;10.93333
 865.11;  -51.800;  -53.067;    0.000; 1.26667
 865.35;  -61.000;  -58.867;    0.000;-2.13334
 865.60;  -60.667;  -73.000;    0.000;12.33333
 865.85;  -58.267;  -60.800;    0.000; 2.53333
 866.10;  -84.800;  -80.467;    0.000;-4.33334
 866.34;  -54.800;  -78.133;    0.000;23.33333
 866.59;  -55.533;  -46.200;    0.000;-9.33333
 866.84;  -62.800;  -86.467;    0.000;23.66667
 867.09;  -68.000;  -71.000;    0.000; 3.00000
 867.33;  -67.733;  -98.600;    0.000;30.86667
 867.58;  -57.600;  -60.400;    0.000; 2.80000
 867.83;  -63.933;  -82.533;    0.000;18.60000
 868.08;  -80.600;  -60.733;    0.000;-19.86666
 868.32;  -61.333;  -82.067;    0.000;20.73333
 868.57;  -67.467;  -69.667;    0.000; 2.20000
 868.82;  -60.400;  -62.533;    0.000; 2.13333
 869.07;  -87.067;  -86.800;    0.000;-0.26666
 869.31;  -69.933;  -74.067;    0.000; 4.13333
 869.56;  -83.467;  -80.867;    0.000;-2.60000
 869.81;  -66.400;  -90.933;    0.000;24.53333
 870.05;  -73.867;  -86.067;    0.000;12.20000
 870.30;  -72.667;  -63.600;    0.000;-9.06667
 870.55;  -57.600;  -62.600;    0.000; 5.00000
 870.80;  -56.467;  -58.000;    0.000; 1.53333
 871.04;  -52.600;  -54.933;    0.000; 2.33334
 871.29;  -63.733;  -87.000;    0.000;23.26667
 871.54;  -56.467;  -79.733;    0.000;23.26666
 871.78;  -82.333;  -82.267;    0.000;-0.06667
 872.03;  -71.800;  -57.667;    0.000;-14.13334
 872.28;  -65.000;  -72.333;    0.000; 7.33334
 872.52;  -56.800;  -81.533;    0.000;24.73333
 872.77;  -64.933;  -95.400;    0.000;30.46667
 873.02;  -92.000;  -87.533;    0.000;-4.46667
 873.26;  -62.533;  -88.267;    0.000;25.73334
 873.51;  -41.667;  -64.400;    0.000;22.73333
 873.76;  -63.533;  -66.533;    0.000; 3.00000
 874.00;  -56.200;  -61.267;    0.000; 5.06667
 874.25;  -84.667;  -98.000;    0.000;13.33334
 874.50;  -60.000;  -72.733;    0.000;12.73333
 874.74;  -78.000;  -71.533;    0.000;-6.46667
 874.99;  -53.067;  -62.333;    0.000; 9.26667
 875.24;  -48.867;  -39.667;    0.000;-9.20000
 875.48;  -54.467;  -65.200;    0.000;10.73333
 875.73;  -69.933;  -71.733;    0.000; 1.80000
 875.98;  -61.600;  -78.067;    0.000;16.46667
 876.22;  -54.800;  -78.533;    0.000;23.73333
 876.47;  -59.400;  -48.267;    0.000;-11.13334
 876.71;  -42.600;  -64.200;    0.000;21.60000
 876.96;  -39.200;  -29.200;    0.000;-10.00000
 877.21;  -78.467;  -74.867;    0.000;-3.60000
 877.45;  -74.600;  -79.200;    0.000; 4.60000
 877.70;  -67.933;  -56.933;    0.000;-11.00000
 877.95;  -45.133;  -38.600;    0.000;-6.53334
 878.19;  -42.533;  -50.600;    0.000; 8.06667
 878.44;  -54.600;  -66.267;    0.000;11.66667
 878.68;  -36.867;  -39.333;    0.000; 2.46667
 878.93;  -48.200;  -64.867;    0.000;16.66667
 879.18;  -52.400;  -76.933;    0.000;24.53333
 879.42;  -62.467;  -62.067;    0.000;-0.40000
 879.67;  -61.200;  -71.933;    0.000;10.73333
 879.91;  -48.067;  -48.067;    0.000; 0.00000
 880.16;  -50.400;  -52.467;    0.000; 2.06667
 880.40;  -43.200;  -58.200;    0.000;15.00000
 880.65;  -37.067;  -50.600;    0.000;13.53333
 880.90;  -51.267;  -48.333;    0.000;-2.93333
 881.14;  -31.333;  -53.200;    0.000;21.86667
 881.39;  -44.067;  -59.867;    0.000;15.80000
 881.63;  -54.267;  -75.133;    0.000;20.86666
 881.88;  -41.467;  -81.467;    0.000;40.00000
 882.12;  -69.867;  -63.667;    0.000;-6.20000
 882.37;  -44.400;  -47.333;    0.000; 2.93333
 882.62;  -55.533;  -64.667;    0.000; 9.13333
 882.86;  -66.400;  -67.533;    0.000; 1.13333
 883.11;  -46.667;  -61.400;    0.000;14.73333
 883.35;  -61.467;  -52.667;    0.000;-8.80000
 883.60;  -38.400;  -31.067;    0.000;-7.33333
 883.84;  -52.667;  -62.400;    0.000; 9.73333
 884.09;  -36.467;  -52.000;    0.000;15.53333
 884.33;  -55.933;  -51.600;    0.000;-4.33334
 884.58;  -66.533;  -59.533;    0.000;-7.00000
 884.82;  -54.267;  -59.667;    0.000; 5.40000
 885.07;  -53.600;  -68.067;    0.000;14.46667
 885.31;  -48.867;  -39.533;    0.000;-9.33333
 885.56;  -33.200;  -58.067;    0.000;24.86666
 885.80;  -53.733;  -72.133;    0.000;18.40000
 886.05;  -74.000;  -65.533;    0.000;-8.46667
 886.29;  -33.000;  -44.400;    0.000;11.40000
 886.54;  -68.467;  -63.333;    0.000;-5.13334
 886.78;  -48.467;  -55.533;    0.000; 7.06667
 887.03;  -50.800;  -63.667;    0.000;12.86667
 887.27;  -17.333;  -25.200;    0.000; 7.86667
 887.52;  -43.733;  -46.933;    0.000; 3.20000
 887.76;  -34.000;  -55.133;    0.000;21.13334
 888.01;  -36.933;  -59.267;    0.000;22.33333
 888.25;  -50.267;  -59.200;    0.000; 8.93333
 888.50;  -35.533;  -40.667;    0.000; 5.13334
 888.74;  -50.867;  -43.467;    0.000;-7.40000
 888.99;  -45.133;  -50.267;    0.000; 5.13333
 889.23;  -47.333;  -47.667;    0.000; 0.33334
 889.48;  -28.533;  -54.600;    0.000;26.06667
 889.72;  -36.867;  -39.733;    0.000; 2.86667
 889.97;  -54.333;  -46.267;    0.000;-8.06667
 890.21;  -29.000;  -31.267;    0.000; 2.26667
 890.46;  -23.600;  -38.800;    0.000;15.20000
 890.70;  -38.600;  -54.933;    0.000;16.33334
 890.94;  -28.200;  -51.533;    0.000;23.33333
 891.19;  -25.200;  -44.067;    0.000;18.86666
 891.43;  -35.200;  -44.200;    0.000; 9.00000
 891.68;   -6.200;  -36.867;    0.000;30.66667
 891.92;  -36.933;  -59.800;    0.000;22.86666
 892.17;  -32.067;  -51.333;    0.000;19.26667
 892.41;  -37.200;  -53.200;    0.000;16.00000
 892.66;  -31.667;  -42.400;    0.000;10.73334
 892.90;    5.867;  -26.933;    0.000;32.80000
 893.14;  -25.333;  -28.000;    0.000; 2.66667
 893.39;  -34.200;  -29.600;    0.000;-4.60000
 893.63;  -35.467;  -46.800;    0.000;11.33333
 893.88;  -33.067;  -47.333;    0.000;14.26667
 894.12;  -36.333;  -31.533;    0.000;-4.80000
 894.36;  -17.467;  -43.800;    0.000;26.33333
 894.61;  -16.333;  -41.000;    0.000;24.66667
 894.85;   -9.200;  -24.667;    0.000;15.46667
 895.10;  -10.133;  -24.267;    0.000;14.13333
 895.34;  -32.400;  -39.333;    0.000; 6.93333
 895.58;  -24.200;  -28.000;    0.000; 3.80000
 895.83;  -23.200;  -29.267;    0.000; 6.06667
 896.07;   -6.667;  -37.333;    0.000;30.66667
 896.32;  -30.733;  -41.800;    0.000;11.06667
 896.56;  -27.600;  -28.467;    0.000; 0.86667
 896.80;   -6.133;  -32.933;    0.000;26.80000
 897.05;  -16.933;  -27.733;    0.000;10.80000
 897.29;    4.200;  -14.200;    0.000;18.40000
 897.53;  -47.400;  -10.067;    0.000;-37.33333
 897.78;   -8.267;  -15.333;    0.000; 7.06667
 898.02;   17.000;    7.400;    0.000; 9.60000
 898.26;  -11.467;   -7.933;    0.000;-3.53333
 898.51;    9.333;    0.533;    0.000; 8.80000
 898.75;    7.400;   -7.133;    0.000;14.53333
 898.99;    2.800;    9.600;    0.000;-6.80000
 899.24;   27.933;  -18.067;    0.000;46.00000
 899.48;   17.867;   11.267;    0.000; 6.60000
 899.73;    0.333;  -25.333;    0.000;25.66667
 899.97;   15.533;    6.467;    0.000; 9.06667
 900.21;   43.600;   10.533;    0.000;33.06666
 900.46;   18.000;   25.933;    0.000;-7.93333
 900.70;   56.667;   19.600;    0.000;37.06667
 900.94;   30.867;  -12.400;    0.000;43.26667
 901.18;   45.000;   41.067;    0.000; 3.93333
 901.43;   46.133;   44.133;    0.000; 2.00000
 901.67;   34.600;   40.000;    0.000;-5.40000
 901.91;   52.400;   30.800;    0.000;21.60000
 902.16;   34.333;   32.733;    0.000; 1.60000
 902.40;   84.200;   68.067;    0.000;16.13333
 902.64;   61.867;   43.267;    0.000;18.60000
 902.89;   88.200;   63.400;    0.000;24.80000
 903.13;   97.800;   87.933;    0.000; 9.86667
 903.37;  103.867;  118.667;    0.000;-14.80000
 903.61;  134.000;  126.733;    0.000; 7.26667
 903.86;  142.533;  117.467;    0.000;25.06667
 904.10;  163.533;  131.933;    0.000;31.60001
 904.34;  168.533;  167.667;    0.000; 0.86667
 904.59;  200.000;  192.933;    0.000; 7.06667
 904.83;  244.600;  198.667;    0.000;45.93333
 905.07;  286.000;  244.067;    0.000;41.93333
 905.31;  285.733;  300.133;    0.000;-14.39999
 905.56;  321.533;  270.800;    0.000;50.73334
 905.80;  402.200;  346.467;    0.000;55.73334

