point2
Integration time [ms]:  15.000
Averaging Nr. [scans]: 15
Smoothing Nr. [pixels]: 0
Data measured with spectrometer [name]: 1307078U2
Wave   ;Sample   ;Dark     ;Reference;Scope Corrected for Dark
[nm]   ;[counts] ;[counts] ;[counts] 

 351.07;   -4.467;   23.733;    0.000;-28.20000
 351.37;    3.133;   -4.467;    0.000; 7.60000
 351.66;    5.867;    3.333;    0.000; 2.53333
 351.95;  -18.400;  -13.467;    0.000;-4.93333
 352.24;   -3.933;   -8.067;    0.000; 4.13333
 352.54;   -5.267;  -24.200;    0.000;18.93333
 352.83;  -15.067;    0.267;    0.000;-15.33333
 353.12;    5.333;   -2.733;    0.000; 8.06667
 353.42;  -20.467;  -10.267;    0.000;-10.20000
 353.71;  -12.333;   -6.533;    0.000;-5.80000
 354.00;    4.067;    1.600;    0.000; 2.46667
 354.30;  -23.667;  -21.333;    0.000;-2.33333
 354.59;  -11.067;  -15.133;    0.000; 4.06667
 354.88;  -19.667;    2.333;    0.000;-22.00000
 355.17;  -20.000;   -5.867;    0.000;-14.13333
 355.47;   -7.400;  -19.600;    0.000;12.20000
 355.76;   -2.600;    0.867;    0.000;-3.46667
 356.05;    9.533;  -12.333;    0.000;21.86667
 356.35;    3.333;   -0.533;    0.000; 3.86667
 356.64;    4.467;   13.200;    0.000;-8.73333
 356.93;   -9.133;   -4.933;    0.000;-4.20000
 357.22;    5.333;   -8.133;    0.000;13.46667
 357.52;  -14.933;   -2.867;    0.000;-12.06667
 357.81;   10.467;  -14.600;    0.000;25.06667
 358.10;   -0.067;  -13.533;    0.000;13.46667
 358.39;   -3.800;  -12.400;    0.000; 8.60000
 358.69;    0.533;   -6.000;    0.000; 6.53333
 358.98;  -19.400;  -19.267;    0.000;-0.13333
 359.27;    7.600;    6.000;    0.000; 1.60000
 359.57;  -14.600;   15.333;    0.000;-29.93333
 359.86;  -11.200;  -22.333;    0.000;11.13333
 360.15;    1.000;   10.667;    0.000;-9.66667
 360.44;   11.000;  -15.000;    0.000;26.00000
 360.74;    5.200;   -6.000;    0.000;11.20000
 361.03;  -20.733;    4.867;    0.000;-25.60000
 361.32;    8.000;   -6.333;    0.000;14.33333
 361.61;  -10.333;   -5.067;    0.000;-5.26667
 361.91;  -12.867;   -3.533;    0.000;-9.33333
 362.20;   -2.267;  -19.200;    0.000;16.93333
 362.49;    3.800;  -10.067;    0.000;13.86667
 362.78;    9.133;    3.733;    0.000; 5.40000
 363.08;  -11.067;  -33.667;    0.000;22.60000
 363.37;  -10.933;   -8.200;    0.000;-2.73333
 363.66;   10.400;   14.267;    0.000;-3.86667
 363.95;  -11.000;    1.400;    0.000;-12.40000
 364.24;  -11.867;   -9.667;    0.000;-2.20000
 364.54;  -15.267;   -8.333;    0.000;-6.93333
 364.83;   -7.667;   -9.533;    0.000; 1.86667
 365.12;  -21.800;  -10.600;    0.000;-11.20000
 365.41;   16.000;   -6.533;    0.000;22.53333
 365.71;  -20.067;  -12.133;    0.000;-7.93333
 366.00;   -7.800;  -10.667;    0.000; 2.86667
 366.29;  -20.733;    0.933;    0.000;-21.66667
 366.58;   11.133;   -8.133;    0.000;19.26667
 366.87;   18.933;  -14.333;    0.000;33.26667
 367.17;   15.867;   -6.467;    0.000;22.33333
 367.46;  -15.067;  -11.133;    0.000;-3.93333
 367.75;   -0.333;  -16.000;    0.000;15.66667
 368.04;  -28.067;  -20.533;    0.000;-7.53333
 368.34;    0.400;  -21.467;    0.000;21.86667
 368.63;    7.067;    3.133;    0.000; 3.93333
 368.92;   23.067;    7.000;    0.000;16.06667
 369.21;  -20.667;   -1.933;    0.000;-18.73333
 369.50;    1.867;  -17.667;    0.000;19.53333
 369.80;    4.067;    5.467;    0.000;-1.40000
 370.09;  -12.067;   -1.067;    0.000;-11.00000
 370.38;   -0.467;  -19.733;    0.000;19.26667
 370.67;    0.933;   -4.800;    0.000; 5.73333
 370.96;  -20.333;   -1.533;    0.000;-18.80000
 371.26;   -1.200;   -6.267;    0.000; 5.06667
 371.55;   -9.000;   -8.933;    0.000;-0.06667
 371.84;   -9.667;  -14.600;    0.000; 4.93333
 372.13;  -10.400;  -14.067;    0.000; 3.66667
 372.42;    7.467;  -10.600;    0.000;18.06667
 372.71;    3.133;    2.800;    0.000; 0.33333
 373.01;   -1.200;  -12.133;    0.000;10.93333
 373.30;   -8.867;   -0.067;    0.000;-8.80000
 373.59;   -1.667;  -20.200;    0.000;18.53333
 373.88;  -13.800;  -15.133;    0.000; 1.33333
 374.17;   26.867;   -1.800;    0.000;28.66667
 374.46;   -8.867;  -18.200;    0.000; 9.33333
 374.76;   15.067;    7.667;    0.000; 7.40000
 375.05;    5.800;   29.000;    0.000;-23.20000
 375.34;   10.200;   -8.467;    0.000;18.66667
 375.63;  -11.467;    0.467;    0.000;-11.93333
 375.92;   10.267;   -0.533;    0.000;10.80000
 376.21;  -22.067;   -4.600;    0.000;-17.46667
 376.51;    0.200;  -11.000;    0.000;11.20000
 376.80;   -9.000;  -11.800;    0.000; 2.80000
 377.09;   19.267;  -11.600;    0.000;30.86667
 377.38;   -1.733;    0.067;    0.000;-1.80000
 377.67;    2.733;  -11.067;    0.000;13.80000
 377.96;  -18.200;  -10.933;    0.000;-7.26667
 378.25;  -15.200;    1.467;    0.000;-16.66667
 378.55;   -7.733;  -17.800;    0.000;10.06667
 378.84;    2.333;  -23.933;    0.000;26.26667
 379.13;   -6.933;   -1.000;    0.000;-5.93333
 379.42;   -1.867;  -29.667;    0.000;27.80000
 379.71;  -15.667;  -16.400;    0.000; 0.73333
 380.00;   -8.933;   -1.400;    0.000;-7.53333
 380.29;  -15.667;    7.000;    0.000;-22.66667
 380.59;   -8.133;   -4.800;    0.000;-3.33333
 380.88;   -5.067;  -16.400;    0.000;11.33333
 381.17;  -12.067;  -15.867;    0.000; 3.80000
 381.46;   -0.133;    2.800;    0.000;-2.93333
 381.75;   -6.267;   -2.533;    0.000;-3.73333
 382.04;   -0.933;   -7.067;    0.000; 6.13333
 382.33;    0.467;  -27.667;    0.000;28.13333
 382.62;  -17.600;  -12.533;    0.000;-5.06667
 382.91;    2.867;   -2.667;    0.000; 5.53333
 383.21;  -18.600;   -2.067;    0.000;-16.53333
 383.50;  -13.467;  -13.133;    0.000;-0.33333
 383.79;   -2.467;  -19.600;    0.000;17.13333
 384.08;    0.667;  -20.467;    0.000;21.13333
 384.37;  -28.800;  -20.000;    0.000;-8.80000
 384.66;    8.267;  -16.867;    0.000;25.13333
 384.95;   -2.867;   -5.000;    0.000; 2.13333
 385.24;    5.867;  -13.133;    0.000;19.00000
 385.53;   -8.000;  -11.800;    0.000; 3.80000
 385.83;  -17.867;   -2.400;    0.000;-15.46667
 386.12;   -0.133;  -12.467;    0.000;12.33333
 386.41;   -6.000;  -16.933;    0.000;10.93333
 386.70;  -22.733;  -12.933;    0.000;-9.80000
 386.99;  -12.067;  -20.533;    0.000; 8.46667
 387.28;   -6.667;    1.800;    0.000;-8.46667
 387.57;   -3.600;   -9.267;    0.000; 5.66667
 387.86;    5.333;   -3.333;    0.000; 8.66667
 388.15;   -1.467;  -25.200;    0.000;23.73333
 388.44;  -11.667;   -7.200;    0.000;-4.46667
 388.73;   -6.333;  -13.400;    0.000; 7.06667
 389.02;   -4.800;    3.467;    0.000;-8.26667
 389.31;   -7.933;  -10.667;    0.000; 2.73333
 389.61;  -22.400;  -10.667;    0.000;-11.73333
 389.90;    9.867;  -24.733;    0.000;34.60000
 390.19;   -7.200;   -9.733;    0.000; 2.53333
 390.48;   -2.200;  -27.600;    0.000;25.40000
 390.77;  -16.933;    6.467;    0.000;-23.40000
 391.06;  -14.200;   -7.800;    0.000;-6.40000
 391.35;  -28.067;  -22.800;    0.000;-5.26667
 391.64;   11.733;    1.133;    0.000;10.60000
 391.93;  -13.333;    0.000;    0.000;-13.33333
 392.22;    5.667;  -13.533;    0.000;19.20000
 392.51;  -14.267;  -10.933;    0.000;-3.33333
 392.80;    6.400;   -6.733;    0.000;13.13333
 393.09;  -12.467;  -27.333;    0.000;14.86667
 393.38;    2.067;  -14.467;    0.000;16.53333
 393.67;   -5.733;  -32.867;    0.000;27.13333
 393.96;   26.067;  -11.133;    0.000;37.20000
 394.25;    1.533;  -28.800;    0.000;30.33333
 394.54;    4.267;  -18.867;    0.000;23.13333
 394.83;  -14.333;  -16.333;    0.000; 2.00000
 395.13;  -16.467;  -12.333;    0.000;-4.13333
 395.42;  -20.533;  -11.733;    0.000;-8.80000
 395.71;    3.333;  -31.733;    0.000;35.06667
 396.00;  -11.800;  -13.667;    0.000; 1.86667
 396.29;    3.333;   -4.733;    0.000; 8.06667
 396.58;  -34.333;   -9.467;    0.000;-24.86667
 396.87;   21.133;    1.200;    0.000;19.93333
 397.16;  -22.933;  -10.133;    0.000;-12.80000
 397.45;    1.933;  -20.333;    0.000;22.26667
 397.74;   -6.667;  -15.200;    0.000; 8.53333
 398.03;   -9.600;  -30.000;    0.000;20.40000
 398.32;    1.400;  -18.733;    0.000;20.13333
 398.61;   -3.867;  -19.667;    0.000;15.80000
 398.90;   -8.800;  -10.733;    0.000; 1.93333
 399.19;   -7.733;  -27.000;    0.000;19.26667
 399.48;  -13.600;  -15.533;    0.000; 1.93333
 399.77;   -5.267;  -12.733;    0.000; 7.46667
 400.06;   -1.733;  -10.667;    0.000; 8.93333
 400.35;   -7.467;   -8.200;    0.000; 0.73333
 400.64;   -6.667;    6.733;    0.000;-13.40000
 400.93;   -6.267;  -24.533;    0.000;18.26667
 401.22;  -16.400;   -5.467;    0.000;-10.93333
 401.51;   -2.400;  -10.600;    0.000; 8.20000
 401.80;  -14.933;  -23.667;    0.000; 8.73333
 402.09;    4.600;  -12.067;    0.000;16.66667
 402.38;  -13.600;  -16.667;    0.000; 3.06667
 402.67;  -16.933;    6.600;    0.000;-23.53333
 402.96;    1.000;  -22.933;    0.000;23.93333
 403.25;    2.533;  -26.200;    0.000;28.73333
 403.54;  -36.800;  -16.467;    0.000;-20.33333
 403.83;    5.733;   -0.200;    0.000; 5.93333
 404.12;   -6.467;  -10.000;    0.000; 3.53333
 404.41;   -8.933;  -15.067;    0.000; 6.13333
 404.70;   -8.000;    0.533;    0.000;-8.53333
 404.98;   -1.200;   -0.333;    0.000;-0.86667
 405.27;   -8.267;  -23.267;    0.000;15.00000
 405.56;    4.733;   -3.867;    0.000; 8.60000
 405.85;  -31.733;  -32.400;    0.000; 0.66667
 406.14;   -1.267;  -28.400;    0.000;27.13333
 406.43;    4.400;  -25.933;    0.000;30.33333
 406.72;   -9.333;   -6.400;    0.000;-2.93333
 407.01;  -18.200;  -17.733;    0.000;-0.46667
 407.30;   -0.667;  -23.733;    0.000;23.06667
 407.59;  -15.467;  -14.200;    0.000;-1.26667
 407.88;   -6.667;  -23.067;    0.000;16.40000
 408.17;   -2.133;   -4.600;    0.000; 2.46667
 408.46;   -3.533;   -9.933;    0.000; 6.40000
 408.75;    4.933;   -1.533;    0.000; 6.46667
 409.04;  -14.933;  -16.533;    0.000; 1.60000
 409.33;   -3.867;  -28.200;    0.000;24.33333
 409.62;    1.733;  -19.267;    0.000;21.00000
 409.91;  -22.800;  -12.400;    0.000;-10.40000
 410.20;    5.533;  -31.000;    0.000;36.53333
 410.48;   -2.733;   -4.467;    0.000; 1.73333
 410.77;    1.333;  -27.000;    0.000;28.33333
 411.06;   -3.067;  -23.000;    0.000;19.93333
 411.35;   15.400;    5.667;    0.000; 9.73333
 411.64;  -11.467;   -7.933;    0.000;-3.53333
 411.93;    7.267;  -26.000;    0.000;33.26667
 412.22;  -32.133;  -21.533;    0.000;-10.60000
 412.51;  -21.133;   -4.467;    0.000;-16.66667
 412.80;   -4.600;    2.467;    0.000;-7.06667
 413.09;  -21.333;  -26.667;    0.000; 5.33333
 413.38;   -8.133;    3.067;    0.000;-11.20000
 413.67;  -18.000;  -30.467;    0.000;12.46667
 413.96;  -22.933;  -31.400;    0.000; 8.46667
 414.24;    1.133;   -9.733;    0.000;10.86667
 414.53;    0.133;    5.933;    0.000;-5.80000
 414.82;   -3.000;    2.000;    0.000;-5.00000
 415.11;   -0.533;   11.667;    0.000;-12.20000
 415.40;   10.267;  -18.067;    0.000;28.33333
 415.69;  -21.667;   -9.733;    0.000;-11.93333
 415.98;  -25.733;   -1.600;    0.000;-24.13333
 416.27;  -10.667;  -16.267;    0.000; 5.60000
 416.56;    0.067;  -38.667;    0.000;38.73333
 416.84;  -21.933;   -7.600;    0.000;-14.33333
 417.13;    2.000;  -12.867;    0.000;14.86667
 417.42;   -1.933;   -7.067;    0.000; 5.13333
 417.71;   13.200;  -20.667;    0.000;33.86667
 418.00;  -17.200;  -17.733;    0.000; 0.53333
 418.29;  -15.000;  -14.600;    0.000;-0.40000
 418.58;   -8.067;  -36.267;    0.000;28.20000
 418.87;   -1.667;  -16.000;    0.000;14.33333
 419.15;  -23.733;  -19.800;    0.000;-3.93333
 419.44;    6.267;  -11.533;    0.000;17.80000
 419.73;  -13.800;  -24.200;    0.000;10.40000
 420.02;  -12.867;  -34.533;    0.000;21.66667
 420.31;  -14.800;   -7.800;    0.000;-7.00000
 420.60;   -1.533;   -0.667;    0.000;-0.86667
 420.89;  -18.000;  -25.200;    0.000; 7.20000
 421.18;  -16.200;  -17.533;    0.000; 1.33333
 421.46;  -16.067;  -29.267;    0.000;13.20000
 421.75;   -8.667;  -25.333;    0.000;16.66667
 422.04;  -15.067;  -29.333;    0.000;14.26667
 422.33;  -12.400;   -3.800;    0.000;-8.60000
 422.62;  -15.067;  -12.867;    0.000;-2.20000
 422.91;   -4.933;  -28.933;    0.000;24.00000
 423.19;  -28.600;  -30.533;    0.000; 1.93333
 423.48;    6.667;   -8.200;    0.000;14.86667
 423.77;  -17.867;  -16.533;    0.000;-1.33333
 424.06;  -16.867;  -32.667;    0.000;15.80000
 424.35;  -28.533;  -29.533;    0.000; 1.00000
 424.64;   -6.667;  -11.667;    0.000; 5.00000
 424.93;  -16.200;  -10.267;    0.000;-5.93333
 425.21;    2.600;  -34.267;    0.000;36.86667
 425.50;   -6.200;  -15.733;    0.000; 9.53333
 425.79;  -22.867;  -21.533;    0.000;-1.33333
 426.08;   -5.200;  -24.467;    0.000;19.26667
 426.37;    3.933;   -5.533;    0.000; 9.46667
 426.65;  -10.800;   -9.733;    0.000;-1.06667
 426.94;   -6.267;  -21.000;    0.000;14.73333
 427.23;   -1.933;  -24.133;    0.000;22.20000
 427.52;  -14.467;  -27.333;    0.000;12.86667
 427.81;  -12.667;  -22.067;    0.000; 9.40000
 428.10;    5.467;   -2.667;    0.000; 8.13333
 428.38;  -39.267;  -44.067;    0.000; 4.80000
 428.67;    2.467;  -13.733;    0.000;16.20000
 428.96;  -21.067;  -38.867;    0.000;17.80000
 429.25;   -9.733;   -4.400;    0.000;-5.33333
 429.54;  -10.733;  -29.933;    0.000;19.20000
 429.82;   -1.200;   -8.533;    0.000; 7.33333
 430.11;  -13.333;    5.867;    0.000;-19.20000
 430.40;   -2.400;   -2.400;    0.000; 0.00000
 430.69;  -19.067;  -11.200;    0.000;-7.86667
 430.98;    1.200;  -23.667;    0.000;24.86667
 431.26;  -13.200;  -13.867;    0.000; 0.66667
 431.55;    0.467;   -3.400;    0.000; 3.86667
 431.84;  -14.333;  -21.000;    0.000; 6.66667
 432.13;   -8.667;  -11.267;    0.000; 2.60000
 432.41;  -33.933;  -24.200;    0.000;-9.73333
 432.70;  -10.400;  -20.200;    0.000; 9.80000
 432.99;  -17.800;  -17.533;    0.000;-0.26667
 433.28;    0.800;  -16.933;    0.000;17.73333
 433.57;  -16.800;  -16.867;    0.000; 0.06667
 433.85;    0.467;  -10.267;    0.000;10.73333
 434.14;  -19.600;   -4.267;    0.000;-15.33333
 434.43;   20.333;  -14.400;    0.000;34.73333
 434.72;  -32.267;  -18.600;    0.000;-13.66667
 435.00;  -23.000;   -6.200;    0.000;-16.80000
 435.29;  -16.267;  -15.933;    0.000;-0.33333
 435.58;    5.933;   -0.067;    0.000; 6.00000
 435.87;  -14.133;   -7.533;    0.000;-6.60000
 436.15;   -8.933;  -29.000;    0.000;20.06667
 436.44;    1.867;  -13.200;    0.000;15.06667
 436.73;   -7.533;  -17.133;    0.000; 9.60000
 437.02;   -4.267;  -12.267;    0.000; 8.00000
 437.30;   -5.467;  -12.200;    0.000; 6.73333
 437.59;  -16.000;  -14.933;    0.000;-1.06667
 437.88;  -16.333;  -27.667;    0.000;11.33333
 438.17;   -3.933;  -28.000;    0.000;24.06667
 438.45;  -12.267;  -13.267;    0.000; 1.00000
 438.74;  -15.467;  -10.533;    0.000;-4.93333
 439.03;  -25.533;  -16.933;    0.000;-8.60000
 439.32;  -27.267;   -0.133;    0.000;-27.13333
 439.60;  -13.533;  -37.000;    0.000;23.46667
 439.89;  -20.000;  -11.200;    0.000;-8.80000
 440.18;  -25.067;   -8.200;    0.000;-16.86667
 440.46;  -15.600;  -26.800;    0.000;11.20000
 440.75;    9.267;  -19.133;    0.000;28.40000
 441.04;  -27.000;  -17.400;    0.000;-9.60000
 441.33;  -15.933;  -25.000;    0.000; 9.06667
 441.61;  -28.333;  -16.467;    0.000;-11.86667
 441.90;    7.133;  -10.267;    0.000;17.40000
 442.19;   -7.800;  -40.133;    0.000;32.33333
 442.47;   20.000;  -10.667;    0.000;30.66667
 442.76;   -9.267;  -27.267;    0.000;18.00000
 443.05;   -9.400;  -13.467;    0.000; 4.06667
 443.34;  -20.800;  -29.267;    0.000; 8.46667
 443.62;  -13.333;  -16.333;    0.000; 3.00000
 443.91;  -22.733;  -30.600;    0.000; 7.86667
 444.20;   -4.067;   -2.067;    0.000;-2.00000
 444.48;  -39.400;  -20.600;    0.000;-18.80000
 444.77;    5.600;  -12.200;    0.000;17.80000
 445.06;  -18.467;  -28.733;    0.000;10.26667
 445.34;  -14.267;  -19.200;    0.000; 4.93333
 445.63;  -10.333;  -32.333;    0.000;22.00000
 445.92;    9.400;    6.733;    0.000; 2.66667
 446.21;   -2.600;   -4.533;    0.000; 1.93333
 446.49;   -9.133;  -22.600;    0.000;13.46667
 446.78;  -16.600;   -2.867;    0.000;-13.73333
 447.07;  -23.667;  -26.067;    0.000; 2.40000
 447.35;  -29.000;  -17.200;    0.000;-11.80000
 447.64;    1.000;  -19.267;    0.000;20.26667
 447.93;  -19.467;  -10.133;    0.000;-9.33333
 448.21;  -20.933;  -11.400;    0.000;-9.53333
 448.50;  -32.000;    1.933;    0.000;-33.93333
 448.79;  -11.933;   -7.267;    0.000;-4.66667
 449.07;   -1.600;  -19.667;    0.000;18.06667
 449.36;   17.600;  -32.133;    0.000;49.73334
 449.65;  -16.533;  -27.000;    0.000;10.46667
 449.93;    2.867;  -13.200;    0.000;16.06667
 450.22;  -18.133;  -10.067;    0.000;-8.06667
 450.51;   -9.667;  -36.933;    0.000;27.26667
 450.79;  -21.533;  -24.267;    0.000; 2.73333
 451.08;   11.933;  -18.000;    0.000;29.93333
 451.36;  -23.867;  -16.533;    0.000;-7.33333
 451.65;   -5.133;  -11.267;    0.000; 6.13333
 451.94;  -27.133;  -22.400;    0.000;-4.73333
 452.22;  -27.867;  -16.533;    0.000;-11.33333
 452.51;  -17.000;   -6.400;    0.000;-10.60000
 452.80;  -15.333;  -17.333;    0.000; 2.00000
 453.08;  -13.733;  -30.000;    0.000;16.26667
 453.37;    0.667;   -1.267;    0.000; 1.93333
 453.66;  -44.267;  -25.933;    0.000;-18.33333
 453.94;    6.133;  -22.667;    0.000;28.80000
 454.23;  -26.600;  -12.867;    0.000;-13.73333
 454.51;  -15.400;    6.200;    0.000;-21.60000
 454.80;  -41.533;   -8.933;    0.000;-32.60000
 455.09;    0.333;  -27.800;    0.000;28.13333
 455.37;  -15.333;    3.867;    0.000;-19.20000
 455.66;   -4.933;  -26.733;    0.000;21.80000
 455.95;   -7.667;  -10.000;    0.000; 2.33333
 456.23;   -6.600;   -9.800;    0.000; 3.20000
 456.52;  -19.600;  -28.867;    0.000; 9.26667
 456.80;   -8.733;  -19.933;    0.000;11.20000
 457.09;  -10.000;  -14.933;    0.000; 4.93333
 457.38;   -6.333;  -15.400;    0.000; 9.06667
 457.66;  -20.867;  -12.000;    0.000;-8.86667
 457.95;   -4.400;  -26.867;    0.000;22.46667
 458.23;  -26.933;  -16.133;    0.000;-10.80000
 458.52;  -10.667;  -23.467;    0.000;12.80000
 458.81;  -14.400;  -14.733;    0.000; 0.33333
 459.09;  -19.533;   -9.200;    0.000;-10.33333
 459.38;  -15.867;  -16.133;    0.000; 0.26667
 459.66;  -22.733;  -27.267;    0.000; 4.53333
 459.95;    4.267;  -29.133;    0.000;33.40000
 460.23;  -13.600;   -0.267;    0.000;-13.33333
 460.52;  -21.933;  -27.733;    0.000; 5.80000
 460.81;  -26.733;  -15.067;    0.000;-11.66667
 461.09;  -18.333;  -25.600;    0.000; 7.26667
 461.38;  -23.867;  -19.333;    0.000;-4.53333
 461.66;  -23.533;  -25.000;    0.000; 1.46667
 461.95;  -12.333;  -13.400;    0.000; 1.06667
 462.23;   -7.333;  -27.133;    0.000;19.80000
 462.52;  -28.467;  -35.933;    0.000; 7.46667
 462.81;  -21.067;  -28.667;    0.000; 7.60000
 463.09;  -12.533;  -41.667;    0.000;29.13333
 463.38;  -20.600;   -7.533;    0.000;-13.06667
 463.66;  -21.533;  -18.933;    0.000;-2.60000
 463.95;  -13.200;  -17.133;    0.000; 3.93333
 464.23;    2.267;  -19.400;    0.000;21.66667
 464.52;   -9.267;   -7.133;    0.000;-2.13333
 464.80;   -7.667;  -33.333;    0.000;25.66667
 465.09;  -12.267;  -11.733;    0.000;-0.53333
 465.38;  -14.867;  -27.067;    0.000;12.20000
 465.66;  -14.267;  -25.733;    0.000;11.46667
 465.95;  -12.200;  -32.133;    0.000;19.93334
 466.23;  -10.467;   -8.467;    0.000;-2.00000
 466.52;  -11.067;  -31.200;    0.000;20.13333
 466.80;    7.067;   -1.533;    0.000; 8.60000
 467.09;  -16.067;  -19.267;    0.000; 3.20000
 467.37;   -0.067;  -20.667;    0.000;20.60000
 467.66;    1.933;  -14.933;    0.000;16.86667
 467.94;  -13.733;  -17.933;    0.000; 4.20000
 468.23;  -11.200;   -7.000;    0.000;-4.20000
 468.51;  -12.000;    6.867;    0.000;-18.86667
 468.80;  -12.133;  -37.867;    0.000;25.73333
 469.08;  -13.800;   -5.400;    0.000;-8.40000
 469.37;  -10.933;  -31.733;    0.000;20.80000
 469.66;  -16.000;  -10.933;    0.000;-5.06667
 469.94;  -28.200;  -26.933;    0.000;-1.26667
 470.23;    3.733;  -12.267;    0.000;16.00000
 470.51;  -13.533;  -24.800;    0.000;11.26667
 470.80;  -12.533;   -1.000;    0.000;-11.53333
 471.08;   -9.267;  -32.600;    0.000;23.33333
 471.37;   -0.400;  -23.133;    0.000;22.73333
 471.65;   -1.733;  -20.067;    0.000;18.33333
 471.94;  -27.000;  -35.333;    0.000; 8.33333
 472.22;   -7.800;  -27.333;    0.000;19.53333
 472.51;    3.467;  -18.733;    0.000;22.20000
 472.79;  -16.267;  -22.667;    0.000; 6.40000
 473.08;  -16.733;  -10.600;    0.000;-6.13333
 473.36;  -16.133;  -13.333;    0.000;-2.80000
 473.64;   -9.933;  -12.667;    0.000; 2.73333
 473.93;  -23.667;  -45.933;    0.000;22.26667
 474.21;  -24.600;  -34.267;    0.000; 9.66667
 474.50;  -36.200;  -14.200;    0.000;-22.00000
 474.78;  -13.267;    2.867;    0.000;-16.13333
 475.07;  -13.333;  -25.133;    0.000;11.80000
 475.35;  -14.467;  -12.400;    0.000;-2.06667
 475.64;  -15.200;  -35.800;    0.000;20.60000
 475.92;  -13.067;  -18.267;    0.000; 5.20000
 476.21;  -17.200;  -48.467;    0.000;31.26667
 476.49;   -1.867;  -20.267;    0.000;18.40000
 476.78;  -21.000;  -10.400;    0.000;-10.60000
 477.06;  -23.933;  -14.067;    0.000;-9.86667
 477.35;  -11.800;  -21.667;    0.000; 9.86667
 477.63;  -16.333;  -24.067;    0.000; 7.73333
 477.91;    7.067;  -36.000;    0.000;43.06667
 478.20;  -11.200;  -21.667;    0.000;10.46667
 478.48;   22.200;    1.667;    0.000;20.53333
 478.77;   -6.000;  -30.667;    0.000;24.66667
 479.05;   -7.667;  -41.600;    0.000;33.93333
 479.34;  -21.200;  -23.267;    0.000; 2.06667
 479.62;  -14.800;  -38.733;    0.000;23.93333
 479.91;  -12.600;  -13.333;    0.000; 0.73333
 480.19;   10.267;   -9.467;    0.000;19.73333
 480.47;  -26.200;  -29.733;    0.000; 3.53333
 480.76;   -1.467;  -50.333;    0.000;48.86667
 481.04;  -19.600;  -16.933;    0.000;-2.66667
 481.33;   -6.467;   -1.133;    0.000;-5.33333
 481.61;   -8.267;  -12.067;    0.000; 3.80000
 481.90;  -15.400;  -21.333;    0.000; 5.93333
 482.18;  -28.000;  -26.600;    0.000;-1.40000
 482.46;   -1.267;  -22.867;    0.000;21.60000
 482.75;  -29.467;  -25.400;    0.000;-4.06667
 483.03;   -6.200;  -30.267;    0.000;24.06667
 483.32;  -24.200;  -45.200;    0.000;21.00000
 483.60;   -0.200;  -27.000;    0.000;26.80000
 483.88;  -25.733;  -24.200;    0.000;-1.53333
 484.17;   -3.133;  -13.533;    0.000;10.40000
 484.45;  -16.333;  -28.267;    0.000;11.93333
 484.74;   -4.400;  -40.400;    0.000;36.00000
 485.02;  -13.733;   -2.800;    0.000;-10.93333
 485.30;    8.867;  -25.533;    0.000;34.40000
 485.59;    1.533;  -57.333;    0.000;58.86667
 485.87;    8.000;  -13.667;    0.000;21.66667
 486.16;  -12.800;  -24.000;    0.000;11.20000
 486.44;   -9.200;  -33.533;    0.000;24.33333
 486.72;   -5.000;  -23.267;    0.000;18.26667
 487.01;   11.133;  -40.867;    0.000;52.00000
 487.29;    1.600;  -10.400;    0.000;12.00000
 487.58;   -1.333;  -12.467;    0.000;11.13333
 487.86;    8.267;  -26.000;    0.000;34.26667
 488.14;    4.600;  -25.067;    0.000;29.66667
 488.43;    9.000;  -20.133;    0.000;29.13333
 488.71;   26.733;  -11.467;    0.000;38.20000
 488.99;    7.267;   -9.400;    0.000;16.66667
 489.28;   19.667;  -34.467;    0.000;54.13333
 489.56;   32.267;  -15.267;    0.000;47.53333
 489.85;   15.400;  -31.600;    0.000;47.00000
 490.13;   27.933;  -28.600;    0.000;56.53333
 490.41;   58.267;  -14.733;    0.000;73.00000
 490.70;   53.867;  -21.400;    0.000;75.26666
 490.98;   70.933;  -39.400;    0.000;110.33334
 491.26;   55.267;  -27.133;    0.000;82.40000
 491.55;   76.667;  -28.067;    0.000;104.73333
 491.83;   61.400;  -30.133;    0.000;91.53333
 492.11;  106.133;  -30.467;    0.000;136.60000
 492.40;  100.333;  -14.600;    0.000;114.93334
 492.68;  135.000;  -22.333;    0.000;157.33333
 492.96;  138.333;  -32.133;    0.000;170.46666
 493.25;  155.933;  -23.267;    0.000;179.20000
 493.53;  176.800;  -17.667;    0.000;194.46667
 493.81;  159.667;  -42.667;    0.000;202.33334
 494.10;  201.133;  -42.467;    0.000;243.60000
 494.38;  243.933;  -37.733;    0.000;281.66667
 494.66;  261.800;  -12.867;    0.000;274.66665
 494.95;  294.333;  -26.000;    0.000;320.33334
 495.23;  340.800;   -7.933;    0.000;348.73332
 495.51;  335.467;  -10.867;    0.000;346.33334
 495.80;  375.667;  -34.067;    0.000;409.73332
 496.08;  420.400;    3.400;    0.000;416.99999
 496.36;  488.400;   -5.867;    0.000;494.26666
 496.65;  490.267;  -15.067;    0.000;505.33333
 496.93;  535.933;   -8.467;    0.000;544.40002
 497.21;  556.733;  -46.667;    0.000;603.40001
 497.50;  624.333;   -9.600;    0.000;633.93331
 497.78;  644.267;  -32.000;    0.000;676.26666
 498.06;  673.400;  -32.733;    0.000;706.13336
 498.34;  751.400;  -25.067;    0.000;776.46669
 498.63;  781.267;  -34.667;    0.000;815.93333
 498.91;  842.667;  -20.067;    0.000;862.73335
 499.19;  894.333;  -33.800;    0.000;928.13331
 499.48;  977.600;  -31.467;    0.000;1009.06664
 499.76; 1024.733;   -4.533;    0.000;1029.26661
 500.04; 1085.067;  -35.867;    0.000;1120.93332
 500.32; 1148.400;  -14.000;    0.000;1162.40002
 500.61; 1245.533;  -29.133;    0.000;1274.66666
 500.89; 1269.600;  -24.733;    0.000;1294.33331
 501.17; 1399.333;  -13.533;    0.000;1412.86671
 501.46; 1415.000;  -10.867;    0.000;1425.86667
 501.74; 1515.000;  -28.533;    0.000;1543.53333
 502.02; 1589.467;    0.867;    0.000;1588.60001
 502.30; 1672.000;  -20.800;    0.000;1692.80000
 502.59; 1713.067;  -19.533;    0.000;1732.59998
 502.87; 1842.067;  -38.067;    0.000;1880.13332
 503.15; 1942.467;  -39.733;    0.000;1982.20001
 503.43; 1979.667;  -29.867;    0.000;2009.53329
 503.72; 2059.133;  -33.867;    0.000;2092.99997
 504.00; 2217.400;  -34.067;    0.000;2251.46657
 504.28; 2295.333;  -26.733;    0.000;2322.06659
 504.56; 2414.533;  -31.600;    0.000;2446.13345
 504.85; 2453.800;  -20.533;    0.000;2474.33338
 505.13; 2590.600;  -27.333;    0.000;2617.93343
 505.41; 2696.933;  -26.333;    0.000;2723.26668
 505.69; 2833.133;  -13.467;    0.000;2846.59997
 505.98; 2930.467;  -13.267;    0.000;2943.73322
 506.26; 3034.067;  -33.133;    0.000;3067.19999
 506.54; 3085.200;  -28.000;    0.000;3113.19995
 506.82; 3244.933;  -24.600;    0.000;3269.53335
 507.11; 3331.733;   -3.800;    0.000;3335.53340
 507.39; 3471.200;  -29.533;    0.000;3500.73328
 507.67; 3607.867;  -25.733;    0.000;3633.60003
 507.95; 3719.267;  -31.000;    0.000;3750.26660
 508.23; 3826.400;  -38.400;    0.000;3864.79990
 508.52; 3916.600;  -20.067;    0.000;3936.66677
 508.80; 4064.200;  -18.467;    0.000;4082.66662
 509.08; 4206.200;  -27.067;    0.000;4233.26686
 509.36; 4310.067;   -8.667;    0.000;4318.73356
 509.65; 4446.200;  -20.333;    0.000;4466.53353
 509.93; 4568.133;  -28.067;    0.000;4596.19997
 510.21; 4631.067;  -12.467;    0.000;4643.53356
 510.49; 4750.200;  -18.067;    0.000;4768.26686
 510.77; 4864.600;  -32.933;    0.000;4897.53343
 511.06; 5027.067;  -41.400;    0.000;5068.46690
 511.34; 5196.733;   -9.267;    0.000;5206.00006
 511.62; 5280.267;   -9.533;    0.000;5289.79994
 511.90; 5439.867;  -30.133;    0.000;5470.00003
 512.18; 5599.333;   -8.333;    0.000;5607.66683
 512.47; 5699.667;  -28.133;    0.000;5727.79984
 512.75; 5769.400;  -11.067;    0.000;5780.46657
 513.03; 5894.600;  -10.267;    0.000;5904.86676
 513.31; 6091.667;  -43.867;    0.000;6135.53317
 513.59; 6242.533;  -23.000;    0.000;6265.53320
 513.87; 6286.000;  -11.000;    0.000;6297.00000
 514.16; 6375.533;  -27.333;    0.000;6402.86654
 514.44; 6556.533;  -23.400;    0.000;6579.93320
 514.72; 6642.200;  -40.333;    0.000;6682.53353
 515.00; 6853.867;   -5.467;    0.000;6859.33337
 515.28; 6877.400;  -30.933;    0.000;6908.33323
 515.56; 6954.133;  -17.133;    0.000;6971.26663
 515.85; 7118.400;  -21.200;    0.000;7139.59990
 516.13; 7249.267;  -16.200;    0.000;7265.46660
 516.41; 7331.000;  -50.467;    0.000;7381.46667
 516.69; 7528.267;  -20.533;    0.000;7548.79993
 516.97; 7699.667;   -2.733;    0.000;7702.39984
 517.25; 7743.733;  -22.267;    0.000;7766.00006
 517.54; 7826.667;  -30.000;    0.000;7856.66650
 517.82; 7946.467;  -31.000;    0.000;7977.46680
 518.10; 8124.400;  -10.600;    0.000;8134.99990
 518.38; 8175.533;  -16.400;    0.000;8191.93320
 518.66; 8240.866;   -7.933;    0.000;8248.79954
 518.94; 8457.134;  -20.133;    0.000;8477.26712
 519.22; 8512.467;  -13.000;    0.000;8525.46680
 519.51; 8620.800;   10.000;    0.000;8610.79980
 519.79; 8697.000;  -17.533;    0.000;8714.53333
 520.07; 8745.134;  -16.067;    0.000;8761.20046
 520.35; 8886.533;  -29.467;    0.000;8915.99987
 520.63; 8974.000;  -20.000;    0.000;8994.00000
 520.91; 9076.200;  -27.867;    0.000;9104.06686
 521.19; 9198.733;  -34.400;    0.000;9233.13340
 521.47; 9362.866;  -16.867;    0.000;9379.73288
 521.75; 9418.467;  -26.133;    0.000;9444.60013
 522.04; 9551.733;  -21.333;    0.000;9573.06673
 522.32; 9601.066;  -36.867;    0.000;9637.93307
 522.60; 9629.000;  -30.933;    0.000;9659.93333
 522.88; 9716.934;  -24.267;    0.000;9741.20026
 523.16; 9832.134;  -42.667;    0.000;9874.80046
 523.44; 9908.467;  -20.867;    0.000;9929.33346
 523.72; 9966.134;  -24.400;    0.000;9990.53379
 524.00;10077.600;  -13.733;    0.000;10091.33294
 524.28;10173.467;  -11.667;    0.000;10185.13346
 524.57;10325.400;  -14.000;    0.000;10339.40039
 524.85;10382.800;  -31.600;    0.000;10414.39981
 525.13;10480.200;   -3.933;    0.000;10484.13353
 525.41;10573.600;  -35.533;    0.000;10609.13294
 525.69;10471.800;  -23.133;    0.000;10494.93314
 525.97;10657.467;  -10.467;    0.000;10667.93346
 526.25;10617.733;  -24.800;    0.000;10642.53340
 526.53;10888.000;  -41.467;    0.000;10929.46667
 526.81;10890.866;  -43.667;    0.000;10934.53288
 527.09;10874.134;    1.000;    0.000;10873.13379
 527.37;11034.600;  -13.333;    0.000;11047.93294
 527.65;11075.267;  -28.200;    0.000;11103.46660
 527.93;11104.134;  -33.067;    0.000;11137.20045
 528.22;11261.667;  -25.733;    0.000;11287.40033
 528.50;11246.333;  -23.067;    0.000;11269.39968
 528.78;11363.333;  -35.733;    0.000;11399.06634
 529.06;11425.600;  -14.800;    0.000;11440.39961
 529.34;11382.667;  -35.133;    0.000;11417.80033
 529.62;11504.934;  -19.933;    0.000;11524.86693
 529.90;11589.600;  -17.200;    0.000;11606.79961
 530.18;11630.134;    8.533;    0.000;11621.60046
 530.46;11789.267;  -13.333;    0.000;11802.59993
 530.74;11714.866;   -3.333;    0.000;11718.19954
 531.02;11820.800;  -20.133;    0.000;11840.93314
 531.30;11821.800;  -11.467;    0.000;11833.26647
 531.58;11899.667;  -21.933;    0.000;11921.60032
 531.86;11929.934;   -6.467;    0.000;11936.40026
 532.14;12011.667;  -28.667;    0.000;12040.33366
 532.42;12186.267;  -19.800;    0.000;12206.06660
 532.70;12105.934;  -16.733;    0.000;12122.66693
 532.98;12155.400;   -9.867;    0.000;12165.26706
 533.26;12260.533;  -23.533;    0.000;12284.06654
 533.54;12262.733;   -9.067;    0.000;12271.80007
 533.82;12384.800;  -39.467;    0.000;12424.26647
 534.10;12273.733;  -23.533;    0.000;12297.26673
 534.38;12398.134;  -44.267;    0.000;12442.40046
 534.66;12456.267;  -21.267;    0.000;12477.53327
 534.94;12486.533;  -11.467;    0.000;12497.99987
 535.22;12590.200;  -18.267;    0.000;12608.46686
 535.50;12643.533;  -22.600;    0.000;12666.13320
 535.78;12657.866;  -21.933;    0.000;12679.79954
 536.06;12684.533;  -16.533;    0.000;12701.06654
 536.34;12791.200;  -14.600;    0.000;12805.80020
 536.62;12625.000;  -26.733;    0.000;12651.73333
 536.90;12876.333;  -11.867;    0.000;12888.19967
 537.18;12942.134;  -16.667;    0.000;12958.80046
 537.46;12800.667;  -27.867;    0.000;12828.53366
 537.74;12976.800;  -36.200;    0.000;13012.99981
 538.02;12966.333;  -19.800;    0.000;12986.13301
 538.30;13071.066;  -10.533;    0.000;13081.59974
 538.58;13065.533;  -33.733;    0.000;13099.26654
 538.86;13189.467;   -2.267;    0.000;13191.73346
 539.14;13086.934;  -26.667;    0.000;13113.60026
 539.42;13306.667;   -6.000;    0.000;13312.66699
 539.70;13191.467;  -13.933;    0.000;13205.40013
 539.98;13176.733;  -11.067;    0.000;13187.80007
 540.26;13181.733;  -38.400;    0.000;13220.13340
 540.54;13232.333;  -39.333;    0.000;13271.66634
 540.82;13335.467;  -21.133;    0.000;13356.60013
 541.10;13353.066;  -28.733;    0.000;13381.79974
 541.38;13574.066;   -5.867;    0.000;13579.93307
 541.66;13382.600;  -23.200;    0.000;13405.79961
 541.94;13523.733;  -26.200;    0.000;13549.93340
 542.22;13554.333;  -32.267;    0.000;13586.59967
 542.50;13512.333;  -34.133;    0.000;13546.46634
 542.78;13657.400;  -28.000;    0.000;13685.40039
 543.06;13669.400;  -27.867;    0.000;13697.26706
 543.34;13694.934;  -34.333;    0.000;13729.26693
 543.62;13618.866;  -18.867;    0.000;13637.73288
 543.90;13668.066;  -16.733;    0.000;13684.79974
 544.17;13706.733;  -32.067;    0.000;13738.80006
 544.45;13782.400;  -34.933;    0.000;13817.33372
 544.73;13912.333;    3.533;    0.000;13908.79967
 545.01;13731.800;  -33.000;    0.000;13764.79980
 545.29;13766.533;  -26.667;    0.000;13793.19987
 545.57;13907.533;  -20.000;    0.000;13927.53320
 545.85;13849.600;  -18.467;    0.000;13868.06628
 546.13;13820.200;  -32.667;    0.000;13852.86686
 546.41;13979.866;  -30.400;    0.000;14010.26621
 546.69;14042.866;  -21.400;    0.000;14064.26621
 546.97;13914.866;  -38.467;    0.000;13953.33288
 547.25;13981.333;  -31.667;    0.000;14012.99967
 547.52;14021.600;  -20.933;    0.000;14042.53294
 547.80;14040.467;  -19.800;    0.000;14060.26680
 548.08;14038.934;  -16.533;    0.000;14055.46693
 548.36;13973.200;  -24.133;    0.000;13997.33353
 548.64;14036.400;  -14.133;    0.000;14050.53372
 548.92;14087.267;  -20.867;    0.000;14108.13327
 549.20;14161.467;   -5.067;    0.000;14166.53346
 549.48;14113.400;   -7.667;    0.000;14121.06706
 549.76;14072.800;   -8.867;    0.000;14081.66647
 550.04;14109.866;  -31.133;    0.000;14140.99954
 550.31;14184.333;  -20.133;    0.000;14204.46634
 550.59;14093.667;  -35.533;    0.000;14129.20033
 550.87;14046.800;  -23.067;    0.000;14069.86647
 551.15;14147.200;   -9.733;    0.000;14156.93353
 551.43;14179.733;  -14.667;    0.000;14194.40007
 551.71;14215.866;  -29.667;    0.000;14245.53288
 551.99;14131.667;   -8.400;    0.000;14140.06699
 552.27;14259.134;  -38.267;    0.000;14297.40046
 552.54;14205.000;   -6.667;    0.000;14211.66667
 552.82;14210.733;  -19.200;    0.000;14229.93340
 553.10;14252.000;  -25.533;    0.000;14277.53333
 553.38;14234.934;   -9.933;    0.000;14244.86693
 553.66;14305.267;  -42.867;    0.000;14348.13327
 553.94;14324.533;  -23.200;    0.000;14347.73320
 554.22;14228.400;  -16.733;    0.000;14245.13372
 554.49;14208.934;  -28.533;    0.000;14237.46693
 554.77;14250.600;  -23.933;    0.000;14274.53294
 555.05;14331.267;   -9.133;    0.000;14340.39993
 555.33;14218.134;  -13.867;    0.000;14232.00046
 555.61;14222.600;  -11.267;    0.000;14233.86628
 555.89;14291.134;  -21.200;    0.000;14312.33379
 556.16;14242.934;  -23.400;    0.000;14266.33359
 556.44;14322.934;   -7.267;    0.000;14330.20026
 556.72;14191.000;  -11.200;    0.000;14202.20000
 557.00;14121.066;  -13.933;    0.000;14134.99974
 557.28;14385.134;   -9.867;    0.000;14395.00046
 557.56;14207.934;  -15.533;    0.000;14223.46693
 557.83;14274.134;  -11.267;    0.000;14285.40046
 558.11;14223.400;    1.067;    0.000;14222.33372
 558.39;14140.333;  -28.400;    0.000;14168.73301
 558.67;14171.533;   -8.333;    0.000;14179.86654
 558.95;14194.667;  -33.200;    0.000;14227.86699
 559.23;14296.467;  -15.000;    0.000;14311.46680
 559.50;14312.866;  -15.533;    0.000;14328.39954
 559.78;14179.733;    8.733;    0.000;14171.00006
 560.06;14110.267;  -13.133;    0.000;14123.39993
 560.34;14127.467;  -12.800;    0.000;14140.26680
 560.62;14166.066;  -28.733;    0.000;14194.79974
 560.89;14185.533;   -4.867;    0.000;14190.39987
 561.17;14171.400;  -27.600;    0.000;14199.00039
 561.45;14068.000;   -0.533;    0.000;14068.53333
 561.73;13992.934;  -26.267;    0.000;14019.20026
 562.00;14035.467;  -23.667;    0.000;14059.13346
 562.28;14047.467;  -24.867;    0.000;14072.33346
 562.56;14061.533;  -25.333;    0.000;14086.86654
 562.84;14024.000;  -18.533;    0.000;14042.53333
 563.12;13967.200;  -18.000;    0.000;13985.20020
 563.39;14037.934;  -25.533;    0.000;14063.46693
 563.67;14005.600;  -11.933;    0.000;14017.53294
 563.95;13894.667;  -12.400;    0.000;13907.06699
 564.23;13937.200;   13.067;    0.000;13924.13353
 564.50;13886.000;  -11.533;    0.000;13897.53333
 564.78;13989.400;  -11.467;    0.000;14000.86706
 565.06;13914.733;  -22.133;    0.000;13936.86673
 565.34;13859.200;   -8.467;    0.000;13867.66686
 565.61;13893.200;   -9.867;    0.000;13903.06686
 565.89;13802.267;   -9.667;    0.000;13811.93327
 566.17;13816.600;  -36.533;    0.000;13853.13294
 566.45;13703.267;  -10.333;    0.000;13713.59993
 566.73;13759.667;  -33.600;    0.000;13793.26699
 567.00;13688.066;  -34.133;    0.000;13722.19974
 567.28;13638.600;  -19.333;    0.000;13657.93294
 567.56;13633.800;  -21.933;    0.000;13655.73314
 567.83;13628.200;  -20.600;    0.000;13648.80020
 568.11;13534.866;  -26.333;    0.000;13561.19954
 568.39;13509.333;  -18.333;    0.000;13527.66634
 568.67;13562.733;   -8.267;    0.000;13571.00006
 568.94;13489.066;  -17.667;    0.000;13506.73307
 569.22;13572.667;  -18.600;    0.000;13591.26699
 569.50;13502.134;  -19.133;    0.000;13521.26712
 569.78;13368.000;    2.333;    0.000;13365.66667
 570.05;13364.400;  -11.067;    0.000;13375.46706
 570.33;13338.733;  -23.800;    0.000;13362.53340
 570.61;13297.467;  -14.800;    0.000;13312.26680
 570.88;13211.267;   -6.000;    0.000;13217.26660
 571.16;13168.866;  -15.600;    0.000;13184.46621
 571.44;13114.134;  -18.267;    0.000;13132.40046
 571.72;13148.866;  -21.333;    0.000;13170.19954
 571.99;13074.733;  -19.133;    0.000;13093.86673
 572.27;13127.533;  -27.133;    0.000;13154.66654
 572.55;12963.000;   -3.933;    0.000;12966.93333
 572.82;13005.000;  -28.733;    0.000;13033.73333
 573.10;12979.200;   -6.533;    0.000;12985.73353
 573.38;12828.000;  -38.067;    0.000;12866.06667
 573.65;12900.800;   19.800;    0.000;12880.99981
 573.93;12775.200;  -12.733;    0.000;12787.93353
 574.21;12694.000;   -0.600;    0.000;12694.60000
 574.48;12699.000;  -18.933;    0.000;12717.93333
 574.76;12704.667;  -19.667;    0.000;12724.33366
 575.04;12707.667;   -9.200;    0.000;12716.86699
 575.32;12606.934;  -16.933;    0.000;12623.86693
 575.59;12558.733;  -24.467;    0.000;12583.20007
 575.87;12534.267;  -26.400;    0.000;12560.66660
 576.15;12467.200;  -24.867;    0.000;12492.06686
 576.42;12358.333;   -8.933;    0.000;12367.26634
 576.70;12392.134;  -32.600;    0.000;12424.73379
 576.98;12310.866;   -6.000;    0.000;12316.86621
 577.25;12272.667;  -49.933;    0.000;12322.60033
 577.53;12210.533;   -0.933;    0.000;12211.46654
 577.80;12122.400;  -13.733;    0.000;12136.13372
 578.08;12038.667;  -31.800;    0.000;12070.46699
 578.36;12118.200;  -24.867;    0.000;12143.06686
 578.63;12033.066;  -31.000;    0.000;12064.06641
 578.91;11883.066;  -21.067;    0.000;11904.13307
 579.19;11852.467;  -19.000;    0.000;11871.46680
 579.46;11835.400;  -34.400;    0.000;11869.80039
 579.74;11930.333;  -27.333;    0.000;11957.66634
 580.02;11770.934;  -17.400;    0.000;11788.33359
 580.29;11623.866;  -13.333;    0.000;11637.19954
 580.57;11689.134;   -8.333;    0.000;11697.46712
 580.84;11668.267;  -18.400;    0.000;11686.66660
 581.12;11642.066;  -16.733;    0.000;11658.79974
 581.40;11465.533;  -18.533;    0.000;11484.06654
 581.67;11516.333;  -12.267;    0.000;11528.59967
 581.95;11343.667;  -27.867;    0.000;11371.53366
 582.23;11339.333;  -21.133;    0.000;11360.46634
 582.50;11227.600;  -15.933;    0.000;11243.53294
 582.78;11256.400;  -20.200;    0.000;11276.60039
 583.05;11206.467;  -24.867;    0.000;11231.33346
 583.33;11011.000;  -28.067;    0.000;11039.06667
 583.61;11048.267;   -1.533;    0.000;11049.79993
 583.88;11011.533;  -30.933;    0.000;11042.46654
 584.16;10936.134;   -7.600;    0.000;10943.73379
 584.43;10917.533;  -20.467;    0.000;10937.99987
 584.71;10970.800;  -21.400;    0.000;10992.19980
 584.99;10789.600;  -19.133;    0.000;10808.73294
 585.26;10688.134;   -4.400;    0.000;10692.53379
 585.54;10637.800;  -27.533;    0.000;10665.33314
 585.81;10595.000;  -35.200;    0.000;10630.20000
 586.09;10517.400;  -10.933;    0.000;10528.33372
 586.37;10511.134;  -20.267;    0.000;10531.40046
 586.64;10406.267;  -33.400;    0.000;10439.66660
 586.92;10354.000;  -39.000;    0.000;10393.00000
 587.19;10281.533;   -2.200;    0.000;10283.73320
 587.47;10239.866;  -15.000;    0.000;10254.86621
 587.74;10168.600;   -6.267;    0.000;10174.86628
 588.02;10055.066;  -27.000;    0.000;10082.06641
 588.30;10073.400;  -15.133;    0.000;10088.53372
 588.57; 9911.267;  -23.133;    0.000;9934.39993
 588.85; 9977.134;  -23.133;    0.000;10000.26712
 589.12; 9983.134;  -28.400;    0.000;10011.53379
 589.40; 9938.200;  -22.933;    0.000;9961.13353
 589.67; 9800.400;  -28.933;    0.000;9829.33372
 589.95; 9672.533;  -11.267;    0.000;9683.79987
 590.22; 9752.200;  -16.867;    0.000;9769.06686
 590.50; 9677.667;  -41.067;    0.000;9718.73366
 590.77; 9596.467;  -11.667;    0.000;9608.13346
 591.05; 9554.800;  -22.600;    0.000;9577.39981
 591.33; 9497.667;  -24.733;    0.000;9522.40033
 591.60; 9408.467;  -38.000;    0.000;9446.46680
 591.88; 9321.400;  -12.333;    0.000;9333.73372
 592.15; 9309.533;  -10.667;    0.000;9320.19987
 592.43; 9176.934;  -27.533;    0.000;9204.46693
 592.70; 9187.800;  -22.200;    0.000;9209.99981
 592.98; 9067.134;  -26.733;    0.000;9093.86712
 593.25; 8974.134;   -4.067;    0.000;8978.20046
 593.53; 9041.066;  -29.200;    0.000;9070.26641
 593.80; 8956.467;  -27.800;    0.000;8984.26680
 594.08; 8726.600;  -18.267;    0.000;8744.86628
 594.35; 8837.800;  -26.933;    0.000;8864.73314
 594.63; 8774.267;  -21.800;    0.000;8796.06660
 594.90; 8620.866;  -39.200;    0.000;8660.06621
 595.18; 8573.600;   -0.467;    0.000;8574.06628
 595.45; 8513.866;  -16.067;    0.000;8529.93288
 595.73; 8463.000;  -38.733;    0.000;8501.73333
 596.00; 8379.533;  -36.067;    0.000;8415.59987
 596.28; 8444.134;  -26.200;    0.000;8470.33379
 596.55; 8358.467;  -23.067;    0.000;8381.53346
 596.83; 8315.400;  -18.533;    0.000;8333.93372
 597.10; 8283.533;  -20.533;    0.000;8304.06654
 597.38; 8137.867;  -13.400;    0.000;8151.26670
 597.65; 8096.400;  -15.400;    0.000;8111.79990
 597.93; 8108.867;  -38.400;    0.000;8147.26670
 598.20; 8000.133;  -42.067;    0.000;8042.19997
 598.48; 7977.267;  -37.533;    0.000;8014.79993
 598.75; 7851.467;  -19.200;    0.000;7870.66680
 599.03; 7720.667;  -47.800;    0.000;7768.46650
 599.30; 7785.200;  -35.600;    0.000;7820.80019
 599.58; 7711.400;  -19.400;    0.000;7730.79990
 599.85; 7588.533;  -10.400;    0.000;7598.93320
 600.12; 7639.533;  -10.200;    0.000;7649.73320
 600.40; 7601.267;  -25.600;    0.000;7626.86660
 600.67; 7441.533;  -21.467;    0.000;7462.99987
 600.95; 7403.333;  -16.800;    0.000;7420.13350
 601.22; 7334.067;  -11.533;    0.000;7345.60023
 601.50; 7372.400;  -33.067;    0.000;7405.46657
 601.77; 7258.133;   -7.400;    0.000;7265.53330
 602.05; 7129.133;  -16.667;    0.000;7145.79997
 602.32; 7206.800;   -4.800;    0.000;7211.59980
 602.59; 7035.867;  -25.000;    0.000;7060.86670
 602.87; 7090.533;  -37.000;    0.000;7127.53320
 603.14; 6976.600;  -32.600;    0.000;7009.20010
 603.42; 6903.267;  -15.667;    0.000;6918.93327
 603.69; 6910.067;  -31.800;    0.000;6941.86689
 603.97; 6886.000;  -20.267;    0.000;6906.26667
 604.24; 6856.667;  -45.600;    0.000;6902.26650
 604.51; 6832.733;   -9.200;    0.000;6841.93340
 604.79; 6727.000;  -18.000;    0.000;6745.00000
 605.06; 6667.733;  -37.067;    0.000;6704.80006
 605.34; 6675.933;   -3.533;    0.000;6679.46644
 605.61; 6555.400;  -43.800;    0.000;6599.19990
 605.89; 6408.533;  -43.267;    0.000;6451.79987
 606.16; 6482.333;  -26.067;    0.000;6508.40016
 606.43; 6419.200;  -14.067;    0.000;6433.26686
 606.71; 6329.133;  -26.133;    0.000;6355.26663
 606.98; 6422.733;  -33.667;    0.000;6456.40007
 607.26; 6352.667;  -29.133;    0.000;6381.79984
 607.53; 6284.467;  -44.000;    0.000;6328.46680
 607.80; 6303.867;  -39.133;    0.000;6343.00003
 608.08; 6115.600;  -30.733;    0.000;6146.33343
 608.35; 6076.267;  -28.667;    0.000;6104.93327
 608.62; 6084.133;  -28.133;    0.000;6112.26663
 608.90; 6057.267;  -30.200;    0.000;6087.46660
 609.17; 5923.400;  -42.867;    0.000;5966.26657
 609.45; 5956.067;  -20.933;    0.000;5977.00023
 609.72; 5956.467;  -29.200;    0.000;5985.66680
 609.99; 5854.600;  -21.133;    0.000;5875.73343
 610.27; 5860.600;  -25.133;    0.000;5885.73343
 610.54; 5798.533;  -42.200;    0.000;5840.73320
 610.81; 5748.467;  -45.600;    0.000;5794.06680
 611.09; 5736.533;   -6.000;    0.000;5742.53320
 611.36; 5701.867;  -45.400;    0.000;5747.26670
 611.64; 5674.400;  -45.800;    0.000;5720.19990
 611.91; 5669.733;  -28.467;    0.000;5698.20007
 612.18; 5559.733;  -30.400;    0.000;5590.13340
 612.46; 5522.200;  -38.000;    0.000;5560.20020
 612.73; 5591.933;  -19.267;    0.000;5611.19977
 613.00; 5480.400;  -37.600;    0.000;5517.99990
 613.28; 5438.133;  -28.000;    0.000;5466.13330
 613.55; 5366.133;  -42.133;    0.000;5408.26664
 613.82; 5416.600;  -22.267;    0.000;5438.86676
 614.10; 5264.000;  -54.133;    0.000;5318.13334
 614.37; 5240.333;  -32.933;    0.000;5273.26683
 614.64; 5186.000;  -35.133;    0.000;5221.13334
 614.92; 5108.200;  -27.600;    0.000;5135.80020
 615.19; 5087.533;  -34.200;    0.000;5121.73320
 615.46; 4979.133;  -24.133;    0.000;5003.26663
 615.74; 4947.333;  -32.600;    0.000;4979.93349
 616.01; 4882.267;  -26.133;    0.000;4908.39993
 616.28; 4769.200;  -24.600;    0.000;4793.80020
 616.56; 4687.267;  -22.067;    0.000;4709.33327
 616.83; 4640.533;  -25.667;    0.000;4666.19987
 617.10; 4575.667;  -15.267;    0.000;4590.93317
 617.37; 4611.200;  -24.000;    0.000;4635.20020
 617.65; 4721.667;  -26.600;    0.000;4748.26650
 617.92; 4640.267;  -14.333;    0.000;4654.59993
 618.19; 4637.467;  -47.533;    0.000;4685.00013
 618.47; 4567.667;  -30.600;    0.000;4598.26650
 618.74; 4604.467;  -33.333;    0.000;4637.80013
 619.01; 4506.667;  -34.267;    0.000;4540.93317
 619.28; 4467.267;  -28.000;    0.000;4495.26660
 619.56; 4469.667;  -39.267;    0.000;4508.93317
 619.83; 4474.733;  -33.467;    0.000;4508.20007
 620.10; 4517.200;  -40.667;    0.000;4557.86686
 620.38; 4379.267;  -37.467;    0.000;4416.73327
 620.65; 4389.800;  -42.467;    0.000;4432.26647
 620.92; 4338.467;  -18.533;    0.000;4357.00013
 621.19; 4379.333;  -34.733;    0.000;4414.06683
 621.47; 4403.800;  -46.600;    0.000;4450.39980
 621.74; 4373.933;  -44.733;    0.000;4418.66644
 622.01; 4321.267;  -32.467;    0.000;4353.73327
 622.28; 4421.400;  -41.133;    0.000;4462.53324
 622.56; 4316.333;  -21.067;    0.000;4337.40016
 622.83; 4365.067;  -40.600;    0.000;4405.66689
 623.10; 4361.133;  -29.200;    0.000;4390.33330
 623.38; 4388.200;  -46.600;    0.000;4434.80019
 623.65; 4312.067;  -22.000;    0.000;4334.06689
 623.92; 4232.867;  -71.733;    0.000;4304.60003
 624.19; 4264.267;  -53.667;    0.000;4317.93327
 624.46; 4217.733;  -30.933;    0.000;4248.66673
 624.74; 4166.467;  -39.400;    0.000;4205.86680
 625.01; 4224.400;  -30.467;    0.000;4254.86657
 625.28; 4166.400;  -38.600;    0.000;4204.99990
 625.55; 4107.067;  -43.800;    0.000;4150.86689
 625.83; 4155.667;  -38.133;    0.000;4193.79984
 626.10; 4107.267;  -44.933;    0.000;4152.19994
 626.37; 4073.467;  -37.000;    0.000;4110.46655
 626.64; 4099.867;  -40.733;    0.000;4140.60003
 626.92; 4064.600;  -19.333;    0.000;4083.93343
 627.19; 4046.467;  -39.933;    0.000;4086.39989
 627.46; 3976.800;  -30.267;    0.000;4007.06672
 627.73; 4044.667;  -37.400;    0.000;4082.06675
 628.00; 3996.867;  -23.867;    0.000;4020.73337
 628.28; 3989.467;  -41.467;    0.000;4030.93322
 628.55; 3937.333;  -33.800;    0.000;3971.13325
 628.82; 3921.800;  -56.933;    0.000;3978.73338
 629.09; 3959.867;  -33.667;    0.000;3993.53337
 629.36; 3885.467;  -42.600;    0.000;3928.06655
 629.64; 3854.867;  -39.400;    0.000;3894.26670
 629.91; 3904.267;  -14.000;    0.000;3918.26660
 630.18; 3852.200;  -30.133;    0.000;3882.33328
 630.45; 3798.867;  -58.533;    0.000;3857.40003
 630.72; 3820.400;  -42.867;    0.000;3863.26657
 631.00; 3736.133;  -45.333;    0.000;3781.46663
 631.27; 3695.333;  -44.867;    0.000;3740.19992
 631.54; 3741.533;  -49.467;    0.000;3791.00011
 631.81; 3719.133;  -28.200;    0.000;3747.33330
 632.08; 3688.467;  -55.400;    0.000;3743.86655
 632.35; 3750.133;  -26.267;    0.000;3776.39997
 632.63; 3610.200;  -56.600;    0.000;3666.79995
 632.90; 3625.067;  -31.067;    0.000;3656.13332
 633.17; 3712.200;  -52.800;    0.000;3764.99995
 633.44; 3663.467;  -31.667;    0.000;3695.13322
 633.71; 3669.267;  -37.933;    0.000;3707.19994
 633.98; 3653.867;  -25.933;    0.000;3679.80003
 634.25; 3581.333;  -30.667;    0.000;3611.99992
 634.53; 3609.733;  -28.267;    0.000;3638.00006
 634.80; 3556.667;  -31.867;    0.000;3588.53341
 635.07; 3605.733;  -63.267;    0.000;3669.00006
 635.34; 3621.067;  -18.400;    0.000;3639.46665
 635.61; 3590.267;  -22.733;    0.000;3612.99994
 635.88; 3613.867;  -37.000;    0.000;3650.86670
 636.15; 3585.667;  -31.000;    0.000;3616.66675
 636.43; 3620.533;  -33.000;    0.000;3653.53345
 636.70; 3560.000;  -31.400;    0.000;3591.40000
 636.97; 3564.733;  -33.333;    0.000;3598.06673
 637.24; 3502.467;  -45.933;    0.000;3548.39989
 637.51; 3526.600;  -29.533;    0.000;3556.13343
 637.78; 3439.133;  -63.800;    0.000;3502.93330
 638.05; 3327.667;  -29.467;    0.000;3357.13342
 638.32; 3345.000;  -26.533;    0.000;3371.53333
 638.60; 3362.800;  -18.800;    0.000;3381.60005
 638.87; 3359.933;  -47.800;    0.000;3407.73335
 639.14; 3309.800;  -56.133;    0.000;3365.93338
 639.41; 3301.133;  -22.400;    0.000;3323.53330
 639.68; 3258.733;  -58.733;    0.000;3317.46673
 639.95; 3256.867;  -46.467;    0.000;3303.33337
 640.22; 3187.600;  -45.933;    0.000;3233.53343
 640.49; 3269.667;  -17.267;    0.000;3286.93341
 640.76; 3173.600;  -59.400;    0.000;3233.00010
 641.03; 3145.600;  -50.067;    0.000;3195.66676
 641.30; 3144.000;  -39.467;    0.000;3183.46667
 641.58; 3051.067;  -34.467;    0.000;3085.53332
 641.85; 3010.800;  -33.467;    0.000;3044.26672
 642.12; 2994.600;  -47.000;    0.000;3041.60010
 642.39; 2939.867;  -27.867;    0.000;2967.73337
 642.66; 2942.933;  -46.533;    0.000;2989.46668
 642.93; 2987.600;  -43.000;    0.000;3030.60010
 643.20; 2894.200;  -50.533;    0.000;2944.73328
 643.47; 2869.933;  -38.667;    0.000;2908.60002
 643.74; 2844.667;  -60.733;    0.000;2905.40008
 644.01; 2806.667;  -44.200;    0.000;2850.86675
 644.28; 2847.333;  -55.000;    0.000;2902.33325
 644.55; 2817.533;  -49.933;    0.000;2867.46678
 644.82; 2809.333;  -24.867;    0.000;2834.19992
 645.09; 2806.133;  -40.667;    0.000;2846.79997
 645.36; 2781.267;  -23.733;    0.000;2804.99994
 645.63; 2754.933;  -47.733;    0.000;2802.66668
 645.91; 2709.200;  -44.467;    0.000;2753.66662
 646.18; 2703.800;  -28.333;    0.000;2732.13338
 646.45; 2703.600;  -38.800;    0.000;2742.40010
 646.72; 2733.533;  -52.000;    0.000;2785.53345
 646.99; 2660.667;  -30.933;    0.000;2691.60008
 647.26; 2675.133;  -56.600;    0.000;2731.73330
 647.53; 2602.267;  -40.533;    0.000;2642.79993
 647.80; 2622.800;  -34.067;    0.000;2656.86671
 648.07; 2565.533;  -49.400;    0.000;2614.93345
 648.34; 2549.733;  -51.533;    0.000;2601.26673
 648.61; 2561.067;  -37.467;    0.000;2598.53332
 648.88; 2557.667;  -57.733;    0.000;2615.40008
 649.15; 2556.733;  -50.800;    0.000;2607.53340
 649.42; 2498.733;  -38.133;    0.000;2536.86673
 649.69; 2477.467;  -27.733;    0.000;2505.19989
 649.96; 2478.867;  -36.600;    0.000;2515.46670
 650.23; 2447.000;  -30.867;    0.000;2477.86667
 650.50; 2415.400;  -38.667;    0.000;2454.06657
 650.77; 2396.667;  -45.067;    0.000;2441.73341
 651.04; 2441.333;  -58.600;    0.000;2499.93325
 651.31; 2372.533;  -45.000;    0.000;2417.53345
 651.58; 2389.333;  -34.200;    0.000;2423.53325
 651.85; 2364.000;  -23.800;    0.000;2387.80000
 652.12; 2359.067;  -34.733;    0.000;2393.79998
 652.39; 2301.600;  -44.000;    0.000;2345.60010
 652.66; 2303.800;  -45.933;    0.000;2349.73338
 652.93; 2296.733;  -50.733;    0.000;2347.46673
 653.20; 2325.000;  -49.133;    0.000;2374.13334
 653.47; 2258.600;  -45.067;    0.000;2303.66676
 653.74; 2213.200;  -42.467;    0.000;2255.66662
 654.01; 2242.667;  -36.933;    0.000;2279.60008
 654.28; 2234.667;  -30.467;    0.000;2265.13342
 654.55; 2186.133;  -61.533;    0.000;2247.66663
 654.81; 2199.200;  -43.533;    0.000;2242.73328
 655.08; 2178.467;  -63.667;    0.000;2242.13322
 655.35; 2178.333;  -69.067;    0.000;2247.39992
 655.62; 2095.533;  -59.467;    0.000;2155.00011
 655.89; 2111.600;  -61.800;    0.000;2173.40010
 656.16; 2100.533;  -51.133;    0.000;2151.66678
 656.43; 2107.933;  -48.400;    0.000;2156.33335
 656.70; 2096.867;  -30.733;    0.000;2127.60003
 656.97; 2061.000;  -44.933;    0.000;2105.93333
 657.24; 2049.667;  -38.067;    0.000;2087.73341
 657.51; 2020.133;  -62.067;    0.000;2082.19997
 657.78; 2036.267;  -29.333;    0.000;2065.60006
 658.05; 2031.867;  -39.333;    0.000;2071.20003
 658.32; 2010.933;  -41.133;    0.000;2052.06668
 658.59; 1976.733;  -47.333;    0.000;2024.06661
 658.86; 1958.600;  -41.067;    0.000;1999.66664
 659.12; 1951.400;  -57.533;    0.000;2008.93336
 659.39; 1922.933;  -38.733;    0.000;1961.66668
 659.66; 1944.067;  -30.000;    0.000;1974.06665
 659.93; 1928.200;  -29.267;    0.000;1957.46662
 660.20; 1886.200;  -29.800;    0.000;1915.99995
 660.47; 1849.733;  -58.533;    0.000;1908.26661
 660.74; 1857.867;  -46.733;    0.000;1904.60003
 661.01; 1833.133;  -39.733;    0.000;1872.86663
 661.28; 1855.267;  -52.467;    0.000;1907.73339
 661.55; 1858.333;   -0.067;    0.000;1858.40004
 661.81; 1869.000;  -57.600;    0.000;1926.60000
 662.08; 1791.400;  -41.000;    0.000;1832.40002
 662.35; 1808.133;  -49.200;    0.000;1857.33330
 662.62; 1794.600;  -55.200;    0.000;1849.79998
 662.89; 1750.067;  -57.267;    0.000;1807.33332
 663.16; 1764.133;  -32.333;    0.000;1796.46663
 663.43; 1765.000;  -51.067;    0.000;1816.06667
 663.70; 1698.733;  -59.467;    0.000;1758.19994
 663.96; 1676.200;  -47.133;    0.000;1723.33329
 664.23; 1665.600;  -52.400;    0.000;1717.99998
 664.50; 1703.800;  -60.267;    0.000;1764.06672
 664.77; 1691.133;  -49.867;    0.000;1740.99997
 665.04; 1681.133;  -41.200;    0.000;1722.33330
 665.31; 1610.600;  -28.867;    0.000;1639.46664
 665.58; 1627.333;  -39.867;    0.000;1667.20004
 665.84; 1604.267;  -35.467;    0.000;1639.73339
 666.11; 1598.333;  -50.400;    0.000;1648.73338
 666.38; 1546.467;  -46.533;    0.000;1593.00001
 666.65; 1548.467;  -56.667;    0.000;1605.13334
 666.92; 1551.467;  -73.133;    0.000;1624.60001
 667.19; 1577.133;  -45.667;    0.000;1622.79997
 667.46; 1592.333;  -37.067;    0.000;1629.40004
 667.72; 1544.133;  -51.200;    0.000;1595.33330
 667.99; 1526.267;  -40.000;    0.000;1566.26672
 668.26; 1560.867;  -45.933;    0.000;1606.80003
 668.53; 1510.800;  -52.933;    0.000;1563.73338
 668.80; 1503.867;  -41.467;    0.000;1545.33337
 669.06; 1450.667;  -51.133;    0.000;1501.79996
 669.33; 1478.000;  -43.333;    0.000;1521.33333
 669.60; 1454.400;  -51.933;    0.000;1506.33336
 669.87; 1400.467;  -58.533;    0.000;1459.00001
 670.14; 1405.267;  -51.467;    0.000;1456.73339
 670.41; 1434.400;  -60.667;    0.000;1495.06669
 670.67; 1426.133;  -30.333;    0.000;1456.46663
 670.94; 1434.467;  -47.200;    0.000;1481.66668
 671.21; 1408.267;  -39.267;    0.000;1447.53339
 671.48; 1371.533;  -57.200;    0.000;1428.73333
 671.75; 1368.467;  -50.400;    0.000;1418.86668
 672.01; 1332.667;  -31.000;    0.000;1363.66663
 672.28; 1334.067;  -52.667;    0.000;1386.73332
 672.55; 1298.600;  -46.000;    0.000;1344.59998
 672.82; 1324.733;  -56.067;    0.000;1380.79994
 673.08; 1285.600;  -61.000;    0.000;1346.59998
 673.35; 1256.000;  -43.467;    0.000;1299.46667
 673.62; 1249.600;  -43.133;    0.000;1292.73331
 673.89; 1232.467;  -54.600;    0.000;1287.06667
 674.16; 1221.733;  -66.733;    0.000;1288.46661
 674.42; 1249.467;  -51.733;    0.000;1301.20001
 674.69; 1238.800;  -62.933;    0.000;1301.73338
 674.96; 1221.533;  -49.867;    0.000;1271.39999
 675.23; 1203.867;  -71.600;    0.000;1275.46670
 675.49; 1243.600;  -41.533;    0.000;1285.13331
 675.76; 1179.533;  -43.800;    0.000;1223.33332
 676.03; 1200.867;  -36.267;    0.000;1237.13337
 676.30; 1141.733;  -60.333;    0.000;1202.06661
 676.56; 1169.933;  -71.933;    0.000;1241.86668
 676.83; 1158.667;  -55.333;    0.000;1213.99996
 677.10; 1103.867;  -62.600;    0.000;1166.46670
 677.37; 1142.333;  -54.733;    0.000;1197.06671
 677.63; 1109.600;  -62.267;    0.000;1171.86664
 677.90; 1106.800;  -49.333;    0.000;1156.13338
 678.17; 1109.600;  -48.533;    0.000;1158.13331
 678.44; 1119.067;  -45.467;    0.000;1164.53332
 678.70; 1025.533;  -33.867;    0.000;1059.39999
 678.97; 1095.000;  -63.800;    0.000;1158.80000
 679.24; 1047.000;  -48.400;    0.000;1095.40000
 679.50; 1059.533;  -54.133;    0.000;1113.66666
 679.77; 1040.067;  -46.667;    0.000;1086.73332
 680.04; 1054.667;  -54.867;    0.000;1109.53329
 680.31; 1041.200;  -67.400;    0.000;1108.59995
 680.57; 1024.467;  -66.733;    0.000;1091.20000
 680.84; 1010.467;  -63.933;    0.000;1074.40001
 681.11; 1000.533;  -54.533;    0.000;1055.06666
 681.37; 1001.067;  -59.267;    0.000;1060.33332
 681.64; 1002.533;  -62.867;    0.000;1065.39999
 681.91;  982.067;  -45.733;    0.000;1027.79998
 682.17;  990.267;  -44.133;    0.000;1034.40000
 682.44;  943.067;  -65.067;    0.000;1008.13332
 682.71;  934.867;  -39.733;    0.000;974.59997
 682.98;  935.467;  -38.400;    0.000;973.86668
 683.24;  955.600;  -65.733;    0.000;1021.33331
 683.51;  913.733;  -65.067;    0.000;978.80000
 683.78;  905.467;  -52.867;    0.000;958.33334
 684.04;  897.400;  -44.333;    0.000;941.73336
 684.31;  933.067;  -51.067;    0.000;984.13332
 684.58;  888.600;  -65.200;    0.000;953.79997
 684.84;  841.667;  -45.400;    0.000;887.06669
 685.11;  871.800;  -53.067;    0.000;924.86665
 685.38;  854.667;  -62.667;    0.000;917.33335
 685.64;  899.333;  -70.600;    0.000;969.93331
 685.91;  878.867;  -53.133;    0.000;931.99997
 686.17;  832.333;  -69.800;    0.000;902.13332
 686.44;  862.533;  -51.533;    0.000;914.06666
 686.71;  850.067;  -61.867;    0.000;911.93332
 686.97;  793.733;  -73.000;    0.000;866.73334
 687.24;  813.667;  -57.067;    0.000;870.73335
 687.51;  831.267;  -52.800;    0.000;884.06666
 687.77;  821.933;  -45.600;    0.000;867.53335
 688.04;  777.200;  -66.333;    0.000;843.53335
 688.31;  810.933;  -58.600;    0.000;869.53335
 688.57;  768.000;  -43.733;    0.000;811.73333
 688.84;  742.000;  -44.667;    0.000;786.66667
 689.10;  766.933;  -48.533;    0.000;815.46668
 689.37;  754.867;  -55.733;    0.000;810.59997
 689.64;  760.000;  -54.067;    0.000;814.06667
 689.90;  731.000;  -66.467;    0.000;797.46667
 690.17;  755.867;  -56.133;    0.000;811.99997
 690.44;  715.267;  -63.933;    0.000;779.20000
 690.70;  754.133;  -76.533;    0.000;830.66669
 690.97;  725.667;  -58.533;    0.000;784.20002
 691.23;  699.267;  -66.400;    0.000;765.66666
 691.50;  688.333;  -52.400;    0.000;740.73331
 691.77;  692.533;  -75.133;    0.000;767.66666
 692.03;  696.067;  -60.600;    0.000;756.66665
 692.30;  685.067;  -46.000;    0.000;731.06665
 692.56;  661.600;  -58.467;    0.000;720.06664
 692.83;  651.000;  -57.867;    0.000;708.86666
 693.10;  687.933;  -50.600;    0.000;738.53335
 693.36;  654.533;  -52.800;    0.000;707.33332
 693.63;  646.067;  -50.733;    0.000;696.79998
 693.89;  630.733;  -52.333;    0.000;683.06667
 694.16;  622.733;  -55.533;    0.000;678.26667
 694.42;  602.600;  -55.467;    0.000;658.06664
 694.69;  664.800;  -30.067;    0.000;694.86666
 694.96;  612.667;  -40.333;    0.000;653.00002
 695.22;  589.400;  -52.533;    0.000;641.93336
 695.49;  627.600;  -28.200;    0.000;655.79998
 695.75;  587.267;  -59.933;    0.000;647.20000
 696.02;  605.400;  -61.200;    0.000;666.60003
 696.28;  590.200;  -50.533;    0.000;640.73335
 696.55;  577.933;  -61.000;    0.000;638.93335
 696.81;  572.733;  -50.933;    0.000;623.66667
 697.08;  578.000;  -71.667;    0.000;649.66666
 697.34;  540.467;  -50.667;    0.000;591.13334
 697.61;  537.800;  -49.400;    0.000;587.19999
 697.88;  531.067;  -49.933;    0.000;580.99998
 698.14;  518.200;  -59.467;    0.000;577.66668
 698.41;  513.867;  -52.000;    0.000;565.86664
 698.67;  524.400;  -59.133;    0.000;583.53336
 698.94;  518.333;  -69.400;    0.000;587.73331
 699.20;  503.200;  -58.600;    0.000;561.80001
 699.47;  495.333;  -69.800;    0.000;565.13335
 699.73;  484.400;  -56.800;    0.000;541.19999
 700.00;  472.200;  -38.200;    0.000;510.40001
 700.26;  499.067;  -59.267;    0.000;558.33335
 700.53;  443.800;  -35.600;    0.000;479.39999
 700.79;  485.800;  -45.600;    0.000;531.39999
 701.06;  441.200;  -60.133;    0.000;501.33335
 701.32;  443.333;  -54.133;    0.000;497.46668
 701.59;  441.000;  -60.800;    0.000;501.80000
 701.85;  426.000;  -52.133;    0.000;478.13334
 702.12;  410.733;  -62.333;    0.000;473.06667
 702.38;  383.333;  -51.333;    0.000;434.66668
 702.65;  406.133;  -43.600;    0.000;449.73333
 702.91;  427.000;  -37.133;    0.000;464.13334
 703.18;  413.333;  -38.600;    0.000;451.93334
 703.44;  404.400;  -65.533;    0.000;469.93333
 703.71;  370.533;  -58.000;    0.000;428.53333
 703.97;  373.200;  -62.133;    0.000;435.33335
 704.24;  359.533;  -57.267;    0.000;416.79999
 704.50;  357.333;  -68.933;    0.000;426.26668
 704.76;  372.133;  -52.200;    0.000;424.33333
 705.03;  355.467;  -69.133;    0.000;424.60001
 705.29;  345.733;  -57.067;    0.000;402.80000
 705.56;  348.067;  -51.133;    0.000;399.20002
 705.82;  339.533;  -69.067;    0.000;408.59999
 706.09;  359.333;  -49.600;    0.000;408.93334
 706.35;  299.667;  -68.267;    0.000;367.93333
 706.62;  331.067;  -52.200;    0.000;383.26668
 706.88;  330.800;  -76.333;    0.000;407.13332
 707.15;  290.333;  -68.133;    0.000;358.46667
 707.41;  273.467;  -73.600;    0.000;347.06667
 707.67;  284.667;  -78.000;    0.000;362.66666
 707.94;  294.467;  -51.933;    0.000;346.40001
 708.20;  263.933;  -61.733;    0.000;325.66665
 708.47;  242.133;  -50.933;    0.000;293.06667
 708.73;  278.400;  -72.667;    0.000;351.06666
 709.00;  267.600;  -44.333;    0.000;311.93334
 709.26;  240.800;  -54.200;    0.000;295.00000
 709.52;  255.800;  -56.067;    0.000;311.86667
 709.79;  260.933;  -62.600;    0.000;323.53332
 710.05;  241.267;  -55.600;    0.000;296.86666
 710.32;  253.200;  -52.800;    0.000;306.00000
 710.58;  212.667;  -71.933;    0.000;284.60001
 710.84;  242.867;  -51.067;    0.000;293.93333
 711.11;  226.667;  -61.467;    0.000;288.13334
 711.37;  222.200;  -62.000;    0.000;284.20000
 711.64;  216.467;  -62.600;    0.000;279.06666
 711.90;  214.400;  -55.333;    0.000;269.73333
 712.16;  217.200;  -57.267;    0.000;274.46666
 712.43;  219.533;  -69.533;    0.000;289.06667
 712.69;  194.533;  -56.467;    0.000;251.00001
 712.96;  202.667;  -77.067;    0.000;279.73334
 713.22;  173.333;  -44.467;    0.000;217.80000
 713.48;  207.333;  -98.333;    0.000;305.66666
 713.75;  190.667;  -45.133;    0.000;235.80001
 714.01;  171.400;  -67.867;    0.000;239.26666
 714.27;  169.200;  -58.400;    0.000;227.60000
 714.54;  174.333;  -54.733;    0.000;229.06666
 714.80;  166.333;  -51.533;    0.000;217.86666
 715.06;  213.600;  -64.067;    0.000;277.66667
 715.33;  199.533;  -62.200;    0.000;261.73334
 715.59;  167.733;  -68.000;    0.000;235.73334
 715.86;  157.533;  -61.800;    0.000;219.33334
 716.12;  172.600;  -75.800;    0.000;248.40001
 716.38;  157.333;  -36.400;    0.000;193.73333
 716.65;  180.667;  -64.400;    0.000;245.06667
 716.91;  142.000;  -73.867;    0.000;215.86667
 717.17;  162.067;  -60.067;    0.000;222.13333
 717.44;  169.600;  -39.533;    0.000;209.13334
 717.70;  171.600;  -58.267;    0.000;229.86667
 717.96;  152.333;  -42.467;    0.000;194.80000
 718.23;  176.800;  -60.667;    0.000;237.46667
 718.49;  150.000;  -71.267;    0.000;221.26667
 718.75;  170.400;  -50.867;    0.000;221.26666
 719.02;  165.000;  -51.333;    0.000;216.33333
 719.28;  160.667;  -74.800;    0.000;235.46667
 719.54;  134.400;  -62.600;    0.000;196.99999
 719.80;  161.800;  -65.667;    0.000;227.46667
 720.07;  144.533;  -39.533;    0.000;184.06667
 720.33;  146.333;  -64.933;    0.000;211.26666
 720.59;  154.133;  -75.400;    0.000;229.53333
 720.86;  148.800;  -81.533;    0.000;230.33334
 721.12;  176.800;  -60.533;    0.000;237.33334
 721.38;  142.600;  -69.667;    0.000;212.26667
 721.65;  140.867;  -68.667;    0.000;209.53333
 721.91;  160.800;  -65.200;    0.000;226.00000
 722.17;  143.867;  -62.000;    0.000;205.86667
 722.43;  147.400;  -66.733;    0.000;214.13332
 722.70;  134.867;  -63.000;    0.000;197.86667
 722.96;  162.467;  -55.133;    0.000;217.59999
 723.22;  122.800;  -64.467;    0.000;187.26667
 723.48;  147.733;  -55.467;    0.000;203.20000
 723.75;  132.267;  -58.667;    0.000;190.93333
 724.01;  151.333;  -63.933;    0.000;215.26666
 724.27;  128.400;  -68.733;    0.000;197.13332
 724.54;  124.867;  -61.467;    0.000;186.33334
 724.80;  141.800;  -74.000;    0.000;215.80000
 725.06;  133.733;  -69.133;    0.000;202.86667
 725.32;  121.867;  -56.800;    0.000;178.66667
 725.59;  127.067;  -58.867;    0.000;185.93333
 725.85;  121.733;  -76.600;    0.000;198.33333
 726.11;  115.000;  -58.733;    0.000;173.73333
 726.37;  130.733;  -54.933;    0.000;185.66667
 726.64;  146.667;  -50.800;    0.000;197.46667
 726.90;  130.467;  -48.267;    0.000;178.73333
 727.16;  141.000;  -66.933;    0.000;207.93333
 727.42;  133.000;  -63.400;    0.000;196.40000
 727.68;  142.133;  -52.267;    0.000;194.40000
 727.95;  124.067;  -70.600;    0.000;194.66666
 728.21;  126.267;  -58.733;    0.000;185.00000
 728.47;  118.067;  -52.867;    0.000;170.93333
 728.73;  132.733;  -45.667;    0.000;178.40001
 729.00;  122.467;  -48.000;    0.000;170.46667
 729.26;  125.267;  -47.000;    0.000;172.26667
 729.52;  133.000;  -61.800;    0.000;194.80000
 729.78;   94.800;  -66.000;    0.000;160.80000
 730.04;  114.000;  -73.400;    0.000;187.40000
 730.31;  129.000;  -62.667;    0.000;191.66667
 730.57;  119.400;  -63.800;    0.000;183.20000
 730.83;  121.867;  -72.267;    0.000;194.13334
 731.09;  109.667;  -34.533;    0.000;144.20000
 731.35;  115.667;  -50.733;    0.000;166.40000
 731.62;   97.600;  -61.733;    0.000;159.33333
 731.88;  111.933;  -54.200;    0.000;166.13334
 732.14;  125.667;  -55.000;    0.000;180.66666
 732.40;   82.800;  -51.933;    0.000;134.73334
 732.66;  118.267;  -62.333;    0.000;180.60000
 732.92;  117.733;  -56.267;    0.000;174.00000
 733.19;   85.533;  -43.933;    0.000;129.46667
 733.45;  113.667;  -52.267;    0.000;165.93333
 733.71;  100.133;  -78.200;    0.000;178.33333
 733.97;  134.467;  -32.000;    0.000;166.46666
 734.23;  112.733;  -46.867;    0.000;159.59999
 734.49;   86.933;  -69.200;    0.000;156.13333
 734.76;  123.933;  -53.533;    0.000;177.46667
 735.02;  105.867;  -80.800;    0.000;186.66667
 735.28;  102.667;  -67.200;    0.000;169.86666
 735.54;  112.200;  -71.600;    0.000;183.80000
 735.80;   87.667;  -72.267;    0.000;159.93333
 736.06;  110.533;  -51.533;    0.000;162.06667
 736.32;  101.000;  -58.333;    0.000;159.33333
 736.59;   93.333;  -74.867;    0.000;168.20000
 736.85;   90.400;  -48.933;    0.000;139.33334
 737.11;   90.400;  -72.267;    0.000;162.66667
 737.37;   69.467;  -73.467;    0.000;142.93333
 737.63;  101.867;  -58.467;    0.000;160.33334
 737.89;   98.933;  -62.533;    0.000;161.46667
 738.15;   86.400;  -56.600;    0.000;143.00000
 738.41;   77.400;  -57.867;    0.000;135.26667
 738.67;   88.467;  -64.067;    0.000;152.53333
 738.94;   75.000;  -58.267;    0.000;133.26667
 739.20;   58.867;  -71.933;    0.000;130.80000
 739.46;   71.467;  -68.333;    0.000;139.80000
 739.72;   84.133;  -84.333;    0.000;168.46667
 739.98;   82.000;  -77.133;    0.000;159.13333
 740.24;   82.133;  -61.000;    0.000;143.13333
 740.50;   70.267;  -63.800;    0.000;134.06667
 740.76;   79.267;  -71.667;    0.000;150.93333
 741.02;   62.533;  -59.200;    0.000;121.73333
 741.28;  104.267;  -63.133;    0.000;167.40001
 741.54;   88.200;  -53.867;    0.000;142.06666
 741.81;   92.000;  -71.133;    0.000;163.13333
 742.07;   53.067;  -70.733;    0.000;123.80000
 742.33;  100.200;  -75.000;    0.000;175.20000
 742.59;   67.333;  -63.933;    0.000;131.26667
 742.85;   63.267;  -68.200;    0.000;131.46666
 743.11;   52.800;  -67.533;    0.000;120.33333
 743.37;   68.667;  -87.267;    0.000;155.93333
 743.63;   58.400;  -65.467;    0.000;123.86667
 743.89;   68.400;  -67.800;    0.000;136.20000
 744.15;   29.933;  -55.267;    0.000;85.20000
 744.41;   74.867;  -55.133;    0.000;130.00000
 744.67;   36.333;  -74.333;    0.000;110.66667
 744.93;   65.200;  -56.200;    0.000;121.40000
 745.19;   62.333;  -69.600;    0.000;131.93333
 745.45;   59.133;  -55.933;    0.000;115.06667
 745.71;   16.867;  -63.867;    0.000;80.73333
 745.97;   66.267;  -62.933;    0.000;129.20000
 746.23;   40.667;  -90.800;    0.000;131.46667
 746.49;   44.200;  -70.533;    0.000;114.73333
 746.75;   48.400;  -67.267;    0.000;115.66667
 747.02;   49.067;  -64.267;    0.000;113.33334
 747.28;   50.933;  -70.867;    0.000;121.80000
 747.54;   60.133;  -71.667;    0.000;131.80000
 747.80;   41.200;  -76.000;    0.000;117.20000
 748.06;   31.733;  -62.200;    0.000;93.93333
 748.32;   38.000;  -63.333;    0.000;101.33333
 748.58;   50.467;  -67.067;    0.000;117.53333
 748.84;   24.867;  -49.733;    0.000;74.60000
 749.10;  127.733;    3.733;    0.000;124.00000
 749.36;   32.333;  -71.533;    0.000;103.86666
 749.62;   42.133;  -82.533;    0.000;124.66667
 749.88;   24.733;  -67.600;    0.000;92.33333
 750.14;   18.733;  -60.867;    0.000;79.60000
 750.40;   41.400;  -78.000;    0.000;119.40000
 750.66;   38.733;  -45.200;    0.000;83.93333
 750.91;   14.400;  -73.533;    0.000;87.93333
 751.17;   30.533;  -60.133;    0.000;90.66667
 751.43;   23.533;  -50.733;    0.000;74.26667
 751.69;   21.933;  -46.267;    0.000;68.20000
 751.95;   27.667;  -52.600;    0.000;80.26666
 752.21;   24.533;  -64.933;    0.000;89.46667
 752.47;    9.733;  -64.600;    0.000;74.33333
 752.73;   35.867;  -78.933;    0.000;114.80000
 752.99;    2.200;  -75.400;    0.000;77.60000
 753.25;    8.267;  -76.133;    0.000;84.40000
 753.51;   -4.000;  -60.800;    0.000;56.80000
 753.77;   20.400;  -53.467;    0.000;73.86667
 754.03;   11.600;  -61.133;    0.000;72.73334
 754.29;   12.467;  -78.400;    0.000;90.86667
 754.55;    9.133;  -57.533;    0.000;66.66667
 754.81;   13.600;  -75.467;    0.000;89.06667
 755.07;   -4.267;  -66.200;    0.000;61.93333
 755.33;   11.267;  -76.800;    0.000;88.06667
 755.59;   -6.067;  -84.133;    0.000;78.06666
 755.85;   18.667;  -83.333;    0.000;102.00000
 756.10;  -19.400;  -64.267;    0.000;44.86667
 756.36;   12.267;  -55.600;    0.000;67.86666
 756.62;    3.000;  -67.600;    0.000;70.60000
 756.88;   -1.000;  -56.133;    0.000;55.13334
 757.14;   15.867;  -35.000;    0.000;50.86667
 757.40;    1.933;  -66.333;    0.000;68.26667
 757.66;   13.400;  -62.333;    0.000;75.73333
 757.92;    6.333;  -67.400;    0.000;73.73334
 758.18;   18.200;  -57.267;    0.000;75.46667
 758.44;   10.733;  -64.867;    0.000;75.60000
 758.70;  -15.267;  -59.533;    0.000;44.26667
 758.95;  -10.267;  -56.467;    0.000;46.20000
 759.21;   -2.667;  -73.733;    0.000;71.06666
 759.47;    7.667;  -64.867;    0.000;72.53334
 759.73;    0.000;  -73.533;    0.000;73.53333
 759.99;  -11.800;  -74.400;    0.000;62.60000
 760.25;  -19.800;  -86.333;    0.000;66.53334
 760.51;    2.533;  -91.667;    0.000;94.20000
 760.77;  -10.467;  -57.800;    0.000;47.33333
 761.02;   12.267;  -56.600;    0.000;68.86666
 761.28;   -3.267;  -68.800;    0.000;65.53334
 761.54;    1.733;  -63.800;    0.000;65.53333
 761.80;  -15.733;  -66.267;    0.000;50.53334
 762.06;    1.933;  -84.133;    0.000;86.06666
 762.32;  -13.800;  -74.400;    0.000;60.60000
 762.58;   20.800;  -52.400;    0.000;73.20000
 762.83;  -18.667;  -50.733;    0.000;32.06667
 763.09;   12.000;  -72.733;    0.000;84.73333
 763.35;  -19.200;  -61.933;    0.000;42.73333
 763.61;  -22.600;  -61.333;    0.000;38.73333
 763.87;   -4.533;  -46.667;    0.000;42.13333
 764.13;  -26.000;  -50.267;    0.000;24.26667
 764.38;    8.133;  -73.067;    0.000;81.20000
 764.64;   -3.933;  -84.267;    0.000;80.33334
 764.90;  -29.133;  -69.667;    0.000;40.53333
 765.16;  -12.000;  -69.200;    0.000;57.20000
 765.42;  -20.533;  -53.200;    0.000;32.66667
 765.68;  -16.600;  -54.133;    0.000;37.53333
 765.93;  -12.000;  -63.600;    0.000;51.60000
 766.19;   -0.533;  -55.600;    0.000;55.06667
 766.45;  -52.800;  -81.800;    0.000;29.00000
 766.71;   -4.867;  -64.800;    0.000;59.93334
 766.97;  -30.467;  -65.533;    0.000;35.06667
 767.22;  -23.800;  -78.800;    0.000;55.00000
 767.48;   -8.000;  -64.200;    0.000;56.20000
 767.74;  -13.067;  -72.533;    0.000;59.46667
 768.00;  -23.800;  -72.867;    0.000;49.06667
 768.26;  -16.133;  -74.133;    0.000;58.00000
 768.51;  -21.267;  -70.067;    0.000;48.80000
 768.77;    3.000;  -54.600;    0.000;57.60000
 769.03;  -19.733;  -80.867;    0.000;61.13334
 769.29;  -17.667;  -70.600;    0.000;52.93333
 769.54;  -46.133;  -67.400;    0.000;21.26667
 769.80;  -17.600;  -89.267;    0.000;71.66667
 770.06;  -56.067;  -68.533;    0.000;12.46667
 770.32;   -4.200;  -63.333;    0.000;59.13333
 770.57;  -39.533;  -69.533;    0.000;30.00000
 770.83;  -10.000;  -55.733;    0.000;45.73333
 771.09;  -21.933;  -88.800;    0.000;66.86667
 771.35;  -14.400;  -69.267;    0.000;54.86667
 771.61;  -39.333;  -78.133;    0.000;38.80000
 771.86;   -7.467;  -76.667;    0.000;69.20000
 772.12;  -37.800;  -61.667;    0.000;23.86667
 772.38;  -22.200;  -62.400;    0.000;40.20000
 772.63;  -16.067;  -74.733;    0.000;58.66666
 772.89;  -26.867;  -71.667;    0.000;44.80000
 773.15;  -26.867;  -76.200;    0.000;49.33333
 773.41;  -27.800;  -74.067;    0.000;46.26667
 773.66;  -36.667;  -76.733;    0.000;40.06666
 773.92;  -25.067;  -64.733;    0.000;39.66666
 774.18;  -16.333;  -54.467;    0.000;38.13333
 774.44;  -28.667;  -72.933;    0.000;44.26667
 774.69;  -19.733;  -64.733;    0.000;45.00000
 774.95;  -26.133;  -55.333;    0.000;29.20000
 775.21;  -34.467;  -55.733;    0.000;21.26667
 775.46;  -42.933;  -87.733;    0.000;44.80000
 775.72;  -23.467;  -54.067;    0.000;30.60000
 775.98;  -24.333;  -51.400;    0.000;27.06667
 776.24;  -39.667;  -65.067;    0.000;25.40000
 776.49;  -29.133;  -72.400;    0.000;43.26667
 776.75;  -21.333;  -58.533;    0.000;37.20000
 777.01;  -24.467;  -50.800;    0.000;26.33333
 777.26;  -42.667;  -49.200;    0.000; 6.53333
 777.52;  -35.000;  -71.200;    0.000;36.20000
 777.78;  -28.467;  -56.933;    0.000;28.46667
 778.03;  -33.933;  -78.000;    0.000;44.06667
 778.29;  -43.000;  -68.867;    0.000;25.86667
 778.55;  -23.467;  -56.933;    0.000;33.46667
 778.80;  -41.600;  -78.867;    0.000;37.26667
 779.06;  -26.267;  -65.333;    0.000;39.06667
 779.32;  -36.333;  -67.867;    0.000;31.53334
 779.57;  -13.133;  -77.333;    0.000;64.20000
 779.83;  -53.333;  -80.000;    0.000;26.66667
 780.09;  -21.067;  -73.800;    0.000;52.73334
 780.34;  -48.800;  -60.000;    0.000;11.20000
 780.60;  -17.800;  -70.867;    0.000;53.06667
 780.86;  -51.533;  -66.400;    0.000;14.86667
 781.11;  -37.733;  -47.933;    0.000;10.20000
 781.37;  -64.933;  -56.600;    0.000;-8.33334
 781.63;  -27.733;  -55.400;    0.000;27.66667
 781.88;  -51.667;  -67.467;    0.000;15.80000
 782.14;  -32.867;  -81.667;    0.000;48.80000
 782.39;  -14.467;  -97.533;    0.000;83.06667
 782.65;  -51.467;  -84.933;    0.000;33.46667
 782.91;  -45.400;  -64.533;    0.000;19.13333
 783.16;  -43.533;  -70.133;    0.000;26.60000
 783.42;  -48.533;  -82.267;    0.000;33.73334
 783.67;  -31.533;  -58.267;    0.000;26.73333
 783.93;  -63.200;  -68.467;    0.000; 5.26667
 784.19;  -35.133;  -72.533;    0.000;37.40000
 784.44;  -34.867;  -55.800;    0.000;20.93333
 784.70;  -32.867;  -71.667;    0.000;38.80000
 784.96;  -48.200;  -92.400;    0.000;44.20000
 785.21;  -37.400;  -50.867;    0.000;13.46666
 785.47;  -39.067;  -63.467;    0.000;24.40000
 785.72;  -38.067;  -75.133;    0.000;37.06667
 785.98;  -45.400;  -75.867;    0.000;30.46667
 786.23;  -28.867;  -71.000;    0.000;42.13333
 786.49;  -54.467;  -61.667;    0.000; 7.20000
 786.75;  -50.133;  -83.933;    0.000;33.80000
 787.00;  -59.133;  -73.867;    0.000;14.73333
 787.26;  -50.733;  -80.467;    0.000;29.73333
 787.51;  -47.133;  -61.000;    0.000;13.86666
 787.77;  -42.600;  -71.200;    0.000;28.60000
 788.02;  -35.533;  -43.200;    0.000; 7.66667
 788.28;  -49.933;  -80.400;    0.000;30.46667
 788.54;  -58.400;  -79.933;    0.000;21.53333
 788.79;  -40.000;  -71.133;    0.000;31.13333
 789.05;  -44.267;  -87.200;    0.000;42.93333
 789.30;  -43.200;  -58.933;    0.000;15.73333
 789.56;  -68.467;  -73.400;    0.000; 4.93333
 789.81;  -52.067;  -77.200;    0.000;25.13333
 790.07;  -59.733;  -52.467;    0.000;-7.26667
 790.32;  -40.467;  -73.333;    0.000;32.86667
 790.58;  -48.000;  -53.333;    0.000; 5.33333
 790.83;  -34.133;  -69.200;    0.000;35.06666
 791.09;  -47.800;  -88.200;    0.000;40.40000
 791.35;  -36.267;  -88.200;    0.000;51.93333
 791.60;  -56.400;  -64.733;    0.000; 8.33333
 791.86;  -30.733;  -77.267;    0.000;46.53334
 792.11;  -56.800;  -67.600;    0.000;10.80000
 792.37;  -51.000;  -76.200;    0.000;25.20000
 792.62;  -48.967;  -64.967;    0.000;16.00000
 792.88;  -46.933;  -53.733;    0.000; 6.80000
 793.13;  -41.533;  -74.533;    0.000;33.00000
 793.39;  -35.600;  -79.600;    0.000;44.00000
 793.64;  -58.267;  -87.000;    0.000;28.73333
 793.90;  -43.200;  -65.000;    0.000;21.80000
 794.15;  -45.933;  -54.733;    0.000; 8.80000
 794.41;  -41.800;  -71.533;    0.000;29.73333
 794.66;  -42.867;  -62.400;    0.000;19.53334
 794.92;  -59.867;  -69.800;    0.000; 9.93334
 795.17;  -45.400;  -68.267;    0.000;22.86667
 795.43;  -64.867;  -65.600;    0.000; 0.73333
 795.68;  -49.333;  -67.933;    0.000;18.60000
 795.94;  -42.800;  -73.000;    0.000;30.20000
 796.19;  -46.200;  -84.000;    0.000;37.80000
 796.44;  -49.467;  -85.133;    0.000;35.66666
 796.70;  -60.133;  -50.467;    0.000;-9.66667
 796.95;  -40.000;  -77.667;    0.000;37.66666
 797.21;  -58.800;  -80.200;    0.000;21.40000
 797.46;  -66.933;  -82.800;    0.000;15.86667
 797.72;  -45.467;  -71.000;    0.000;25.53333
 797.97;  -67.800;  -72.800;    0.000; 5.00000
 798.23;  -58.200;  -77.200;    0.000;19.00000
 798.48;  -46.533;  -67.333;    0.000;20.80000
 798.74;  -59.200;  -72.333;    0.000;13.13334
 798.99;  -56.667;  -85.267;    0.000;28.60000
 799.24;  -60.667;  -71.133;    0.000;10.46666
 799.50;  -64.733;  -75.667;    0.000;10.93333
 799.75;  -51.400;  -71.533;    0.000;20.13333
 800.01;  -57.000;  -69.733;    0.000;12.73333
 800.26;  -67.800;  -70.600;    0.000; 2.80000
 800.52;  -62.600;  -66.400;    0.000; 3.80000
 800.77;  -55.733;  -65.267;    0.000; 9.53334
 801.02;  -48.267;  -68.667;    0.000;20.40000
 801.28;  -63.867;  -45.067;    0.000;-18.80000
 801.53;  -49.933;  -75.133;    0.000;25.20000
 801.79;  -54.667;  -61.067;    0.000; 6.40000
 802.04;  -36.267;  -77.200;    0.000;40.93333
 802.29;  -52.667;  -70.933;    0.000;18.26667
 802.55;  -43.400;  -73.933;    0.000;30.53333
 802.80;  -63.333;  -50.533;    0.000;-12.80000
 803.06;  -43.733;  -67.933;    0.000;24.20000
 803.31;  -59.067;  -67.467;    0.000; 8.40000
 803.56;  -49.533;  -80.333;    0.000;30.80000
 803.82;  -69.800;  -73.600;    0.000; 3.80000
 804.07;  -56.667;  -77.000;    0.000;20.33333
 804.32;  -49.800;  -75.267;    0.000;25.46667
 804.58;  -52.733;  -83.800;    0.000;31.06667
 804.83;  -35.067;  -62.333;    0.000;27.26667
 805.09;  -66.733;  -78.800;    0.000;12.06667
 805.34;  -62.067;  -49.333;    0.000;-12.73333
 805.59;  -61.800;  -64.333;    0.000; 2.53334
 805.85;  -64.400;  -70.800;    0.000; 6.40000
 806.10;  -48.400;  -62.200;    0.000;13.80000
 806.35;  -56.867;  -69.400;    0.000;12.53334
 806.61;  -30.067;  -87.667;    0.000;57.60000
 806.86;  -60.867;  -74.667;    0.000;13.80000
 807.11;  -47.533;  -63.067;    0.000;15.53333
 807.37;  -37.600;  -52.400;    0.000;14.80000
 807.62;  -45.600;  -80.933;    0.000;35.33334
 807.87;  -58.600;  -61.000;    0.000; 2.40000
 808.13;  -56.867;  -74.733;    0.000;17.86666
 808.38;  -49.600;  -75.867;    0.000;26.26667
 808.63;  -33.333;  -89.933;    0.000;56.60000
 808.89;  -59.400;  -59.533;    0.000; 0.13333
 809.14;  -62.467;  -82.467;    0.000;20.00000
 809.39;  -62.467;  -72.867;    0.000;10.40000
 809.65;  -68.933;  -86.200;    0.000;17.26666
 809.90;  -57.333;  -76.533;    0.000;19.20000
 810.15;  -48.667;  -61.133;    0.000;12.46667
 810.41;  -58.800;  -57.600;    0.000;-1.20000
 810.66;  -56.533;  -74.067;    0.000;17.53333
 810.91;  -79.467;  -78.600;    0.000;-0.86667
 811.16;  -41.933;  -80.400;    0.000;38.46667
 811.42;  -66.067;  -81.600;    0.000;15.53333
 811.67;  -52.067;  -55.533;    0.000; 3.46667
 811.92;  -73.333;  -76.800;    0.000; 3.46667
 812.18;  -64.733;  -69.267;    0.000; 4.53334
 812.43;  -83.800;  -79.267;    0.000;-4.53333
 812.68;  -69.867;  -84.600;    0.000;14.73333
 812.93;  -70.200;  -57.667;    0.000;-12.53333
 813.19;  -40.867;  -86.267;    0.000;45.40001
 813.44;  -75.467;  -72.067;    0.000;-3.40000
 813.69;  -39.000;  -64.467;    0.000;25.46667
 813.95;  -63.067;  -67.867;    0.000; 4.80000
 814.20;  -45.133;  -75.467;    0.000;30.33333
 814.45;  -76.267;  -81.467;    0.000; 5.20000
 814.70;  -72.733;  -67.133;    0.000;-5.60000
 814.96;  -65.533;  -72.800;    0.000; 7.26667
 815.21;  -62.600;  -78.000;    0.000;15.40000
 815.46;  -78.467;  -64.333;    0.000;-14.13333
 815.71;  -53.133;  -70.533;    0.000;17.40000
 815.96;  -76.267;  -81.133;    0.000; 4.86666
 816.22;  -66.533;  -82.733;    0.000;16.20000
 816.47;  -63.200;  -61.333;    0.000;-1.86667
 816.72;  -52.333;  -86.667;    0.000;34.33333
 816.97;  -73.933;  -89.933;    0.000;16.00000
 817.23;  -45.800;  -56.400;    0.000;10.60000
 817.48;  -61.533;  -52.267;    0.000;-9.26667
 817.73;  -53.200;  -82.467;    0.000;29.26667
 817.98;  -47.600;  -79.867;    0.000;32.26667
 818.23;  -44.800;  -71.667;    0.000;26.86666
 818.49;  -58.400;  -68.267;    0.000; 9.86667
 818.74;  -30.000;  -56.600;    0.000;26.60000
 818.99;  -65.733;  -75.333;    0.000; 9.60001
 819.24;  -32.800;  -65.333;    0.000;32.53334
 819.50;  -79.533;  -86.400;    0.000; 6.86667
 819.75;  -71.667;  -73.000;    0.000; 1.33334
 820.00;  -49.533;  -60.600;    0.000;11.06667
 820.25;  -45.133;  -77.267;    0.000;32.13334
 820.50;  -79.067;  -75.867;    0.000;-3.20000
 820.75;  -58.600;  -76.000;    0.000;17.40000
 821.01;  -68.000;  -66.933;    0.000;-1.06667
 821.26;  -45.067;  -67.867;    0.000;22.80000
 821.51;  -66.467;  -73.267;    0.000; 6.80000
 821.76;  -67.800;  -83.733;    0.000;15.93333
 822.01;  -59.400;  -64.933;    0.000; 5.53333
 822.26;  -47.667;  -61.933;    0.000;14.26667
 822.52;  -53.933;  -86.400;    0.000;32.46667
 822.77;  -65.133;  -89.867;    0.000;24.73334
 823.02;  -62.933;  -54.800;    0.000;-8.13334
 823.27;  -69.533;  -79.733;    0.000;10.20000
 823.52;  -62.867;  -77.867;    0.000;15.00000
 823.77;  -59.933;  -91.267;    0.000;31.33334
 824.03;  -49.200;  -73.400;    0.000;24.20000
 824.28;  -86.000;  -67.400;    0.000;-18.60000
 824.53;  -67.600;  -49.000;    0.000;-18.60000
 824.78;  -49.333;  -65.600;    0.000;16.26667
 825.03;  -81.800;  -75.133;    0.000;-6.66667
 825.28;  -59.000;  -62.867;    0.000; 3.86666
 825.53;  -74.733;  -70.600;    0.000;-4.13333
 825.78;  -53.333;  -58.733;    0.000; 5.40000
 826.04;  -53.267;  -76.867;    0.000;23.60000
 826.29;  -60.000;  -65.400;    0.000; 5.40000
 826.54;  -94.333;  -75.267;    0.000;-19.06667
 826.79;  -58.133;  -74.800;    0.000;16.66667
 827.04;  -95.467;  -78.333;    0.000;-17.13333
 827.29;  -62.200;  -78.533;    0.000;16.33333
 827.54;  -64.200;  -55.733;    0.000;-8.46666
 827.79;  -59.200;  -70.267;    0.000;11.06667
 828.04;  -49.200;  -61.200;    0.000;12.00000
 828.29;  -68.533;  -78.400;    0.000; 9.86667
 828.55;  -61.133;  -82.733;    0.000;21.59999
 828.80;  -76.400;  -74.933;    0.000;-1.46667
 829.05;  -70.800;  -80.667;    0.000; 9.86666
 829.30;  -70.067;  -86.467;    0.000;16.40000
 829.55;  -88.467;  -78.200;    0.000;-10.26667
 829.80;  -61.000;  -65.667;    0.000; 4.66666
 830.05;  -77.133;  -67.200;    0.000;-9.93333
 830.30;  -60.800;  -87.000;    0.000;26.20000
 830.55;  -82.600;  -69.200;    0.000;-13.40000
 830.80;  -66.200;  -71.600;    0.000; 5.40000
 831.05;  -79.133;  -64.467;    0.000;-14.66666
 831.30;  -53.000;  -76.267;    0.000;23.26667
 831.55;  -64.133;  -54.400;    0.000;-9.73333
 831.80;  -46.200;  -81.333;    0.000;35.13334
 832.05;  -75.800;  -61.867;    0.000;-13.93334
 832.30;  -64.600;  -66.067;    0.000; 1.46667
 832.56;  -92.133;  -85.333;    0.000;-6.80000
 832.81;  -62.133;  -74.067;    0.000;11.93333
 833.06;  -49.800;  -44.800;    0.000;-5.00000
 833.31;  -78.267;  -96.867;    0.000;18.60000
 833.56;  -70.467;  -66.133;    0.000;-4.33334
 833.81;  -58.600;  -64.267;    0.000; 5.66667
 834.06;  -56.467;  -66.333;    0.000; 9.86667
 834.31;  -74.133;  -78.667;    0.000; 4.53333
 834.56;  -70.267;  -70.933;    0.000; 0.66666
 834.81;  -70.667;  -93.733;    0.000;23.06667
 835.06;  -91.133;  -86.200;    0.000;-4.93333
 835.31;  -47.933;  -81.000;    0.000;33.06667
 835.56;  -63.867;  -32.200;    0.000;-31.66666
 835.81;  -68.733;  -81.067;    0.000;12.33334
 836.06;  -61.067;  -61.667;    0.000; 0.60000
 836.31;  -74.133;  -86.133;    0.000;12.00000
 836.56;  -71.133;  -76.400;    0.000; 5.26667
 836.81;  -64.533;  -73.467;    0.000; 8.93333
 837.06;  -71.133;  -82.400;    0.000;11.26667
 837.31;  -70.667;  -80.067;    0.000; 9.40000
 837.56;  -61.067;  -78.000;    0.000;16.93333
 837.81;  -63.267;  -66.867;    0.000; 3.60000
 838.06;  -56.600;  -72.000;    0.000;15.40000
 838.31;  -77.000;  -68.200;    0.000;-8.80000
 838.56;  -96.667;  -88.067;    0.000;-8.60000
 838.80;  -60.800;  -80.333;    0.000;19.53334
 839.05;  -74.333;  -62.067;    0.000;-12.26667
 839.30;  -67.333;  -89.200;    0.000;21.86666
 839.55;  -69.133;  -60.533;    0.000;-8.60000
 839.80;  -64.067;  -78.000;    0.000;13.93333
 840.05;  -68.333;  -86.533;    0.000;18.20000
 840.30;  -60.600;  -73.133;    0.000;12.53333
 840.55;  -82.200;  -67.000;    0.000;-15.20000
 840.80;  -55.533;  -45.533;    0.000;-10.00000
 841.05;  -71.200;  -75.400;    0.000; 4.20000
 841.30;  -48.800;  -69.133;    0.000;20.33333
 841.55;  -86.467;  -81.333;    0.000;-5.13333
 841.80;  -80.667;  -89.267;    0.000; 8.60001
 842.05; -104.133;  -80.800;    0.000;-23.33333
 842.30;  -71.200;  -66.733;    0.000;-4.46667
 842.55;  -73.533;  -70.000;    0.000;-3.53333
 842.79;  -68.067;  -61.000;    0.000;-7.06667
 843.04;  -59.733;  -67.333;    0.000; 7.60000
 843.29;  -66.933;  -59.933;    0.000;-7.00000
 843.54;  -72.333;  -69.533;    0.000;-2.80000
 843.79;  -68.067;  -82.467;    0.000;14.40000
 844.04;  -68.200;  -56.000;    0.000;-12.20000
 844.29;  -67.800;  -91.133;    0.000;23.33333
 844.54;  -90.000;  -66.267;    0.000;-23.73333
 844.79;  -35.067;  -72.333;    0.000;37.26667
 845.04;  -74.467;  -64.867;    0.000;-9.60000
 845.28;  -71.333;  -89.533;    0.000;18.20000
 845.53;  -76.200;  -64.800;    0.000;-11.39999
 845.78;  -53.867;  -78.467;    0.000;24.60000
 846.03;  -69.733;  -77.000;    0.000; 7.26667
 846.28;  -82.267;  -70.200;    0.000;-12.06667
 846.53;  -70.867;  -51.733;    0.000;-19.13334
 846.78;  -65.933;  -57.600;    0.000;-8.33334
 847.02;  -57.600;  -49.267;    0.000;-8.33333
 847.27;  -63.067;  -66.133;    0.000; 3.06667
 847.52;  -79.467;  -67.800;    0.000;-11.66666
 847.77;  -51.667;  -72.600;    0.000;20.93333
 848.02;  -65.800;  -67.667;    0.000; 1.86666
 848.27;  -69.933;  -81.000;    0.000;11.06667
 848.52;  -65.867;  -65.267;    0.000;-0.60000
 848.76;  -57.667;  -79.133;    0.000;21.46666
 849.01;  -50.667;  -71.333;    0.000;20.66667
 849.26;  -75.533;  -74.333;    0.000;-1.20000
 849.51;  -69.533;  -71.400;    0.000; 1.86667
 849.76;  -82.000;  -92.000;    0.000;10.00000
 850.01;  -88.733;  -82.467;    0.000;-6.26666
 850.25;  -66.333;  -74.067;    0.000; 7.73333
 850.50;  -81.733;  -66.533;    0.000;-15.20000
 850.75;  -66.400;  -55.800;    0.000;-10.60000
 851.00;  -77.000;  -73.667;    0.000;-3.33334
 851.25;  -76.067;  -69.467;    0.000;-6.60000
 851.49;  -74.133;  -99.467;    0.000;25.33334
 851.74;  -72.067;  -79.533;    0.000; 7.46667
 851.99;  -72.200;  -73.267;    0.000; 1.06667
 852.24;  -54.733;  -62.067;    0.000; 7.33333
 852.49;  -76.800;  -74.800;    0.000;-2.00000
 852.73;  -72.200;  -76.667;    0.000; 4.46667
 852.98;  -88.867;  -74.733;    0.000;-14.13334
 853.23;  -68.333;  -57.467;    0.000;-10.86667
 853.48;  -95.933;  -94.200;    0.000;-1.73334
 853.73;  -68.733;  -64.400;    0.000;-4.33333
 853.97;  -79.933;  -65.867;    0.000;-14.06667
 854.22;  -56.133;  -72.667;    0.000;16.53333
 854.47;  -78.600;  -81.400;    0.000; 2.80000
 854.72;  -65.400;  -60.267;    0.000;-5.13334
 854.96;  -70.267;  -71.600;    0.000; 1.33333
 855.21;  -64.667;  -76.533;    0.000;11.86667
 855.46;  -62.933;  -61.333;    0.000;-1.60000
 855.71;  -74.267;  -89.467;    0.000;15.20000
 855.95;  -77.067;  -64.400;    0.000;-12.66666
 856.20;  -69.667;  -66.000;    0.000;-3.66666
 856.45;  -93.200;  -74.400;    0.000;-18.80000
 856.70;  -64.467;  -86.267;    0.000;21.80000
 856.94;  -86.133;  -65.533;    0.000;-20.60000
 857.19;  -80.800;  -78.267;    0.000;-2.53333
 857.44;  -74.000;  -79.933;    0.000; 5.93333
 857.69;  -53.400;  -83.267;    0.000;29.86667
 857.93;  -81.267;  -66.333;    0.000;-14.93333
 858.18;  -70.667;  -77.267;    0.000; 6.60001
 858.43;  -67.067;  -57.333;    0.000;-9.73333
 858.67;  -73.800;  -53.067;    0.000;-20.73334
 858.92;  -73.067;  -58.333;    0.000;-14.73333
 859.17;  -57.467;  -63.933;    0.000; 6.46667
 859.42;  -77.867;  -69.467;    0.000;-8.40000
 859.66;  -64.600;  -76.333;    0.000;11.73334
 859.91;  -68.800;  -59.133;    0.000;-9.66667
 860.16;  -87.600;  -93.600;    0.000; 6.00000
 860.40;  -66.133;  -79.333;    0.000;13.20000
 860.65;  -65.933;  -94.733;    0.000;28.80000
 860.90;  -78.067;  -66.667;    0.000;-11.40000
 861.14;  -71.200;  -80.400;    0.000; 9.20000
 861.39;  -77.467;  -68.000;    0.000;-9.46667
 861.64;  -56.600;  -53.733;    0.000;-2.86666
 861.88;  -70.933;  -76.000;    0.000; 5.06667
 862.13;  -62.867;  -52.933;    0.000;-9.93333
 862.38;  -99.800;  -67.933;    0.000;-31.86667
 862.62;  -62.000;  -56.400;    0.000;-5.60000
 862.87;  -81.533;  -81.933;    0.000; 0.40000
 863.12;  -66.600;  -72.000;    0.000; 5.40000
 863.36;  -74.733;  -81.800;    0.000; 7.06667
 863.61;  -46.267;  -63.200;    0.000;16.93333
 863.86;  -81.400;  -87.533;    0.000; 6.13333
 864.10;  -70.667;  -69.400;    0.000;-1.26666
 864.35;  -76.533;  -63.200;    0.000;-13.33333
 864.60;  -63.067;  -79.667;    0.000;16.60000
 864.84;  -71.000;  -68.933;    0.000;-2.06667
 865.09;  -65.933;  -72.000;    0.000; 6.06667
 865.33;  -88.133;  -56.800;    0.000;-31.33333
 865.58;  -64.533;  -82.800;    0.000;18.26667
 865.83;  -54.333;  -71.800;    0.000;17.46667
 866.07;  -77.667;  -89.067;    0.000;11.40000
 866.32;  -56.333;  -52.667;    0.000;-3.66666
 866.57;  -51.200;  -66.800;    0.000;15.60000
 866.81;  -62.867;  -66.067;    0.000; 3.20000
 867.06;  -67.867;  -87.733;    0.000;19.86666
 867.30;  -74.400;  -82.267;    0.000; 7.86667
 867.55;  -81.800;  -71.867;    0.000;-9.93333
 867.80;  -76.800;  -58.733;    0.000;-18.06667
 868.04;  -76.000;  -68.400;    0.000;-7.60000
 868.29;  -51.867;  -73.000;    0.000;21.13334
 868.53;  -94.400;  -53.933;    0.000;-40.46667
 868.78;  -81.400;  -66.600;    0.000;-14.80000
 869.03;  -68.600;  -71.267;    0.000; 2.66667
 869.27;  -81.467;  -83.533;    0.000; 2.06667
 869.52;  -83.933;  -80.267;    0.000;-3.66666
 869.76;  -76.533;  -68.667;    0.000;-7.86667
 870.01;  -68.200;  -74.000;    0.000; 5.80000
 870.25;  -55.400;  -65.267;    0.000; 9.86667
 870.50;  -69.800;  -57.200;    0.000;-12.60000
 870.75;  -59.733;  -61.533;    0.000; 1.80000
 870.99;  -56.067;  -65.467;    0.000; 9.40000
 871.24;  -64.667;  -65.133;    0.000; 0.46667
 871.48;  -73.933;  -64.800;    0.000;-9.13333
 871.73;  -69.800;  -78.267;    0.000; 8.46667
 871.97;  -62.067;  -79.933;    0.000;17.86667
 872.22;  -78.133;  -52.467;    0.000;-25.66666
 872.46;  -67.400;  -63.200;    0.000;-4.20000
 872.71;  -77.333;  -93.600;    0.000;16.26666
 872.95;  -48.133;  -67.800;    0.000;19.66667
 873.20;  -68.400;  -65.533;    0.000;-2.86667
 873.44;  -50.000;  -60.000;    0.000;10.00000
 873.69;  -87.267;  -81.800;    0.000;-5.46667
 873.94;  -69.200;  -71.733;    0.000; 2.53333
 874.18;  -71.400;  -89.133;    0.000;17.73333
 874.43;  -84.200;  -63.067;    0.000;-21.13333
 874.67;  -82.133;  -59.733;    0.000;-22.40000
 874.92;  -63.467;  -62.200;    0.000;-1.26667
 875.16;  -79.800;  -47.533;    0.000;-32.26667
 875.41;  -89.133;  -99.000;    0.000; 9.86667
 875.65;  -73.733;  -50.333;    0.000;-23.40000
 875.90;  -72.600;  -64.400;    0.000;-8.20000
 876.14;  -80.733;  -79.000;    0.000;-1.73333
 876.39;  -73.867;  -64.067;    0.000;-9.80000
 876.63;  -65.000;  -55.800;    0.000;-9.20000
 876.88;  -77.400;  -60.867;    0.000;-16.53334
 877.12;  -79.867;  -65.733;    0.000;-14.13334
 877.36;  -53.000;  -85.867;    0.000;32.86667
 877.61;  -87.267;  -77.667;    0.000;-9.60001
 877.85;  -69.867;  -52.667;    0.000;-17.20000
 878.10;  -80.733;  -73.000;    0.000;-7.73333
 878.34;  -56.800;  -51.733;    0.000;-5.06667
 878.59;  -73.400;  -68.200;    0.000;-5.20000
 878.83;  -53.600;  -84.667;    0.000;31.06667
 879.08;  -87.133;  -73.600;    0.000;-13.53333
 879.32;  -77.333;  -63.400;    0.000;-13.93333
 879.57;  -64.067;  -66.867;    0.000; 2.80000
 879.81;  -74.933;  -80.867;    0.000; 5.93333
 880.05;  -54.400;  -60.800;    0.000; 6.40000
 880.30;  -60.733;  -74.267;    0.000;13.53334
 880.54;  -83.067;  -71.667;    0.000;-11.40000
 880.79;  -55.800;  -74.600;    0.000;18.80000
 881.03;  -70.267;  -63.867;    0.000;-6.40001
 881.28;  -51.067;  -48.467;    0.000;-2.60000
 881.52;  -72.800;  -76.533;    0.000; 3.73333
 881.76;  -66.267;  -62.533;    0.000;-3.73334
 882.01;  -77.733;  -65.267;    0.000;-12.46666
 882.25;  -70.400;  -75.200;    0.000; 4.80000
 882.50;  -64.667;  -69.133;    0.000; 4.46667
 882.74;  -72.933;  -74.200;    0.000; 1.26666
 882.98;  -77.733;  -64.667;    0.000;-13.06667
 883.23;  -68.533;  -78.933;    0.000;10.40000
 883.47;  -56.667;  -51.667;    0.000;-5.00000
 883.72;  -65.000;  -67.267;    0.000; 2.26667
 883.96;  -60.600;  -53.133;    0.000;-7.46666
 884.20;  -86.200;  -82.467;    0.000;-3.73333
 884.45;  -65.133;  -54.667;    0.000;-10.46666
 884.69;  -56.200;  -57.600;    0.000; 1.40000
 884.94;  -48.200;  -34.733;    0.000;-13.46667
 885.18;  -48.600;  -57.667;    0.000; 9.06667
 885.42;  -60.267;  -61.000;    0.000; 0.73333
 885.67;  -61.333;  -77.400;    0.000;16.06667
 885.91;  -62.533;  -67.733;    0.000; 5.20000
 886.15;  -53.533;  -37.933;    0.000;-15.60000
 886.40;  -73.133;  -71.733;    0.000;-1.40000
 886.64;  -58.800;  -68.400;    0.000; 9.60000
 886.88;  -72.600;  -59.533;    0.000;-13.06667
 887.13;  -55.600;  -47.333;    0.000;-8.26667
 887.37;  -70.133;  -74.533;    0.000; 4.40000
 887.62;  -48.267;  -41.333;    0.000;-6.93333
 887.86;  -75.867;  -55.933;    0.000;-19.93333
 888.10;  -42.533;  -69.867;    0.000;27.33334
 888.35;  -78.667;  -41.867;    0.000;-36.80000
 888.59;  -59.333;  -59.400;    0.000; 0.06667
 888.83;  -56.933;  -57.200;    0.000; 0.26667
 889.07;  -42.200;  -72.467;    0.000;30.26667
 889.32;  -56.867;  -65.800;    0.000; 8.93334
 889.56;  -53.000;  -62.800;    0.000; 9.80000
 889.80;  -54.933;  -45.000;    0.000;-9.93333
 890.05;  -60.933;  -57.533;    0.000;-3.40000
 890.29;  -55.600;  -49.333;    0.000;-6.26667
 890.53;  -68.000;  -41.667;    0.000;-26.33333
 890.78;  -62.067;  -56.067;    0.000;-6.00000
 891.02;  -46.200;  -58.400;    0.000;12.20000
 891.26;  -76.733;  -42.600;    0.000;-34.13333
 891.51;  -54.333;  -46.800;    0.000;-7.53333
 891.75;  -55.667;  -49.267;    0.000;-6.40000
 891.99;  -46.933;  -39.467;    0.000;-7.46667
 892.23;  -47.867;  -61.867;    0.000;14.00000
 892.48;  -49.133;  -46.800;    0.000;-2.33334
 892.72;  -54.000;  -38.933;    0.000;-15.06667
 892.96;  -19.267;  -46.333;    0.000;27.06667
 893.20;  -51.067;  -30.467;    0.000;-20.60000
 893.45;  -43.200;  -57.067;    0.000;13.86666
 893.69;  -61.733;  -46.933;    0.000;-14.80000
 893.93;  -19.867;  -52.800;    0.000;32.93333
 894.17;  -44.400;  -39.867;    0.000;-4.53334
 894.42;  -39.000;  -59.400;    0.000;20.40000
 894.66;  -63.267;  -48.000;    0.000;-15.26667
 894.90;  -46.333;  -30.267;    0.000;-16.06667
 895.14;  -43.933;  -21.867;    0.000;-22.06667
 895.39;  -33.000;  -49.600;    0.000;16.60000
 895.63;  -32.067;  -24.133;    0.000;-7.93333
 895.87;  -49.067;  -44.800;    0.000;-4.26667
 896.11;  -24.333;  -13.333;    0.000;-11.00000
 896.36;  -32.867;  -25.200;    0.000;-7.66666
 896.60;  -55.667;  -35.867;    0.000;-19.80000
 896.84;  -24.533;  -10.733;    0.000;-13.80000
 897.08;  -27.333;  -22.067;    0.000;-5.26667
 897.32;  -19.400;  -17.800;    0.000;-1.60000
 897.57;   -2.200;  -23.333;    0.000;21.13333
 897.81;  -21.867;  -13.667;    0.000;-8.20000
 898.05;  -20.533;  -26.400;    0.000; 5.86667
 898.29;   -9.133;   -7.933;    0.000;-1.20000
 898.53;  -23.667;   -5.800;    0.000;-17.86667
 898.78;  -19.067;   -4.000;    0.000;-15.06667
 899.02;  -17.400;   -9.000;    0.000;-8.40000
 899.26;   -4.267;   -9.133;    0.000; 4.86667
 899.50;   -5.600;   19.867;    0.000;-25.46667
 899.74;    7.267;   15.400;    0.000;-8.13333
 899.99;  -12.467;   14.267;    0.000;-26.73333
 900.23;    2.333;    9.867;    0.000;-7.53333
 900.47;  -20.133;   22.333;    0.000;-42.46667
 900.71;   17.600;   -3.200;    0.000;20.80000
 900.95;    8.000;   22.800;    0.000;-14.80000
 901.19;   28.600;   30.400;    0.000;-1.80000
 901.44;   34.400;   57.733;    0.000;-23.33333
 901.68;   44.133;   80.267;    0.000;-36.13334
 901.92;   57.800;   84.533;    0.000;-26.73333
 902.16;   87.800;   82.333;    0.000; 5.46667
 902.40;   88.600;  100.200;    0.000;-11.60000
 902.64;  130.000;  141.400;    0.000;-11.39999
 902.88;  155.800;  166.867;    0.000;-11.06667
 903.13;  190.933;  166.800;    0.000;24.13333

