point3
Integration time [ms]:  30.000
Averaging Nr. [scans]: 15
Smoothing Nr. [pixels]: 0
Data measured with spectrometer [name]: 1307077U2
Wave   ;Sample   ;Dark     ;Reference;Scope Corrected for Dark
[nm]   ;[counts] ;[counts] ;[counts] 

 350.80;   -4.600;   -8.467;    0.000; 3.86667
 351.10;   -3.933;   -4.133;    0.000; 0.20000
 351.39;   30.933;   10.733;    0.000;20.20000
 351.69;   -7.600;  -17.000;    0.000; 9.40000
 351.99;  -21.200;  -22.067;    0.000; 0.86667
 352.28;  -10.333;   -1.733;    0.000;-8.60000
 352.58;  -19.333;  -16.200;    0.000;-3.13333
 352.88;  -14.400;    1.867;    0.000;-16.26667
 353.17;  -17.000;    6.267;    0.000;-23.26667
 353.47;   -1.000;   -4.800;    0.000; 3.80000
 353.76;    6.067;    8.667;    0.000;-2.60000
 354.06;    0.067;   -2.733;    0.000; 2.80000
 354.36;   -1.133;    6.200;    0.000;-7.33333
 354.65;   15.000;    1.200;    0.000;13.80000
 354.95;   -1.067;   -5.733;    0.000; 4.66667
 355.24;  -18.467;   -3.467;    0.000;-15.00000
 355.54;   -3.133;   -9.867;    0.000; 6.73333
 355.84;    1.267;    2.133;    0.000;-0.86667
 356.13;   22.600;   35.267;    0.000;-12.66667
 356.43;   -7.133;   -2.000;    0.000;-5.13333
 356.72;    1.267;  -24.733;    0.000;26.00000
 357.02;   11.333;    7.267;    0.000; 4.06667
 357.31;   -1.133;    4.400;    0.000;-5.53333
 357.61;    8.667;   10.000;    0.000;-1.33333
 357.91;  -17.400;  -10.400;    0.000;-7.00000
 358.20;    2.733;  -11.067;    0.000;13.80000
 358.50;    3.000;   -0.133;    0.000; 3.13333
 358.79;   -1.267;   -5.667;    0.000; 4.40000
 359.09;    8.533;   -7.000;    0.000;15.53333
 359.38;    1.867;  -11.800;    0.000;13.66667
 359.68;  -12.267;  -19.400;    0.000; 7.13333
 359.98;    4.200;  -12.067;    0.000;16.26667
 360.27;  -19.800;  -20.467;    0.000; 0.66667
 360.57;  -10.400;  -24.467;    0.000;14.06667
 360.86;    2.800;  -13.467;    0.000;16.26667
 361.16;  -20.000;  -10.933;    0.000;-9.06667
 361.45;    2.333;    0.933;    0.000; 1.40000
 361.75;  -10.400;  -14.467;    0.000; 4.06667
 362.04;   37.200;   20.200;    0.000;17.00000
 362.34;    3.400;    7.200;    0.000;-3.80000
 362.64;   -7.067;   -3.600;    0.000;-3.46667
 362.93;    3.600;  -22.667;    0.000;26.26667
 363.23;   -4.800;  -26.267;    0.000;21.46667
 363.52;    1.533;  -31.067;    0.000;32.60000
 363.82;   -9.067;  -15.667;    0.000; 6.60000
 364.11;   17.000;    2.867;    0.000;14.13333
 364.41;  -12.733;  -19.200;    0.000; 6.46667
 364.70;    0.933;  -11.067;    0.000;12.00000
 365.00;    1.933;   -4.333;    0.000; 6.26667
 365.29;  -11.333;   -9.133;    0.000;-2.20000
 365.59;  -12.733;   -4.267;    0.000;-8.46667
 365.88;   -6.200;   -8.867;    0.000; 2.66667
 366.18;    3.267;   -2.200;    0.000; 5.46667
 366.47;  -10.867;    6.000;    0.000;-16.86667
 366.77;   -1.133;   15.800;    0.000;-16.93333
 367.06;   -2.000;  -16.267;    0.000;14.26667
 367.36;   -2.200;   -4.267;    0.000; 2.06667
 367.65;   11.133;   -1.400;    0.000;12.53333
 367.95;  -17.533;   -3.333;    0.000;-14.20000
 368.24;    6.800;   -7.667;    0.000;14.46667
 368.54;  -15.467;  -20.133;    0.000; 4.66667
 368.83;   13.733;    2.667;    0.000;11.06667
 369.13;   15.467;   10.533;    0.000; 4.93333
 369.42;    4.667;   -4.867;    0.000; 9.53333
 369.72;    3.133;  -13.400;    0.000;16.53333
 370.01;    7.533;   -8.267;    0.000;15.80000
 370.31;    9.333;    5.600;    0.000; 3.73333
 370.60;   29.667;   26.333;    0.000; 3.33333
 370.90;  -23.200;  -20.200;    0.000;-3.00000
 371.19;  -19.067;  -26.200;    0.000; 7.13333
 371.49;  -17.067;    3.400;    0.000;-20.46667
 371.78;    5.800;    3.133;    0.000; 2.66667
 372.08;    1.400;   -7.267;    0.000; 8.66667
 372.37;   -8.800;  -14.667;    0.000; 5.86667
 372.67;    5.533;    6.067;    0.000;-0.53333
 372.96;   -6.267;    0.000;    0.000;-6.26667
 373.26;  -10.667;  -11.133;    0.000; 0.46667
 373.55;   -4.467;   -1.933;    0.000;-2.53333
 373.85;  -25.067;  -13.267;    0.000;-11.80000
 374.14;    4.667;    4.933;    0.000;-0.26667
 374.43;   -2.467;   -6.867;    0.000; 4.40000
 374.73;   -8.200;  -10.333;    0.000; 2.13333
 375.02;    4.200;    7.600;    0.000;-3.40000
 375.32;  -15.400;  -20.267;    0.000; 4.86667
 375.61;  -14.133;  -15.067;    0.000; 0.93333
 375.91;  -18.667;  -30.467;    0.000;11.80000
 376.20;  -31.533;  -10.400;    0.000;-21.13333
 376.50;  -13.800;  -20.133;    0.000; 6.33333
 376.79;   -6.533;  -22.667;    0.000;16.13333
 377.08;  -20.400;  -28.533;    0.000; 8.13333
 377.38;  -28.067;  -18.667;    0.000;-9.40000
 377.67;   16.133;   16.333;    0.000;-0.20000
 377.97;  -27.667;  -18.200;    0.000;-9.46667
 378.26;    7.800;  -10.133;    0.000;17.93333
 378.56;  -24.467;  -34.867;    0.000;10.40000
 378.85;    4.000;   -6.600;    0.000;10.60000
 379.14;  -18.933;  -29.133;    0.000;10.20000
 379.44;   -6.333;  -13.533;    0.000; 7.20000
 379.73;   -7.600;  -14.267;    0.000; 6.66667
 380.03;  -16.000;   14.000;    0.000;-30.00000
 380.32;   10.267;   -6.133;    0.000;16.40000
 380.62;  -19.200;   -9.267;    0.000;-9.93333
 380.91;   16.400;   -4.733;    0.000;21.13333
 381.20;   -5.400;    3.067;    0.000;-8.46667
 381.50;  -29.933;  -14.600;    0.000;-15.33333
 381.79;  -15.333;  -19.400;    0.000; 4.06667
 382.09;  -23.533;  -19.600;    0.000;-3.93333
 382.38;   -6.067;  -23.667;    0.000;17.60000
 382.67;  -26.400;  -19.000;    0.000;-7.40000
 382.97;  -12.867;  -16.267;    0.000; 3.40000
 383.26;  -10.800;  -24.533;    0.000;13.73333
 383.56;    4.067;    7.333;    0.000;-3.26667
 383.85;  -18.133;  -13.667;    0.000;-4.46667
 384.14;  -10.400;    2.600;    0.000;-13.00000
 384.44;  -13.133;  -26.267;    0.000;13.13333
 384.73;   -4.267;    8.533;    0.000;-12.80000
 385.02;  -24.600;  -23.800;    0.000;-0.80000
 385.32;  -15.533;   -4.933;    0.000;-10.60000
 385.61;  -20.200;  -17.333;    0.000;-2.86667
 385.91;    4.667;   -6.933;    0.000;11.60000
 386.20;   -9.333;  -30.267;    0.000;20.93333
 386.49;  -17.600;  -30.467;    0.000;12.86667
 386.79;    6.600;    7.867;    0.000;-1.26667
 387.08;  -13.600;  -30.600;    0.000;17.00000
 387.37;  -18.933;  -20.267;    0.000; 1.33333
 387.67;  -11.000;  -21.600;    0.000;10.60000
 387.96;   -7.533;  -13.133;    0.000; 5.60000
 388.25;   14.000;   11.600;    0.000; 2.40000
 388.55;   -3.600;  -20.200;    0.000;16.60000
 388.84;   -7.333;  -14.533;    0.000; 7.20000
 389.14;   -4.133;  -10.333;    0.000; 6.20000
 389.43;  -13.333;   -7.467;    0.000;-5.86667
 389.72;  -28.733;  -21.200;    0.000;-7.53333
 390.02;  -24.067;    8.333;    0.000;-32.40000
 390.31;   11.267;  -17.333;    0.000;28.60000
 390.60;   -4.267;  -17.933;    0.000;13.66667
 390.90;  -27.067;  -15.533;    0.000;-11.53333
 391.19;   -6.267;  -21.133;    0.000;14.86667
 391.48;  -16.733;  -18.733;    0.000; 2.00000
 391.78;    3.200;  -15.600;    0.000;18.80000
 392.07;   14.733;   24.600;    0.000;-9.86667
 392.36;    7.667;   -8.067;    0.000;15.73333
 392.66;   -7.667;   -9.933;    0.000; 2.26667
 392.95;  -21.133;  -23.400;    0.000; 2.26667
 393.24;   -9.133;   -7.667;    0.000;-1.46667
 393.53;    0.400;  -25.267;    0.000;25.66667
 393.83;  -23.067;  -30.133;    0.000; 7.06667
 394.12;  -14.133;   -2.133;    0.000;-12.00000
 394.41;   -3.533;   -0.733;    0.000;-2.80000
 394.71;  -18.533;   -2.267;    0.000;-16.26667
 395.00;  -14.867;   -8.667;    0.000;-6.20000
 395.29;   15.133;   -0.600;    0.000;15.73333
 395.59;  -16.800;  -33.333;    0.000;16.53333
 395.88;  -24.000;   -9.800;    0.000;-14.20000
 396.17;  -27.133;  -29.400;    0.000; 2.26667
 396.46;    9.400;   -1.467;    0.000;10.86667
 396.76;  -19.133;  -26.867;    0.000; 7.73333
 397.05;   29.667;   31.267;    0.000;-1.60000
 397.34;  -21.933;  -28.200;    0.000; 6.26667
 397.64;  -12.067;  -27.000;    0.000;14.93333
 397.93;  -15.000;  -28.333;    0.000;13.33333
 398.22;  -15.200;  -16.600;    0.000; 1.40000
 398.51;  -15.133;  -25.000;    0.000; 9.86667
 398.81;   -9.200;  -11.467;    0.000; 2.26667
 399.10;   -8.733;  -16.800;    0.000; 8.06667
 399.39;    4.533;  -22.000;    0.000;26.53333
 399.69;   -2.533;  -21.933;    0.000;19.40000
 399.98;   -4.733;    5.200;    0.000;-9.93333
 400.27;  -25.933;  -31.733;    0.000; 5.80000
 400.56;   -0.600;  -13.400;    0.000;12.80000
 400.86;  -17.533;  -22.467;    0.000; 4.93333
 401.15;    4.667;   -5.467;    0.000;10.13333
 401.44;  -18.733;  -24.333;    0.000; 5.60000
 401.73;   27.600;   -4.133;    0.000;31.73333
 402.03;  -18.400;  -29.533;    0.000;11.13333
 402.32;  -21.000;  -27.800;    0.000; 6.80000
 402.61;  -12.667;  -19.667;    0.000; 7.00000
 402.90;  -27.000;   -8.533;    0.000;-18.46667
 403.20;  -12.600;    3.667;    0.000;-16.26667
 403.49;   -8.933;  -21.867;    0.000;12.93333
 403.78;  -29.067;  -23.600;    0.000;-5.46667
 404.07;   -0.267;   -4.667;    0.000; 4.40000
 404.37;  -20.400;    1.400;    0.000;-21.80000
 404.66;  -10.600;  -18.667;    0.000; 8.06667
 404.95;   -4.800;  -12.200;    0.000; 7.40000
 405.24;  -13.400;  -24.467;    0.000;11.06667
 405.53;  -26.200;  -20.800;    0.000;-5.40000
 405.83;   14.200;   -9.933;    0.000;24.13333
 406.12;   -9.333;  -19.200;    0.000; 9.86667
 406.41;   13.867;   -6.533;    0.000;20.40000
 406.70;  -16.867;  -20.600;    0.000; 3.73333
 407.00;   -9.400;  -11.467;    0.000; 2.06667
 407.29;    3.067;  -23.067;    0.000;26.13333
 407.58;  -12.733;  -22.400;    0.000; 9.66667
 407.87;  -11.200;  -29.133;    0.000;17.93333
 408.16;  -11.800;  -15.933;    0.000; 4.13333
 408.46;  -12.000;  -31.067;    0.000;19.06667
 408.75;   -8.933;  -17.733;    0.000; 8.80000
 409.04;  -21.867;   -7.733;    0.000;-14.13333
 409.33;   -1.667;  -25.133;    0.000;23.46667
 409.62;    3.200;  -19.000;    0.000;22.20000
 409.92;   -5.733;   -0.600;    0.000;-5.13333
 410.21;  -39.400;  -31.667;    0.000;-7.73334
 410.50;  -29.267;  -24.333;    0.000;-4.93333
 410.79;  -11.467;   -1.333;    0.000;-10.13333
 411.08;  -13.800;  -10.533;    0.000;-3.26667
 411.37;  -28.133;  -37.067;    0.000; 8.93333
 411.67;   -8.733;  -34.533;    0.000;25.80000
 411.96;  -15.467;  -20.067;    0.000; 4.60000
 412.25;   -5.667;  -12.533;    0.000; 6.86667
 412.54;  -26.333;  -34.133;    0.000; 7.80000
 412.83;  -19.667;  -17.867;    0.000;-1.80000
 413.13;   -3.200;  -10.600;    0.000; 7.40000
 413.42;  -15.800;  -21.867;    0.000; 6.06667
 413.71;  -11.200;  -13.400;    0.000; 2.20000
 414.00;  -23.733;  -17.800;    0.000;-5.93333
 414.29;  -13.267;  -18.000;    0.000; 4.73333
 414.58;  -11.533;  -16.067;    0.000; 4.53333
 414.87;  -17.667;   -2.333;    0.000;-15.33333
 415.17;   12.000;  -26.600;    0.000;38.60000
 415.46;  -13.933;  -40.267;    0.000;26.33333
 415.75;  -12.600;   -4.333;    0.000;-8.26667
 416.04;  -16.933;  -18.800;    0.000; 1.86667
 416.33;   -8.000;  -21.000;    0.000;13.00000
 416.62;  -20.800;  -31.400;    0.000;10.60000
 416.91;  -10.067;  -20.400;    0.000;10.33333
 417.21;  -12.667;  -32.667;    0.000;20.00000
 417.50;  -12.133;  -23.400;    0.000;11.26667
 417.79;  -13.533;  -29.200;    0.000;15.66667
 418.08;   -8.867;  -17.333;    0.000; 8.46667
 418.37;   -7.400;  -15.067;    0.000; 7.66667
 418.66;   -6.067;  -24.933;    0.000;18.86667
 418.95;  -14.000;  -13.667;    0.000;-0.33333
 419.24;  -29.800;  -24.600;    0.000;-5.20000
 419.54;  -20.200;  -27.733;    0.000; 7.53333
 419.83;  -23.200;  -11.733;    0.000;-11.46667
 420.12;  -27.933;  -10.133;    0.000;-17.80000
 420.41;   -0.267;    8.533;    0.000;-8.80000
 420.70;  -25.733;  -16.467;    0.000;-9.26667
 420.99;   -5.800;  -15.600;    0.000; 9.80000
 421.28;   -3.933;  -13.400;    0.000; 9.46667
 421.57;   -4.067;  -12.200;    0.000; 8.13333
 421.86;    5.467;   -8.000;    0.000;13.46667
 422.16;   -6.667;  -28.133;    0.000;21.46667
 422.45;  -15.333;  -26.267;    0.000;10.93333
 422.74;  -18.333;  -17.267;    0.000;-1.06667
 423.03;  -12.600;  -17.800;    0.000; 5.20000
 423.32;  -18.067;  -12.400;    0.000;-5.66667
 423.61;   -6.933;  -15.867;    0.000; 8.93333
 423.90;   -6.800;   -1.333;    0.000;-5.46667
 424.19;   44.133;   27.000;    0.000;17.13334
 424.48;   -4.467;  -16.267;    0.000;11.80000
 424.77;  -10.867;  -16.400;    0.000; 5.53333
 425.06;    8.133;   -5.600;    0.000;13.73333
 425.35;  -21.800;   -0.667;    0.000;-21.13333
 425.65;  -24.800;  -20.067;    0.000;-4.73333
 425.94;  -27.333;  -24.600;    0.000;-2.73333
 426.23;   -7.867;  -23.267;    0.000;15.40000
 426.52;  -26.933;  -33.333;    0.000; 6.40000
 426.81;   21.667;    1.333;    0.000;20.33333
 427.10;  -34.400;  -28.000;    0.000;-6.40000
 427.39;    0.933;    0.267;    0.000; 0.66667
 427.68;   -7.000;  -26.400;    0.000;19.40000
 427.97;   13.933;   -6.400;    0.000;20.33333
 428.26;  -15.267;  -35.667;    0.000;20.40000
 428.55;    5.667;   -5.933;    0.000;11.60000
 428.84;    7.400;    2.400;    0.000; 5.00000
 429.13;  -18.867;  -11.667;    0.000;-7.20000
 429.42;   -2.067;  -19.333;    0.000;17.26667
 429.71;   -4.067;    8.400;    0.000;-12.46667
 430.00;   -9.400;  -20.667;    0.000;11.26667
 430.29;  -26.200;  -17.267;    0.000;-8.93333
 430.58;  -34.200;  -14.267;    0.000;-19.93333
 430.87;  -12.733;  -32.800;    0.000;20.06667
 431.16;  -11.933;  -34.200;    0.000;22.26667
 431.46;   -0.933;   -2.467;    0.000; 1.53333
 431.75;  -26.800;  -30.600;    0.000; 3.80000
 432.04;    3.933;    2.467;    0.000; 1.46667
 432.33;  -21.467;  -26.667;    0.000; 5.20000
 432.62;  -15.533;  -24.600;    0.000; 9.06667
 432.91;  -35.200;  -45.867;    0.000;10.66666
 433.20;    4.067;  -12.467;    0.000;16.53333
 433.49;  -16.667;  -23.333;    0.000; 6.66667
 433.78;  -30.667;  -20.933;    0.000;-9.73333
 434.07;  -18.800;  -39.133;    0.000;20.33334
 434.36;  -12.200;  -26.800;    0.000;14.60000
 434.65;  -42.733;  -33.333;    0.000;-9.40000
 434.94;  -10.267;  -18.200;    0.000; 7.93333
 435.23;  -20.933;  -18.067;    0.000;-2.86666
 435.52;  -18.667;    4.133;    0.000;-22.80000
 435.81;  -22.000;   -2.267;    0.000;-19.73333
 436.10;  -12.000;   -0.933;    0.000;-11.06667
 436.39;   -7.467;   -8.000;    0.000; 0.53333
 436.68;   -1.467;  -10.067;    0.000; 8.60000
 436.97;  -36.133;  -30.733;    0.000;-5.40000
 437.26;   -9.333;  -12.267;    0.000; 2.93333
 437.55;  -18.933;  -19.000;    0.000; 0.06667
 437.83;  -29.667;  -35.933;    0.000; 6.26667
 438.12;  -39.933;  -37.733;    0.000;-2.20000
 438.41;  -12.933;  -19.067;    0.000; 6.13333
 438.70;   20.133;   16.933;    0.000; 3.20000
 438.99;   20.067;   10.267;    0.000; 9.80000
 439.28;  -10.867;  -18.533;    0.000; 7.66667
 439.57;  -11.267;  -23.000;    0.000;11.73333
 439.86;   -6.467;  -21.200;    0.000;14.73333
 440.15;   -2.000;   -6.800;    0.000; 4.80000
 440.44;  -20.200;  -11.267;    0.000;-8.93333
 440.73;  -15.667;  -19.467;    0.000; 3.80000
 441.02;  -15.267;  -25.667;    0.000;10.40000
 441.31;   -1.867;  -13.200;    0.000;11.33333
 441.60;  -19.533;  -18.400;    0.000;-1.13333
 441.89;  -17.533;  -31.067;    0.000;13.53333
 442.18;   -6.000;  -23.200;    0.000;17.20000
 442.47;  -11.600;   -7.533;    0.000;-4.06667
 442.76;  -44.133;  -40.200;    0.000;-3.93333
 443.05;   18.000;    2.467;    0.000;15.53333
 443.34;   -9.333;   -4.000;    0.000;-5.33333
 443.63;  -19.067;  -22.800;    0.000; 3.73333
 443.91;  -12.933;  -13.533;    0.000; 0.60000
 444.20;  -16.467;  -17.467;    0.000; 1.00000
 444.49;   -7.400;  -35.267;    0.000;27.86667
 444.78;  -13.333;  -13.933;    0.000; 0.60000
 445.07;   -2.467;   -3.733;    0.000; 1.26667
 445.36;  -20.667;  -38.533;    0.000;17.86667
 445.65;  -11.133;  -19.400;    0.000; 8.26667
 445.94;  -11.800;  -29.400;    0.000;17.60000
 446.23;  -21.600;   -2.867;    0.000;-18.73333
 446.52;    6.333;    1.733;    0.000; 4.60000
 446.81;   -1.067;  -30.733;    0.000;29.66667
 447.10;  -10.533;  -26.533;    0.000;16.00000
 447.38;  -30.200;  -25.333;    0.000;-4.86667
 447.67;   13.133;  -17.000;    0.000;30.13333
 447.96;  -23.733;  -17.800;    0.000;-5.93333
 448.25;   -7.867;   -3.267;    0.000;-4.60000
 448.54;   73.200;   67.267;    0.000; 5.93333
 448.83;   -7.267;    1.133;    0.000;-8.40000
 449.12;  -20.600;  -33.733;    0.000;13.13333
 449.41;   -0.667;  -32.600;    0.000;31.93333
 449.70;  -39.600;  -31.067;    0.000;-8.53333
 449.98;  -29.333;  -30.067;    0.000; 0.73333
 450.27;  -36.800;  -25.400;    0.000;-11.40000
 450.56;  -16.067;  -29.333;    0.000;13.26667
 450.85;  -17.667;  -20.933;    0.000; 3.26667
 451.14;    1.867;  -24.267;    0.000;26.13333
 451.43;  -21.200;  -29.933;    0.000; 8.73333
 451.72;  -16.733;  -11.267;    0.000;-5.46667
 452.01;  -21.400;  -12.733;    0.000;-8.66667
 452.29;  -28.400;  -37.800;    0.000; 9.40000
 452.58;  -33.733;  -28.000;    0.000;-5.73333
 452.87;    7.733;  -25.400;    0.000;33.13333
 453.16;  -37.533;  -34.200;    0.000;-3.33333
 453.45;    4.533;   -9.667;    0.000;14.20000
 453.74;   -9.200;  -23.933;    0.000;14.73333
 454.03;  -10.467;  -20.400;    0.000; 9.93333
 454.31;  -36.667;  -25.600;    0.000;-11.06667
 454.60;  -26.733;  -19.400;    0.000;-7.33333
 454.89;    6.867;  -10.333;    0.000;17.20000
 455.18;   -5.933;  -23.733;    0.000;17.80000
 455.47;  -38.333;  -25.600;    0.000;-12.73333
 455.76;   -9.200;   -6.133;    0.000;-3.06667
 456.04;  -22.200;  -14.800;    0.000;-7.40000
 456.33;  -20.467;  -23.800;    0.000; 3.33333
 456.62;  -16.400;  -22.200;    0.000; 5.80000
 456.91;  -19.400;  -21.600;    0.000; 2.20000
 457.20;  -14.867;  -15.600;    0.000; 0.73333
 457.49;   -5.600;   -8.733;    0.000; 3.13333
 457.77;  -17.267;  -37.067;    0.000;19.80000
 458.06;   -2.000;   -5.933;    0.000; 3.93333
 458.35;  -10.867;  -29.333;    0.000;18.46667
 458.64;   -4.667;  -16.400;    0.000;11.73333
 458.93;  -33.000;  -32.267;    0.000;-0.73333
 459.21;   -8.733;  -13.867;    0.000; 5.13333
 459.50;  -34.467;  -29.400;    0.000;-5.06667
 459.79;  -19.067;  -22.333;    0.000; 3.26667
 460.08;  -25.067;  -22.600;    0.000;-2.46667
 460.37;   -4.533;  -28.733;    0.000;24.20000
 460.65;  -14.400;  -21.467;    0.000; 7.06667
 460.94;   -0.333;  -12.933;    0.000;12.60000
 461.23;  -12.933;  -17.200;    0.000; 4.26667
 461.52;    2.200;   14.667;    0.000;-12.46667
 461.81;   -3.467;  -27.333;    0.000;23.86667
 462.09;  -17.267;   -8.067;    0.000;-9.20000
 462.38;  -38.933;  -30.333;    0.000;-8.60000
 462.67;  -27.067;  -11.400;    0.000;-15.66667
 462.96;  -18.000;  -35.867;    0.000;17.86666
 463.24;  -10.533;   -1.733;    0.000;-8.80000
 463.53;    0.667;   -9.333;    0.000;10.00000
 463.82;   -8.133;  -32.400;    0.000;24.26667
 464.11;  -41.200;  -17.400;    0.000;-23.80000
 464.40;  -11.267;  -25.933;    0.000;14.66667
 464.68;  -31.400;  -30.267;    0.000;-1.13333
 464.97;  -13.133;  -20.000;    0.000; 6.86667
 465.26;   -8.467;  -19.600;    0.000;11.13333
 465.55;  -14.267;   -7.600;    0.000;-6.66667
 465.83;  -20.333;  -34.933;    0.000;14.60000
 466.12;  -15.133;  -31.400;    0.000;16.26667
 466.41;   -5.133;  -32.933;    0.000;27.80000
 466.70;  -19.400;  -36.000;    0.000;16.60000
 466.98;  -31.333;  -15.867;    0.000;-15.46667
 467.27;   -2.467;   -6.467;    0.000; 4.00000
 467.56;  -20.667;  -19.733;    0.000;-0.93333
 467.85;    4.067;  -10.267;    0.000;14.33333
 468.13;  -12.067;  -31.933;    0.000;19.86667
 468.42;   -7.267;   -2.200;    0.000;-5.06667
 468.71;  -26.600;  -19.600;    0.000;-7.00000
 468.99;  -18.533;  -30.600;    0.000;12.06667
 469.28;  -23.000;  -31.333;    0.000; 8.33333
 469.57;  -25.733;  -22.067;    0.000;-3.66667
 469.86;  -20.533;   -7.733;    0.000;-12.80000
 470.14;  -23.200;  -28.533;    0.000; 5.33333
 470.43;   -9.600;  -15.200;    0.000; 5.60000
 470.72;  -15.933;  -20.733;    0.000; 4.80000
 471.00;  -22.733;  -30.200;    0.000; 7.46667
 471.29;   -0.733;  -11.267;    0.000;10.53333
 471.58;   -9.467;   -9.733;    0.000; 0.26667
 471.87;  -20.200;  -10.800;    0.000;-9.40000
 472.15;  -14.133;  -20.600;    0.000; 6.46667
 472.44;   21.067;   -9.667;    0.000;30.73333
 472.73;  -41.667;  -17.267;    0.000;-24.40000
 473.01;  -17.333;  -10.133;    0.000;-7.20000
 473.30;   -1.933;  -23.200;    0.000;21.26667
 473.59;   -1.600;  -34.867;    0.000;33.26666
 473.87;  -15.000;  -32.067;    0.000;17.06667
 474.16;  -18.867;  -33.067;    0.000;14.20000
 474.45;  -25.333;  -29.400;    0.000; 4.06667
 474.74;  -23.933;  -32.333;    0.000; 8.40000
 475.02;    9.867;  -28.600;    0.000;38.46667
 475.31;  -17.533;  -19.733;    0.000; 2.20000
 475.60;  -20.800;   -1.867;    0.000;-18.93333
 475.88;  -19.533;  -18.067;    0.000;-1.46667
 476.17;   -6.933;  -14.800;    0.000; 7.86667
 476.46;  -21.800;  -30.267;    0.000; 8.46667
 476.74;  -25.333;  -31.333;    0.000; 6.00000
 477.03;  -23.267;  -32.333;    0.000; 9.06667
 477.32;  -23.667;  -22.800;    0.000;-0.86667
 477.60;   -3.667;  -23.933;    0.000;20.26667
 477.89;   -3.133;  -16.267;    0.000;13.13333
 478.18;  -14.533;  -25.667;    0.000;11.13333
 478.46;  -12.200;  -22.200;    0.000;10.00000
 478.75;  -16.533;  -21.667;    0.000; 5.13333
 479.03;  -50.933;  -35.333;    0.000;-15.60000
 479.32;  -14.000;   -5.800;    0.000;-8.20000
 479.61;  -31.133;  -18.133;    0.000;-13.00000
 479.89;   -8.733;  -50.133;    0.000;41.40000
 480.18;  -29.133;  -32.533;    0.000; 3.40000
 480.47;  -10.267;  -22.933;    0.000;12.66667
 480.75;  -33.733;  -25.800;    0.000;-7.93333
 481.04;   -5.200;  -15.867;    0.000;10.66667
 481.33;   -9.667;  -23.733;    0.000;14.06667
 481.61;   -7.400;  -23.800;    0.000;16.40000
 481.90;  -24.600;  -32.267;    0.000; 7.66667
 482.18;   10.733;    8.400;    0.000; 2.33333
 482.47;   -6.733;  -15.400;    0.000; 8.66667
 482.76;  -27.667;  -31.333;    0.000; 3.66667
 483.04;  -26.333;  -28.267;    0.000; 1.93333
 483.33;  -28.200;  -37.133;    0.000; 8.93333
 483.61;   -8.133;   -7.667;    0.000;-0.46667
 483.90;  -25.933;  -16.600;    0.000;-9.33333
 484.19;  -20.533;  -36.533;    0.000;16.00000
 484.47;   -2.200;  -32.067;    0.000;29.86667
 484.76;   -6.133;  -45.267;    0.000;39.13333
 485.05;   -2.333;  -18.467;    0.000;16.13333
 485.33;   -3.467;  -24.933;    0.000;21.46667
 485.62;   -1.933;  -27.600;    0.000;25.66667
 485.90;  -18.200;  -20.667;    0.000; 2.46667
 486.19;  -10.333;  -22.000;    0.000;11.66667
 486.47;   43.400;  -14.933;    0.000;58.33333
 486.76;   -6.733;  -24.933;    0.000;18.20000
 487.05;    3.667;   -3.200;    0.000; 6.86667
 487.33;   26.467;   -4.667;    0.000;31.13333
 487.62;   13.667;  -40.867;    0.000;54.53333
 487.90;    8.200;  -32.667;    0.000;40.86667
 488.19;   32.867;   -9.933;    0.000;42.80000
 488.47;   43.333;  -17.733;    0.000;61.06667
 488.76;   35.733;  -21.267;    0.000;57.00000
 489.05;   50.000;  -18.533;    0.000;68.53333
 489.33;   32.533;  -33.533;    0.000;66.06667
 489.62;   47.200;  -28.400;    0.000;75.60000
 489.90;   39.000;  -44.400;    0.000;83.40000
 490.19;   54.400;  -20.867;    0.000;75.26667
 490.47;   73.267;  -26.133;    0.000;99.40000
 490.76;   95.400;  -18.933;    0.000;114.33333
 491.05;   93.267;  -17.000;    0.000;110.26667
 491.33;  113.533;  -16.467;    0.000;130.00000
 491.62;  104.467;  -31.067;    0.000;135.53333
 491.90;  119.800;  -26.733;    0.000;146.53334
 492.19;  156.000;  -17.333;    0.000;173.33333
 492.47;  145.800;  -28.133;    0.000;173.93334
 492.76;  166.267;  -37.667;    0.000;203.93333
 493.04;  212.533;  -12.933;    0.000;225.46667
 493.33;  213.600;  -37.667;    0.000;251.26667
 493.61;  244.400;  -24.133;    0.000;268.53333
 493.90;  253.733;  -26.533;    0.000;280.26667
 494.18;  269.200;    3.467;    0.000;265.73335
 494.47;  274.000;   -8.000;    0.000;282.00000
 494.75;  324.733;  -29.667;    0.000;354.40000
 495.04;  376.333;  -43.067;    0.000;419.40001
 495.32;  377.800;  -17.400;    0.000;395.19999
 495.61;  405.733;  -35.467;    0.000;441.20000
 495.89;  432.267;  -34.733;    0.000;467.00000
 496.18;  457.933;  -32.600;    0.000;490.53332
 496.46;  512.000;  -32.400;    0.000;544.40000
 496.75;  566.467;  -29.933;    0.000;596.40001
 497.03;  590.933;  -26.667;    0.000;617.60002
 497.32;  590.733;  -15.000;    0.000;605.73334
 497.60;  665.067;  -22.467;    0.000;687.53332
 497.89;  687.467;  -17.533;    0.000;705.00001
 498.17;  724.667;  -24.800;    0.000;749.46669
 498.46;  744.333;  -48.133;    0.000;792.46665
 498.74;  829.333;   -5.200;    0.000;834.53331
 499.03;  868.467;  -17.000;    0.000;885.46667
 499.31;  924.267;  -20.400;    0.000;944.66666
 499.60;  997.533;  -14.667;    0.000;1012.19999
 499.88; 1045.600;    9.933;    0.000;1035.66664
 500.17; 1071.867;  -35.267;    0.000;1107.13337
 500.45; 1149.867;  -20.600;    0.000;1170.46670
 500.74; 1176.000;  -31.000;    0.000;1207.00000
 501.02; 1246.467;  -37.267;    0.000;1283.73334
 501.31; 1315.400;  -32.600;    0.000;1348.00002
 501.59; 1361.133;  -35.533;    0.000;1396.66663
 501.88; 1438.467;  -27.200;    0.000;1465.66668
 502.16; 1513.800;  -20.733;    0.000;1534.53338
 502.45; 1538.000;  -19.667;    0.000;1557.66667
 502.73; 1640.000;  -10.000;    0.000;1650.00000
 503.01; 1653.400;  -29.133;    0.000;1682.53336
 503.30; 1778.333;  -48.200;    0.000;1826.53337
 503.58; 1821.933;  -34.133;    0.000;1856.06668
 503.87; 1889.400;  -23.333;    0.000;1912.73336
 504.15; 1922.000;  -31.200;    0.000;1953.20000
 504.44; 1996.067;  -12.333;    0.000;2008.39998
 504.72; 2128.067;   -0.267;    0.000;2128.33332
 505.00; 2175.067;  -18.200;    0.000;2193.26665
 505.29; 2232.733;  -24.533;    0.000;2257.26673
 505.57; 2319.800;  -18.400;    0.000;2338.20005
 505.86; 2355.000;  -30.200;    0.000;2385.20000
 506.14; 2533.267;  -42.933;    0.000;2576.19994
 506.43; 2573.200;  -12.800;    0.000;2585.99995
 506.71; 2605.933;  -41.267;    0.000;2647.20002
 506.99; 2736.133;  -35.133;    0.000;2771.26664
 507.28; 2774.467;  -11.467;    0.000;2785.93322
 507.56; 2858.600;  -17.667;    0.000;2876.26676
 507.85; 2932.200;  -14.667;    0.000;2946.86662
 508.13; 3066.800;  -27.200;    0.000;3094.00005
 508.41; 3115.200;   22.933;    0.000;3092.26662
 508.70; 3187.933;   -9.000;    0.000;3196.93335
 508.98; 3296.733;  -16.800;    0.000;3313.53340
 509.27; 3292.800;  -26.867;    0.000;3319.66672
 509.55; 3442.333;  -10.533;    0.000;3452.86659
 509.83; 3495.133;  -46.200;    0.000;3541.33330
 510.12; 3580.800;  -30.200;    0.000;3611.00005
 510.40; 3643.400;   -9.733;    0.000;3653.13324
 510.69; 3728.667;  -31.000;    0.000;3759.66675
 510.97; 3823.600;  -16.867;    0.000;3840.46676
 511.25; 3943.333;  -24.067;    0.000;3967.39992
 511.54; 4051.467;  -24.933;    0.000;4076.39989
 511.82; 4082.800;    1.067;    0.000;4081.73338
 512.11; 4163.933;  -21.000;    0.000;4184.93311
 512.39; 4267.733;  -21.200;    0.000;4288.93340
 512.67; 4324.067;   -6.200;    0.000;4330.26689
 512.96; 4430.667;  -37.733;    0.000;4468.39984
 513.24; 4524.733;  -26.800;    0.000;4551.53340
 513.52; 4512.600;   -2.933;    0.000;4515.53343
 513.81; 4647.200;   -4.600;    0.000;4651.80020
 514.09; 4685.667;  -21.400;    0.000;4707.06650
 514.37; 4774.200;  -10.600;    0.000;4784.80020
 514.66; 4807.667;   -7.800;    0.000;4815.46650
 514.94; 4894.400;  -32.133;    0.000;4926.53324
 515.22; 4958.733;  -20.000;    0.000;4978.73340
 515.51; 5007.600;  -29.600;    0.000;5037.20010
 515.79; 5067.467;  -25.267;    0.000;5092.73346
 516.07; 5158.533;  -25.867;    0.000;5184.39987
 516.36; 5254.133;  -37.067;    0.000;5291.19997
 516.64; 5343.467;  -34.600;    0.000;5378.06680
 516.92; 5368.067;  -23.733;    0.000;5391.80023
 517.21; 5537.867;  -28.067;    0.000;5565.93337
 517.49; 5558.600;  -31.800;    0.000;5590.40010
 517.77; 5672.000;   -5.200;    0.000;5677.20000
 518.06; 5801.867;  -25.933;    0.000;5827.80003
 518.34; 5765.667;  -33.800;    0.000;5799.46650
 518.62; 5935.067;   -4.533;    0.000;5939.60023
 518.91; 6081.533;  131.467;    0.000;5950.06654
 519.19; 6044.200;  -11.800;    0.000;6056.00020
 519.47; 6100.733;   -7.133;    0.000;6107.86673
 519.76; 6228.133;   -5.533;    0.000;6233.66663
 520.04; 6151.467;   -8.933;    0.000;6160.40013
 520.32; 6316.533;  -10.600;    0.000;6327.13320
 520.61; 6318.667;   10.667;    0.000;6307.99984
 520.89; 6347.400;  -14.000;    0.000;6361.39990
 521.17; 6440.067;  -29.867;    0.000;6469.93356
 521.45; 6525.067;  -16.067;    0.000;6541.13356
 521.74; 6607.267;  -17.200;    0.000;6624.46660
 522.02; 6672.267;  -21.267;    0.000;6693.53327
 522.30; 6772.867;  -20.200;    0.000;6793.06670
 522.59; 6827.067;    6.267;    0.000;6820.80023
 522.87; 6848.000;    3.800;    0.000;6844.20000
 523.15; 6912.333;    3.067;    0.000;6909.26683
 523.43; 6947.067;  -39.333;    0.000;6986.40023
 523.72; 6973.000;  -22.933;    0.000;6995.93333
 524.00; 7082.067;  -22.333;    0.000;7104.40023
 524.28; 7127.867;  -22.133;    0.000;7150.00003
 524.57; 7058.000;  -14.867;    0.000;7072.86667
 524.85; 7170.533;  -26.000;    0.000;7196.53320
 525.13; 7247.933;  -16.000;    0.000;7263.93311
 525.41; 7350.133;  -26.933;    0.000;7377.06663
 525.70; 7301.800;  -41.200;    0.000;7342.99981
 525.98; 7351.267;  -18.467;    0.000;7369.73327
 526.26; 7496.733;  -24.667;    0.000;7521.40006
 526.54; 7567.933;  -19.867;    0.000;7587.79977
 526.83; 7533.600;  -19.600;    0.000;7553.20010
 527.11; 7633.133;   -3.067;    0.000;7636.19997
 527.39; 7645.000;   -9.200;    0.000;7654.20000
 527.67; 7674.933;  -15.000;    0.000;7689.93311
 527.96; 7656.667;  -16.600;    0.000;7673.26650
 528.24; 7797.533;  -30.867;    0.000;7828.39987
 528.52; 7837.133;  -16.733;    0.000;7853.86663
 528.80; 7884.733;   10.400;    0.000;7874.33340
 529.08; 7948.533;  -21.133;    0.000;7969.66654
 529.37; 7925.867;  -23.667;    0.000;7949.53337
 529.65; 8002.267;   -2.867;    0.000;8005.13327
 529.93; 8093.533;   -7.800;    0.000;8101.33320
 530.21; 8113.333;  -29.867;    0.000;8143.20016
 530.50; 8100.533;  -12.267;    0.000;8112.79987
 530.78; 8158.333;  -23.333;    0.000;8181.66683
 531.06; 8221.267;  -24.200;    0.000;8245.46660
 531.34; 8236.866;  -18.733;    0.000;8255.59954
 531.62; 8277.866;  -22.333;    0.000;8300.19954
 531.91; 8359.800;  -32.067;    0.000;8391.86647
 532.19; 8415.866;  -24.467;    0.000;8440.33288
 532.47; 8398.467;  -14.600;    0.000;8413.06680
 532.75; 8484.134;   -7.733;    0.000;8491.86712
 533.03; 8477.400;   13.200;    0.000;8464.20039
 533.32; 8526.000;   -6.533;    0.000;8532.53333
 533.60; 8578.533;   -6.333;    0.000;8584.86654
 533.88; 8586.400;   10.867;    0.000;8575.53372
 534.16; 8668.467;  -34.533;    0.000;8703.00013
 534.44; 8718.134;    5.133;    0.000;8713.00046
 534.72; 8698.066;  -28.333;    0.000;8726.39974
 535.01; 8705.400;  -34.333;    0.000;8739.73372
 535.29; 8727.800;  -26.867;    0.000;8754.66647
 535.57; 8833.400;  -25.333;    0.000;8858.73372
 535.85; 8855.533;  -21.200;    0.000;8876.73320
 536.13; 8875.934;  -14.533;    0.000;8890.46693
 536.42; 8941.733;  -26.133;    0.000;8967.86673
 536.70; 9010.934;  -21.267;    0.000;9032.20026
 536.98; 8983.733;  -12.400;    0.000;8996.13340
 537.26; 8997.934;  -10.067;    0.000;9008.00026
 537.54; 9047.533;  -10.533;    0.000;9058.06654
 537.82; 9099.800;    3.800;    0.000;9095.99980
 538.10; 9054.267;  -15.667;    0.000;9069.93327
 538.39; 9171.667;   -7.867;    0.000;9179.53366
 538.67; 9181.134;   -9.667;    0.000;9190.80046
 538.95; 9228.600;  -27.000;    0.000;9255.59961
 539.23; 9248.333;  -35.600;    0.000;9283.93301
 539.51; 9205.934;   -9.933;    0.000;9215.86693
 539.79; 9197.200;  -34.533;    0.000;9231.73353
 540.07; 9179.667;  -43.267;    0.000;9222.93366
 540.36; 9310.200;  -42.867;    0.000;9353.06686
 540.64; 9317.066;  -23.600;    0.000;9340.66641
 540.92; 9445.134;  -21.667;    0.000;9466.80046
 541.20; 9454.533;  -11.133;    0.000;9465.66654
 541.48; 9423.000;    0.200;    0.000;9422.80000
 541.76; 9355.066;  -12.067;    0.000;9367.13307
 542.04; 9446.000;  -18.400;    0.000;9464.40000
 542.32; 9393.866;  -27.000;    0.000;9420.86621
 542.61; 9604.200;  -18.600;    0.000;9622.80020
 542.89; 9576.200;    0.067;    0.000;9576.13353
 543.17; 9511.267;  -37.133;    0.000;9548.39994
 543.45; 9512.200;  -35.000;    0.000;9547.20020
 543.73; 9525.934;  -23.467;    0.000;9549.40026
 544.01; 9571.667;  -11.000;    0.000;9582.66699
 544.29; 9727.934;  -20.733;    0.000;9748.66693
 544.57; 9684.533;  -25.600;    0.000;9710.13320
 544.85; 9751.200;  -20.733;    0.000;9771.93353
 545.13; 9746.066;   -7.733;    0.000;9753.79974
 545.42; 9746.667;   -8.600;    0.000;9755.26699
 545.70; 9726.267;  -10.667;    0.000;9736.93327
 545.98; 9737.934;  -30.667;    0.000;9768.60026
 546.26; 9753.333;    2.867;    0.000;9750.46634
 546.54; 9726.667;  -23.667;    0.000;9750.33366
 546.82; 9863.200;  -17.600;    0.000;9880.80020
 547.10; 9804.400;    5.533;    0.000;9798.86706
 547.38; 9904.866;  -20.267;    0.000;9925.13288
 547.66; 9800.733;  -15.600;    0.000;9816.33340
 547.94; 9856.866;  -31.333;    0.000;9888.19954
 548.22; 9897.467;  -27.600;    0.000;9925.06680
 548.50; 9887.000;  -28.400;    0.000;9915.40000
 548.78; 9913.934;  -19.533;    0.000;9933.46693
 549.06; 9973.400;  -10.200;    0.000;9983.60039
 549.34; 9877.267;  -26.867;    0.000;9904.13327
 549.63; 9899.866;   17.867;    0.000;9881.99954
 549.91; 9833.733;   -6.400;    0.000;9840.13340
 550.19; 9963.866;  -18.400;    0.000;9982.26621
 550.47; 9952.000;  -19.800;    0.000;9971.80000
 550.75; 9950.066;  -22.800;    0.000;9972.86641
 551.03;10022.467;  -26.067;    0.000;10048.53346
 551.31; 9926.000;   -8.600;    0.000;9934.60000
 551.59; 9881.467;  -15.200;    0.000;9896.66680
 551.87;10002.533;   -8.333;    0.000;10010.86654
 552.15; 9886.533;  -31.267;    0.000;9917.79987
 552.43;10025.066;   -4.533;    0.000;10029.59974
 552.71; 9979.733;  -23.467;    0.000;10003.20007
 552.99;10030.200;  -20.533;    0.000;10050.73353
 553.27; 9967.333;  -33.800;    0.000;10001.13301
 553.55; 9978.200;  -17.667;    0.000;9995.86686
 553.83; 9987.267;  -31.533;    0.000;10018.79993
 554.11; 9980.600;  -13.267;    0.000;9993.86628
 554.39; 9951.134;   -4.333;    0.000;9955.46712
 554.67; 9984.267;  -21.467;    0.000;10005.73327
 554.95; 9982.800;    6.667;    0.000;9976.13314
 555.23; 9955.134;    3.533;    0.000;9951.60046
 555.51;10050.267;  -33.867;    0.000;10084.13327
 555.79;10009.400;  -16.067;    0.000;10025.46706
 556.07; 9939.800;  -17.467;    0.000;9957.26647
 556.35; 9987.800;  -18.600;    0.000;10006.39981
 556.63; 9965.200;  -16.667;    0.000;9981.86686
 556.91; 9979.134;   -5.867;    0.000;9985.00046
 557.19;10076.866;  -13.600;    0.000;10090.46621
 557.47; 9968.667;   -8.267;    0.000;9976.93366
 557.75; 9876.600;  -27.267;    0.000;9903.86628
 558.03; 9904.200;    5.200;    0.000;9899.00020
 558.31; 9992.134;  -33.533;    0.000;10025.66712
 558.59; 9954.400;  -18.267;    0.000;9972.66706
 558.87;10020.667;  -21.467;    0.000;10042.13366
 559.15; 9981.134;  -29.133;    0.000;10010.26712
 559.43;10014.667;   -9.467;    0.000;10024.13366
 559.71; 9935.934;   -1.267;    0.000;9937.20026
 559.99;10012.533;  -21.067;    0.000;10033.59987
 560.27; 9928.333;   -9.467;    0.000;9937.79967
 560.55; 9946.400;   -7.400;    0.000;9953.80039
 560.82; 9946.866;  -30.733;    0.000;9977.59954
 561.10; 9979.134;  -22.667;    0.000;10001.80046
 561.38;10017.333;    3.733;    0.000;10013.59967
 561.66; 9868.267;  -16.200;    0.000;9884.46660
 561.94; 9939.533;  -25.267;    0.000;9964.79987
 562.22; 9986.000;  -14.267;    0.000;10000.26667
 562.50; 9881.934;   -4.733;    0.000;9886.66693
 562.78; 9848.733;  -19.333;    0.000;9868.06673
 563.06; 9821.333;  -12.400;    0.000;9833.73301
 563.34; 9842.000;  -24.133;    0.000;9866.13333
 563.62; 9839.733;   -9.867;    0.000;9849.60007
 563.90; 9801.733;  -31.467;    0.000;9833.20007
 564.18; 9844.533;  -19.867;    0.000;9864.39987
 564.46; 9710.667;  -11.600;    0.000;9722.26699
 564.74; 9772.066;  -16.467;    0.000;9788.53307
 565.01; 9804.467;  -22.467;    0.000;9826.93346
 565.29; 9756.066;   -8.933;    0.000;9764.99974
 565.57; 9728.934;  -23.000;    0.000;9751.93359
 565.85; 9749.267;   -3.267;    0.000;9752.53327
 566.13; 9609.800;  -16.533;    0.000;9626.33314
 566.41; 9660.333;   23.600;    0.000;9636.73301
 566.69; 9549.800;  -21.133;    0.000;9570.93314
 566.97; 9619.800;  -13.267;    0.000;9633.06647
 567.25; 9562.800;   -6.867;    0.000;9569.66647
 567.53; 9598.134;  -28.867;    0.000;9627.00046
 567.80; 9582.600;   -2.600;    0.000;9585.19961
 568.08; 9533.333;   -7.267;    0.000;9540.59967
 568.36; 9547.066;  -24.600;    0.000;9571.66641
 568.64; 9530.600;  -19.067;    0.000;9549.66628
 568.92; 9537.467;    1.467;    0.000;9536.00013
 569.20; 9403.200;  -12.667;    0.000;9415.86686
 569.48; 9443.400;  -29.467;    0.000;9472.86706
 569.76; 9411.267;  -36.933;    0.000;9448.19994
 570.03; 9373.200;  -11.400;    0.000;9384.60019
 570.31; 9301.866;   -9.600;    0.000;9311.46621
 570.59; 9299.733;  -14.600;    0.000;9314.33340
 570.87; 9300.066;  -11.267;    0.000;9311.33307
 571.15; 9245.800;  -39.867;    0.000;9285.66647
 571.43; 9252.600;  -28.933;    0.000;9281.53294
 571.71; 9239.667;  -31.267;    0.000;9270.93366
 571.98; 9241.066;  -11.600;    0.000;9252.66641
 572.26; 9228.533;  -15.267;    0.000;9243.79987
 572.54; 9176.600;  -12.333;    0.000;9188.93294
 572.82; 9060.533;  -26.200;    0.000;9086.73320
 573.10; 8997.866;   -9.933;    0.000;9007.79954
 573.38; 9097.134;  -22.800;    0.000;9119.93379
 573.66; 9022.600;  -18.133;    0.000;9040.73294
 573.93; 8972.000;   -3.800;    0.000;8975.80000
 574.21; 9039.467;  -28.933;    0.000;9068.40013
 574.49; 8854.000;  -27.933;    0.000;8881.93333
 574.77; 8953.066;   -7.667;    0.000;8960.73307
 575.05; 8946.267;  -19.067;    0.000;8965.33327
 575.33; 8848.934;  -24.600;    0.000;8873.53359
 575.60; 8880.400;  -31.400;    0.000;8911.80039
 575.88; 8794.467;  -17.467;    0.000;8811.93346
 576.16; 8827.467;  -16.000;    0.000;8843.46680
 576.44; 8795.267;   -9.867;    0.000;8805.13327
 576.72; 8653.134;   -9.067;    0.000;8662.20046
 576.99; 8695.667;  -19.867;    0.000;8715.53366
 577.27; 8741.134;  -11.400;    0.000;8752.53379
 577.55; 8582.200;    2.200;    0.000;8580.00020
 577.83; 8570.267;  -25.000;    0.000;8595.26660
 578.11; 8617.934;   -3.200;    0.000;8621.13359
 578.38; 8459.934;  -26.133;    0.000;8486.06693
 578.66; 8459.600;  -26.667;    0.000;8486.26628
 578.94; 8377.066;  -41.867;    0.000;8418.93307
 579.22; 8400.000;  -27.600;    0.000;8427.60000
 579.50; 8400.667;    2.933;    0.000;8397.73366
 579.77; 8326.333;  -10.067;    0.000;8336.39967
 580.05; 8297.866;  -32.733;    0.000;8330.59954
 580.33; 8267.000;  -14.533;    0.000;8281.53333
 580.61; 8279.134;  -30.000;    0.000;8309.13379
 580.88; 8292.934;  -11.733;    0.000;8304.66693
 581.16; 8240.800;  -38.867;    0.000;8279.66647
 581.44; 8164.933;  -13.200;    0.000;8178.13311
 581.72; 8119.600;  -11.933;    0.000;8131.53343
 581.99; 8085.133;   -4.933;    0.000;8090.06663
 582.27; 8034.133;  -23.467;    0.000;8057.59997
 582.55; 7990.867;  -32.733;    0.000;8023.60003
 582.83; 7940.933;  -15.933;    0.000;7956.86644
 583.10; 7945.400;   -8.533;    0.000;7953.93324
 583.38; 7888.533;  -26.933;    0.000;7915.46654
 583.66; 7837.333;   -3.267;    0.000;7840.60016
 583.94; 7778.200;  -33.467;    0.000;7811.66686
 584.21; 7798.933;  -18.600;    0.000;7817.53311
 584.49; 7751.733;  -28.400;    0.000;7780.13340
 584.77; 7714.133;  -38.067;    0.000;7752.19997
 585.05; 7630.200;  -15.800;    0.000;7646.00020
 585.32; 7569.000;  -10.533;    0.000;7579.53333
 585.60; 7544.133;  -19.933;    0.000;7564.06663
 585.88; 7522.333;  -19.133;    0.000;7541.46683
 586.16; 7528.533;  -11.733;    0.000;7540.26654
 586.43; 7420.200;   -0.667;    0.000;7420.86686
 586.71; 7417.733;   -6.667;    0.000;7424.40006
 586.99; 7383.333;  -38.867;    0.000;7422.20016
 587.26; 7286.600;  -30.933;    0.000;7317.53343
 587.54; 7331.133;  -17.600;    0.000;7348.73330
 587.82; 7288.667;  -16.000;    0.000;7304.66650
 588.10; 7190.467;  -28.200;    0.000;7218.66680
 588.37; 7100.267;  -31.533;    0.000;7131.79993
 588.65; 7152.333;  -32.933;    0.000;7185.26683
 588.93; 7034.067;  -31.200;    0.000;7065.26690
 589.20; 7074.200;   -5.200;    0.000;7079.40020
 589.48; 6989.533;  -14.000;    0.000;7003.53320
 589.76; 6946.800;    9.733;    0.000;6937.06647
 590.03; 6882.533;   -8.467;    0.000;6890.99987
 590.31; 6886.133;  -14.333;    0.000;6900.46663
 590.59; 6788.400;  -10.933;    0.000;6799.33324
 590.86; 6744.200;  -23.533;    0.000;6767.73353
 591.14; 6723.533;  -40.867;    0.000;6764.39987
 591.42; 6664.333;  -25.467;    0.000;6689.80016
 591.70; 6675.200;   -2.467;    0.000;6677.66686
 591.97; 6578.667;  -32.800;    0.000;6611.46650
 592.25; 6607.400;  -21.400;    0.000;6628.79990
 592.53; 6587.000;  -12.200;    0.000;6599.20000
 592.80; 6477.533;  -42.000;    0.000;6519.53320
 593.08; 6534.000;   -9.667;    0.000;6543.66667
 593.36; 6448.400;    6.733;    0.000;6441.66657
 593.63; 6352.600;  -14.400;    0.000;6367.00010
 593.91; 6385.600;  -26.400;    0.000;6412.00010
 594.18; 6277.867;   -4.600;    0.000;6282.46670
 594.46; 6277.000;  -35.333;    0.000;6312.33333
 594.74; 6189.400;  -15.733;    0.000;6205.13324
 595.01; 6062.133;  -53.600;    0.000;6115.73330
 595.29; 6143.133;  -34.467;    0.000;6177.59997
 595.57; 6106.933;  -22.200;    0.000;6129.13311
 595.84; 6003.800;  -28.800;    0.000;6032.59980
 596.12; 6094.867;  -32.533;    0.000;6127.40003
 596.40; 5935.000;  -21.667;    0.000;5956.66667
 596.67; 5931.600;  -44.867;    0.000;5976.46676
 596.95; 5839.800;  -26.267;    0.000;5866.06647
 597.22; 5848.467;  -16.333;    0.000;5864.80013
 597.50; 5792.200;    2.800;    0.000;5789.40020
 597.78; 5694.600;  -19.133;    0.000;5713.73343
 598.05; 5691.800;  -25.933;    0.000;5717.73314
 598.33; 5669.733;  -38.000;    0.000;5707.73340
 598.61; 5574.867;  -25.867;    0.000;5600.73337
 598.88; 5567.000;  -26.067;    0.000;5593.06667
 599.16; 5497.133;  -17.067;    0.000;5514.19997
 599.43; 5479.667;  -42.200;    0.000;5521.86650
 599.71; 5464.933;  -23.067;    0.000;5487.99977
 599.99; 5358.400;  -28.533;    0.000;5386.93324
 600.26; 5357.867;  -30.933;    0.000;5388.80003
 600.54; 5415.333;  -12.867;    0.000;5428.20016
 600.81; 5315.800;  -10.800;    0.000;5326.59980
 601.09; 5212.267;  -35.067;    0.000;5247.33327
 601.36; 5252.400;  -22.067;    0.000;5274.46657
 601.64; 5217.933;   -9.333;    0.000;5227.26644
 601.92; 5095.800;  -14.667;    0.000;5110.46647
 602.19; 5061.600;  -31.867;    0.000;5093.46676
 602.47; 5056.733;  -30.667;    0.000;5087.40006
 602.74; 5077.533;  -13.067;    0.000;5090.59987
 603.02; 5009.200;  -37.067;    0.000;5046.26686
 603.29; 4984.800;  -30.733;    0.000;5015.53314
 603.57; 5007.667;  -23.133;    0.000;5030.79984
 603.85; 4920.667;  -32.000;    0.000;4952.66650
 604.12; 4896.133;   12.267;    0.000;4883.86663
 604.40; 4757.000;  -32.467;    0.000;4789.46667
 604.67; 4835.600;  -32.733;    0.000;4868.33343
 604.95; 4753.867;  -37.800;    0.000;4791.66670
 605.22; 4756.333;  -13.067;    0.000;4769.40016
 605.50; 4640.000;  -20.933;    0.000;4660.93333
 605.77; 4668.733;  -10.867;    0.000;4679.60007
 606.05; 4626.733;  -34.067;    0.000;4660.80006
 606.33; 4645.267;  -12.467;    0.000;4657.73327
 606.60; 4566.800;  -31.200;    0.000;4597.99981
 606.88; 4505.667;   -4.400;    0.000;4510.06650
 607.15; 4572.800;  -16.867;    0.000;4589.66647
 607.43; 4506.000;  -17.733;    0.000;4523.73333
 607.70; 4451.733;  -21.933;    0.000;4473.66673
 607.98; 4447.400;  -51.333;    0.000;4498.73323
 608.25; 4401.200;  -33.467;    0.000;4434.66686
 608.53; 4345.067;  -39.867;    0.000;4384.93356
 608.80; 4347.200;  -48.867;    0.000;4396.06686
 609.08; 4332.400;  -22.400;    0.000;4354.79990
 609.35; 4338.467;  -35.600;    0.000;4374.06680
 609.63; 4262.400;  -30.067;    0.000;4292.46657
 609.90; 4179.600;  -28.067;    0.000;4207.66677
 610.18; 4276.933;  -21.000;    0.000;4297.93311
 610.45; 4201.333;  -37.133;    0.000;4238.46683
 610.73; 4172.533;  -21.000;    0.000;4193.53320
 611.00; 4149.200;  -12.000;    0.000;4161.20020
 611.28; 4094.667;  -45.267;    0.000;4139.93341
 611.55; 4099.333;  -54.667;    0.000;4154.00016
 611.83; 4103.933;  -43.200;    0.000;4147.13311
 612.10; 4016.000;  -31.600;    0.000;4047.60000
 612.38; 3959.267;  -38.067;    0.000;3997.33327
 612.65; 3952.067;  -35.200;    0.000;3987.26665
 612.93; 3956.667;  -49.933;    0.000;4006.60008
 613.20; 3928.600;  -27.667;    0.000;3956.26676
 613.48; 3976.000;  -43.733;    0.000;4019.73333
 613.75; 3896.067;  -45.867;    0.000;3941.93332
 614.03; 3870.067;   -9.400;    0.000;3879.46665
 614.30; 3833.067;  -31.933;    0.000;3864.99998
 614.57; 3797.600;  -55.267;    0.000;3852.86676
 614.85; 3840.467;  -18.400;    0.000;3858.86655
 615.12; 3774.533;  -46.400;    0.000;3820.93345
 615.40; 3758.867;  -57.000;    0.000;3815.86670
 615.67; 3700.000;  -36.000;    0.000;3736.00000
 615.95; 3752.667;  -34.800;    0.000;3787.46675
 616.22; 3749.267;  -28.867;    0.000;3778.13327
 616.50; 3711.067;  -28.733;    0.000;3739.79998
 616.77; 3627.600;  -40.000;    0.000;3667.60010
 617.05; 3682.933;  -19.733;    0.000;3702.66668
 617.32; 3607.733;  -42.933;    0.000;3650.66673
 617.59; 3590.800;  -43.067;    0.000;3633.86671
 617.87; 3543.667;  -16.533;    0.000;3560.20008
 618.14; 3472.800;  -36.400;    0.000;3509.20005
 618.42; 3429.267;  -50.600;    0.000;3479.86660
 618.69; 3441.733;  -54.467;    0.000;3496.20007
 618.97; 3412.667;  -42.067;    0.000;3454.73341
 619.24; 3317.467;  -37.267;    0.000;3354.73322
 619.51; 3353.000;  -30.667;    0.000;3383.66667
 619.79; 3274.467;  -36.667;    0.000;3311.13322
 620.06; 3262.800;  -28.400;    0.000;3291.20005
 620.34; 3159.333;  -38.267;    0.000;3197.59992
 620.61; 3179.800;  -43.800;    0.000;3223.60005
 620.88; 3070.133;  -33.600;    0.000;3103.73330
 621.16; 3167.333;  -34.333;    0.000;3201.66658
 621.43; 3162.733;  -35.667;    0.000;3198.40007
 621.71; 3126.733;  -20.133;    0.000;3146.86673
 621.98; 3100.800;  -43.667;    0.000;3144.46672
 622.25; 3096.133;  -35.467;    0.000;3131.59997
 622.53; 3116.667;  -33.200;    0.000;3149.86675
 622.80; 3039.600;  -49.200;    0.000;3088.80010
 623.08; 3080.333;  -54.400;    0.000;3134.73325
 623.35; 2979.467;  -26.467;    0.000;3005.93322
 623.62; 3013.467;  -41.000;    0.000;3054.46655
 623.90; 3023.533;  -36.667;    0.000;3060.20012
 624.17; 2889.467;  -36.600;    0.000;2926.06655
 624.44; 2962.200;  -37.533;    0.000;2999.73328
 624.72; 2901.800;  -52.133;    0.000;2953.93338
 624.99; 2921.733;  -35.000;    0.000;2956.73340
 625.26; 2905.533;  -56.200;    0.000;2961.73345
 625.54; 2950.333;  -27.667;    0.000;2977.99992
 625.81; 2900.067;  -45.733;    0.000;2945.79998
 626.09; 2846.133;  -46.467;    0.000;2892.59997
 626.36; 2911.667;  -50.200;    0.000;2961.86675
 626.63; 2847.733;  -33.267;    0.000;2881.00006
 626.91; 2864.800;  -41.667;    0.000;2906.46672
 627.18; 2850.533;  -29.533;    0.000;2880.06678
 627.45; 2765.333;  -47.400;    0.000;2812.73325
 627.73; 2836.733;  -27.200;    0.000;2863.93340
 628.00; 2790.667;  -49.400;    0.000;2840.06675
 628.27; 2806.067;  -27.533;    0.000;2833.59998
 628.55; 2785.267;  -33.000;    0.000;2818.26660
 628.82; 2753.467;  -49.267;    0.000;2802.73322
 629.09; 2800.067;  -20.867;    0.000;2820.93332
 629.37; 2754.667;  -53.267;    0.000;2807.93341
 629.64; 2757.733;  -28.267;    0.000;2786.00006
 629.91; 2703.200;  -45.467;    0.000;2748.66662
 630.18; 2730.267;  -44.333;    0.000;2774.59993
 630.46; 2739.667;  -29.467;    0.000;2769.13342
 630.73; 2684.667;  -33.533;    0.000;2718.20008
 631.00; 2672.667;  -39.867;    0.000;2712.53341
 631.28; 2662.133;  -61.667;    0.000;2723.79997
 631.55; 2679.867;  -56.467;    0.000;2736.33337
 631.82; 2627.667;  -43.467;    0.000;2671.13342
 632.10; 2614.733;  -35.600;    0.000;2650.33340
 632.37; 2656.000;  -37.800;    0.000;2693.80000
 632.64; 2628.067;  -41.933;    0.000;2669.99998
 632.91; 2626.933;  -21.533;    0.000;2648.46668
 633.19; 2645.667;  -27.200;    0.000;2672.86675
 633.46; 2596.533;  -45.533;    0.000;2642.06678
 633.73; 2693.400;  -18.467;    0.000;2711.86657
 634.01; 2606.933;  -21.267;    0.000;2628.20002
 634.28; 2610.600;  -31.467;    0.000;2642.06676
 634.55; 2611.867;  -12.933;    0.000;2624.80003
 634.82; 2598.533;  -40.800;    0.000;2639.33345
 635.10; 2627.733;  -50.200;    0.000;2677.93340
 635.37; 2589.400;  -41.467;    0.000;2630.86657
 635.64; 2553.467;  -56.800;    0.000;2610.26655
 635.91; 2559.000;  -63.133;    0.000;2622.13334
 636.19; 2584.800;  -44.067;    0.000;2628.86671
 636.46; 2602.200;  -59.733;    0.000;2661.93328
 636.73; 2594.000;  -17.333;    0.000;2611.33333
 637.00; 2609.733;  -47.133;    0.000;2656.86673
 637.28; 2580.200;  -42.533;    0.000;2622.73328
 637.55; 2636.400;  -19.600;    0.000;2655.99990
 637.82; 2568.067;  -54.200;    0.000;2622.26665
 638.09; 2515.267;  -41.667;    0.000;2556.93327
 638.37; 2505.067;  -64.200;    0.000;2569.26665
 638.64; 2517.200;  -54.600;    0.000;2571.79995
 638.91; 2468.200;  -31.867;    0.000;2500.06662
 639.18; 2465.267;  -43.933;    0.000;2509.19994
 639.46; 2399.000;  -43.533;    0.000;2442.53333
 639.73; 2418.467;  -39.600;    0.000;2458.06655
 640.00; 2384.067;  -51.600;    0.000;2435.66665
 640.27; 2366.867;  -51.933;    0.000;2418.80003
 640.54; 2351.000;  -53.333;    0.000;2404.33333
 640.82; 2381.333;  -23.800;    0.000;2405.13325
 641.09; 2360.600;  -48.533;    0.000;2409.13343
 641.36; 2321.933;  -52.533;    0.000;2374.46668
 641.63; 2280.267;  -62.733;    0.000;2342.99994
 641.91; 2227.667;  -50.133;    0.000;2277.80008
 642.18; 2209.133;  -75.067;    0.000;2284.19997
 642.45; 2188.467;  -50.133;    0.000;2238.59989
 642.72; 2139.800;  -50.400;    0.000;2190.20005
 642.99; 2202.000;  -10.533;    0.000;2212.53333
 643.26; 2122.133;  -43.133;    0.000;2165.26664
 643.54; 2123.067;  -32.533;    0.000;2155.59998
 643.81; 2129.400;  -61.933;    0.000;2191.33324
 644.08; 2158.133;  -43.000;    0.000;2201.13330
 644.35; 2042.400;  -48.667;    0.000;2091.06669
 644.62; 2017.000;  -34.400;    0.000;2051.40000
 644.90; 2058.267;  -40.533;    0.000;2098.79993
 645.17; 2042.600;  -35.200;    0.000;2077.79998
 645.44; 1988.333;  -56.467;    0.000;2044.80004
 645.71; 2005.067;  -61.600;    0.000;2066.66665
 645.98; 1939.733;  -53.733;    0.000;1993.46661
 646.25; 2001.467;  -49.333;    0.000;2050.80001
 646.53; 1957.200;  -48.600;    0.000;2005.79995
 646.80; 1953.667;  -45.267;    0.000;1998.93329
 647.07; 1920.533;  -51.867;    0.000;1972.39999
 647.34; 1944.800;  -30.133;    0.000;1974.93338
 647.61; 1900.000;  -27.533;    0.000;1927.53333
 647.88; 1964.800;  -15.067;    0.000;1979.86672
 648.15; 1879.333;  -64.333;    0.000;1943.66671
 648.43; 1863.667;  -24.067;    0.000;1887.73329
 648.70; 1866.533;  -66.733;    0.000;1933.26665
 648.97; 1872.867;  -58.133;    0.000;1931.00003
 649.24; 1864.200;  -53.733;    0.000;1917.93328
 649.51; 1818.200;  -52.267;    0.000;1870.46662
 649.78; 1793.267;  -38.533;    0.000;1831.80006
 650.05; 1811.867;  -11.867;    0.000;1823.73337
 650.32; 1853.333;   15.800;    0.000;1837.53337
 650.60; 1825.467;  -46.733;    0.000;1872.20001
 650.87; 1772.667;  -44.000;    0.000;1816.66663
 651.14; 1760.467;  -48.933;    0.000;1809.40001
 651.41; 1766.267;  -47.333;    0.000;1813.60006
 651.68; 1734.000;  -53.200;    0.000;1787.20000
 651.95; 1730.333;  -38.733;    0.000;1769.06671
 652.22; 1677.667;  -43.133;    0.000;1720.79996
 652.49; 1678.400;  -53.867;    0.000;1732.26669
 652.76; 1719.933;  -46.200;    0.000;1766.13335
 653.03; 1659.600;  -64.867;    0.000;1724.46664
 653.31; 1688.667;  -35.133;    0.000;1723.79996
 653.58; 1654.867;  -57.267;    0.000;1712.13337
 653.85; 1667.467;  -50.800;    0.000;1718.26667
 654.12; 1638.400;  -57.600;    0.000;1696.00002
 654.39; 1639.400;  -25.333;    0.000;1664.73336
 654.66; 1620.800;  -42.533;    0.000;1663.33338
 654.93; 1610.733;   11.800;    0.000;1598.93328
 655.20; 1559.600;  -53.333;    0.000;1612.93331
 655.47; 1553.267;  -57.267;    0.000;1610.53339
 655.74; 1543.600;  -29.800;    0.000;1573.39997
 656.01; 1572.067;  -65.733;    0.000;1637.79998
 656.28; 1520.600;  -52.000;    0.000;1572.59998
 656.55; 1548.600;  -33.000;    0.000;1581.59998
 656.83; 1497.200;  -47.267;    0.000;1544.46662
 657.10; 1550.600;  -60.733;    0.000;1611.33331
 657.37; 1488.400;  -45.067;    0.000;1533.46669
 657.64; 1489.467;  -50.000;    0.000;1539.46667
 657.91; 1464.533;  -53.867;    0.000;1518.39999
 658.18; 1505.267;  -48.067;    0.000;1553.33339
 658.45; 1462.800;  -42.467;    0.000;1505.26672
 658.72; 1500.667;  -42.267;    0.000;1542.93329
 658.99; 1457.933;  -39.000;    0.000;1496.93335
 659.26; 1499.067;  -19.000;    0.000;1518.06665
 659.53; 1412.133;  -53.800;    0.000;1465.93330
 659.80; 1415.733;  -43.133;    0.000;1458.86661
 660.07; 1361.867;  -41.733;    0.000;1403.60003
 660.34; 1397.333;  -43.133;    0.000;1440.46671
 660.61; 1418.400;  -67.800;    0.000;1486.20003
 660.88; 1402.333;  -76.600;    0.000;1478.93337
 661.15; 1359.667;  -54.733;    0.000;1414.39996
 661.42; 1369.133;  -59.533;    0.000;1428.66663
 661.69; 1332.867;  -54.333;    0.000;1387.20003
 661.96; 1321.800;  -60.800;    0.000;1382.60005
 662.23; 1337.200;  -68.133;    0.000;1405.33328
 662.50; 1314.733;  -51.867;    0.000;1366.59994
 662.77; 1282.733;  -57.733;    0.000;1340.46661
 663.04; 1278.133;  -67.133;    0.000;1345.26663
 663.31; 1277.533;  -82.933;    0.000;1360.46666
 663.58; 1269.600;  -38.067;    0.000;1307.66664
 663.85; 1297.000;  -58.800;    0.000;1355.80000
 664.12; 1260.067;  -53.667;    0.000;1313.73332
 664.39; 1228.533;  -61.600;    0.000;1290.13332
 664.66; 1238.400;  -71.067;    0.000;1309.46669
 664.93; 1191.067;  -66.333;    0.000;1257.39999
 665.20; 1178.933;  -38.133;    0.000;1217.06668
 665.47; 1219.867;  -44.933;    0.000;1264.80003
 665.74; 1194.867;  -64.400;    0.000;1259.26670
 666.01; 1212.933;  -57.733;    0.000;1270.66668
 666.28; 1210.667;  -54.400;    0.000;1265.06663
 666.55; 1137.600;  -49.667;    0.000;1187.26664
 666.82; 1155.933;  -48.467;    0.000;1204.40002
 667.09; 1174.467;  -49.667;    0.000;1224.13334
 667.36; 1135.800;  -65.467;    0.000;1201.26672
 667.63; 1132.667;  -59.533;    0.000;1192.19996
 667.90; 1114.800;  -53.133;    0.000;1167.93338
 668.16; 1114.467;  -56.267;    0.000;1170.73334
 668.43; 1142.933;  -51.400;    0.000;1194.33335
 668.70; 1095.067;  -30.067;    0.000;1125.13332
 668.97; 1111.067;  -71.133;    0.000;1182.19998
 669.24; 1103.333;  -55.533;    0.000;1158.86671
 669.51; 1109.667;  -56.733;    0.000;1166.39996
 669.78; 1061.267;  -53.067;    0.000;1114.33339
 670.05; 1039.867;  -62.467;    0.000;1102.33337
 670.32; 1085.467;  -46.533;    0.000;1132.00001
 670.59; 1052.733;  -59.733;    0.000;1112.46661
 670.86; 1063.533;  -68.867;    0.000;1132.39999
 671.13; 1025.867;  -32.933;    0.000;1058.80003
 671.40;  995.200;  -70.600;    0.000;1065.80001
 671.67; 1038.467;  -31.667;    0.000;1070.13334
 671.93;  989.867;  -85.533;    0.000;1075.39997
 672.20; 1019.333;  -58.667;    0.000;1077.99998
 672.47; 1019.133;  -54.000;    0.000;1073.13336
 672.74;  997.000;  -73.800;    0.000;1070.80000
 673.01;  941.667;  -72.400;    0.000;1014.06669
 673.28;  984.200;  -39.400;    0.000;1023.60001
 673.55;  935.400;  -52.467;    0.000;987.86669
 673.82;  959.800;  -58.933;    0.000;1018.73332
 674.09;  987.733;  -55.133;    0.000;1042.86667
 674.35;  910.000;  -64.800;    0.000;974.80000
 674.62;  915.467;  -69.000;    0.000;984.46667
 674.89;  911.667;  -66.467;    0.000;978.13335
 675.16;  913.067;  -66.200;    0.000;979.26665
 675.43;  913.533;  -63.200;    0.000;976.73333
 675.70;  908.467;  -44.533;    0.000;953.00001
 675.97;  886.667;  -48.933;    0.000;935.60002
 676.24;  892.733;  -73.733;    0.000;966.46667
 676.50;  904.133;  -74.267;    0.000;978.40003
 676.77;  861.667;  -65.267;    0.000;926.93336
 677.04;  864.800;  -63.200;    0.000;927.99999
 677.31;  839.800;  -78.133;    0.000;917.93332
 677.58;  851.600;  -51.467;    0.000;903.06664
 677.85;  856.933;  -67.067;    0.000;924.00002
 678.12;  848.667;  -47.133;    0.000;895.80002
 678.38;  836.800;  -44.267;    0.000;881.06665
 678.65;  819.133;  -52.933;    0.000;872.06670
 678.92;  794.867;  -70.067;    0.000;864.93330
 679.19;  826.667;  -33.933;    0.000;860.60002
 679.46;  803.333;  -58.600;    0.000;861.93331
 679.73;  799.600;  -54.800;    0.000;854.39997
 679.99;  768.733;  -81.533;    0.000;850.26667
 680.26;  768.867;  -64.067;    0.000;832.93330
 680.53;  744.867;  -74.267;    0.000;819.13331
 680.80;  767.533;  -68.533;    0.000;836.06666
 681.07;  758.133;  -59.733;    0.000;817.86670
 681.33;  790.600;  -61.933;    0.000;852.53331
 681.60;  730.533;  -61.867;    0.000;792.39999
 681.87;  746.000;  -67.267;    0.000;813.26667
 682.14;  733.600;  -55.800;    0.000;789.39997
 682.41;  741.800;  -67.200;    0.000;808.99998
 682.67;  723.000;  -53.067;    0.000;776.06667
 682.94;  715.933;  -61.067;    0.000;777.00002
 683.21;  726.867;  -72.733;    0.000;799.59997
 683.48;  721.000;  -63.133;    0.000;784.13334
 683.75;  700.400;  -64.200;    0.000;764.60002
 684.01;  695.267;  -35.800;    0.000;731.06666
 684.28;  659.333;  -82.733;    0.000;742.06664
 684.55;  690.333;  -48.533;    0.000;738.86665
 684.82;  701.133;  -62.600;    0.000;763.73336
 685.09;  678.400;  -22.467;    0.000;700.86669
 685.35;  682.333;  -44.667;    0.000;726.99998
 685.62;  640.600;  -58.067;    0.000;698.66664
 685.89;  655.133;  -50.467;    0.000;705.60003
 686.16;  632.867;  -64.667;    0.000;697.53330
 686.42;  649.000;  -73.533;    0.000;722.53333
 686.69;  655.467;  -45.400;    0.000;700.86668
 686.96;  581.400;  -79.067;    0.000;660.46669
 687.23;  683.733;  -32.600;    0.000;716.33334
 687.49;  661.267;  -57.000;    0.000;718.26666
 687.76;  621.733;  -60.067;    0.000;681.80000
 688.03;  626.733;  -84.467;    0.000;711.20000
 688.30;  583.533;  -64.267;    0.000;647.80000
 688.56;  604.600;  -64.133;    0.000;668.73331
 688.83;  570.600;  -60.600;    0.000;631.19997
 689.10;  581.867;  -66.000;    0.000;647.86664
 689.37;  593.067;  -81.400;    0.000;674.46665
 689.63;  571.400;  -62.000;    0.000;633.40002
 689.90;  570.800;  -60.133;    0.000;630.93332
 690.17;  562.600;  -63.933;    0.000;626.53331
 690.44;  519.800;  -71.267;    0.000;591.06666
 690.70;  533.067;  -85.667;    0.000;618.73331
 690.97;  560.933;  -45.067;    0.000;606.00002
 691.24;  567.067;  -44.067;    0.000;611.13332
 691.50;  552.267;  -64.933;    0.000;617.20000
 691.77;  520.467;  -59.000;    0.000;579.46667
 692.04;  534.533;  -61.333;    0.000;595.86666
 692.30;  512.800;  -61.533;    0.000;574.33332
 692.57;  521.533;  -67.867;    0.000;589.39999
 692.84;  482.000;  -85.000;    0.000;567.00000
 693.11;  520.600;  -47.333;    0.000;567.93331
 693.37;  495.000;  -61.800;    0.000;556.80000
 693.64;  445.800;  -57.267;    0.000;503.06665
 693.91;  454.733;  -68.733;    0.000;523.46667
 694.17;  484.267;  -48.333;    0.000;532.59999
 694.44;  494.333;  -63.200;    0.000;557.53334
 694.71;  483.200;  -71.333;    0.000;554.53335
 694.97;  436.067;  -65.667;    0.000;501.73335
 695.24;  451.133;  -68.600;    0.000;519.73333
 695.51;  438.000;  -89.600;    0.000;527.60000
 695.77;  457.333;  -64.933;    0.000;522.26668
 696.04;  438.333;  -80.333;    0.000;518.66668
 696.31;  439.333;  -59.667;    0.000;499.00001
 696.57;  470.000;  -44.533;    0.000;514.53333
 696.84;  424.333;  -57.000;    0.000;481.33334
 697.11;  453.667;  -66.200;    0.000;519.86665
 697.37;  437.867;  -44.733;    0.000;482.60000
 697.64;  414.067;  -60.800;    0.000;474.86668
 697.91;  401.867;  -68.733;    0.000;470.60000
 698.17;  391.200;  -78.400;    0.000;469.60001
 698.44;  405.733;  -52.467;    0.000;458.20000
 698.71;  378.533;  -62.667;    0.000;441.19999
 698.97;  385.667;  -59.667;    0.000;445.33332
 699.24;  393.333;  -63.067;    0.000;456.40001
 699.50;  350.733;  -50.267;    0.000;401.00000
 699.77;  388.000;  -43.067;    0.000;431.06667
 700.04;  376.733;  -56.533;    0.000;433.26667
 700.30;  351.067;  -78.933;    0.000;430.00002
 700.57;  368.600;  -75.533;    0.000;444.13334
 700.84;  374.333;  -49.933;    0.000;424.26668
 701.10;  340.533;  -77.133;    0.000;417.66666
 701.37;  343.867;  -50.867;    0.000;394.73333
 701.63;  331.667;  -59.667;    0.000;391.33332
 701.90;  306.667;  -64.333;    0.000;370.99999
 702.17;  350.267;  -50.067;    0.000;400.33333
 702.43;  294.000;  -71.533;    0.000;365.53333
 702.70;  350.400;  -42.533;    0.000;392.93333
 702.96;  296.867;  -78.200;    0.000;375.06667
 703.23;  286.933;  -67.400;    0.000;354.33332
 703.50;  278.667;  -72.667;    0.000;351.33332
 703.76;  289.133;  -55.200;    0.000;344.33333
 704.03;  260.800;  -61.333;    0.000;322.13332
 704.29;  271.133;  -79.267;    0.000;350.40000
 704.56;  256.000;  -73.333;    0.000;329.33334
 704.82;  252.467;  -65.267;    0.000;317.73333
 705.09;  263.467;  -70.800;    0.000;334.26668
 705.36;  260.733;  -78.267;    0.000;339.00001
 705.62;  263.133;  -45.200;    0.000;308.33333
 705.89;  239.000;  -77.867;    0.000;316.86667
 706.15;  235.267;  -78.733;    0.000;313.99999
 706.42;  250.733;  -38.333;    0.000;289.06667
 706.68;  214.533;  -78.400;    0.000;292.93334
 706.95;  230.533;  -54.067;    0.000;284.60001
 707.21;  219.533;  -88.067;    0.000;307.60001
 707.48;  205.467;  -62.533;    0.000;267.99999
 707.75;  210.133;  -75.533;    0.000;285.66666
 708.01;  203.600;  -76.400;    0.000;280.00001
 708.28;  201.267;  -57.667;    0.000;258.93333
 708.54;  202.267;  -59.267;    0.000;261.53333
 708.81;  202.200;  -68.600;    0.000;270.80000
 709.07;  183.467;  -67.600;    0.000;251.06666
 709.34;  174.667;  -81.933;    0.000;256.60001
 709.60;  195.467;  -75.667;    0.000;271.13332
 709.87;  188.400;  -49.200;    0.000;237.59999
 710.13;  161.667;  -74.200;    0.000;235.86667
 710.40;  160.733;  -83.667;    0.000;244.40000
 710.66;  175.000;  -78.200;    0.000;253.20000
 710.93;  175.267;  -71.333;    0.000;246.60000
 711.19;  167.800;  -66.133;    0.000;233.93333
 711.46;  167.067;  -62.667;    0.000;229.73333
 711.72;  174.733;  -47.600;    0.000;222.33334
 711.99;  161.733;  -73.733;    0.000;235.46667
 712.25;  170.667;  -52.067;    0.000;222.73334
 712.52;  157.533;  -54.867;    0.000;212.40001
 712.78;  165.800;  -71.867;    0.000;237.66667
 713.05;  138.933;  -81.667;    0.000;220.60000
 713.31;  165.733;  -70.133;    0.000;235.86667
 713.58;  152.667;  -54.333;    0.000;207.00000
 713.84;  152.600;  -66.600;    0.000;219.20000
 714.11;  165.000;  -68.533;    0.000;233.53333
 714.37;  162.400;  -46.133;    0.000;208.53333
 714.64;  130.067;  -95.067;    0.000;225.13333
 714.90;  123.267;  -52.333;    0.000;175.60000
 715.17;  147.733;  -59.933;    0.000;207.66667
 715.43;  132.467;  -56.667;    0.000;189.13333
 715.70;  129.067;  -78.467;    0.000;207.53333
 715.96;  149.400;  -61.067;    0.000;210.46666
 716.22;  135.133;  -78.200;    0.000;213.33333
 716.49;  146.867;  -65.933;    0.000;212.80000
 716.75;  102.133;  -87.733;    0.000;189.86666
 717.02;  151.467;  -63.267;    0.000;214.73333
 717.28;  110.200;  -83.200;    0.000;193.39999
 717.55;  122.533;  -90.133;    0.000;212.66666
 717.81;  137.933;  -56.467;    0.000;194.40000
 718.08;  131.200;  -68.200;    0.000;199.39999
 718.34;  114.800;  -83.600;    0.000;198.40000
 718.60;  139.133;  -61.200;    0.000;200.33333
 718.87;  110.533;  -65.800;    0.000;176.33334
 719.13;  137.667;  -67.267;    0.000;204.93334
 719.40;  137.533;  -70.800;    0.000;208.33334
 719.66;  127.533;  -79.067;    0.000;206.60000
 719.93;  127.000;  -70.867;    0.000;197.86667
 720.19;  126.267;  -67.800;    0.000;194.06667
 720.45;   97.467;  -78.533;    0.000;176.00000
 720.72;  128.133;  -45.533;    0.000;173.66666
 720.98;  104.400;  -72.000;    0.000;176.40000
 721.25;   82.000;  -82.000;    0.000;164.00000
 721.51;   96.333;  -64.733;    0.000;161.06667
 721.77;  119.533;  -66.867;    0.000;186.40000
 722.04;  136.267;  -51.200;    0.000;187.46666
 722.30;  136.600;  -42.133;    0.000;178.73334
 722.57;  122.333;  -67.400;    0.000;189.73334
 722.83;  137.933;  -64.533;    0.000;202.46667
 723.09;  112.400;  -73.600;    0.000;186.00000
 723.36;  120.400;  -96.667;    0.000;217.06667
 723.62;  110.600;  -71.800;    0.000;182.40000
 723.88;  109.667;  -71.133;    0.000;180.80000
 724.15;   99.200;  -66.067;    0.000;165.26666
 724.41;  112.400;  -72.067;    0.000;184.46667
 724.68;  102.133;  -74.867;    0.000;177.00000
 724.94;  133.400;  -39.533;    0.000;172.93333
 725.20;  119.200;  -65.000;    0.000;184.20000
 725.47;  108.733;  -76.600;    0.000;185.33333
 725.73;  108.533;  -85.667;    0.000;194.20000
 725.99;  107.400;  -53.533;    0.000;160.93333
 726.26;  106.067;  -64.867;    0.000;170.93333
 726.52;  123.533;  -50.933;    0.000;174.46667
 726.78;  105.200;  -79.467;    0.000;184.66666
 727.05;  115.733;  -49.067;    0.000;164.80000
 727.31;  107.000;  -73.133;    0.000;180.13333
 727.57;  102.600;  -66.733;    0.000;169.33333
 727.84;   80.400;  -62.333;    0.000;142.73333
 728.10;  113.067;  -64.733;    0.000;177.80000
 728.36;   97.600;  -64.333;    0.000;161.93333
 728.63;  111.533;  -82.800;    0.000;194.33334
 728.89;   83.800;  -80.600;    0.000;164.40000
 729.15;   98.067;  -72.600;    0.000;170.66666
 729.42;   90.667;  -74.933;    0.000;165.60000
 729.68;  109.133;  -66.200;    0.000;175.33333
 729.94;   66.667;  -72.667;    0.000;139.33333
 730.21;   93.267;  -88.800;    0.000;182.06667
 730.47;   82.600;  -88.867;    0.000;171.46667
 730.73;   98.600;  -74.533;    0.000;173.13333
 731.00;   76.400;  -81.533;    0.000;157.93333
 731.26;   82.600;  -74.400;    0.000;157.00000
 731.52;   78.333;  -92.733;    0.000;171.06667
 731.78;   93.267;  -94.133;    0.000;187.40000
 732.05;   76.267;  -90.867;    0.000;167.13334
 732.31;   99.133;  -59.533;    0.000;158.66666
 732.57;   73.933;  -69.867;    0.000;143.80000
 732.84;   89.400;  -75.800;    0.000;165.20000
 733.10;   79.867;  -92.000;    0.000;171.86667
 733.36;   78.600;  -65.933;    0.000;144.53333
 733.62;   67.733;  -82.800;    0.000;150.53333
 733.89;   70.867;  -77.067;    0.000;147.93333
 734.15;   69.000;  -91.000;    0.000;160.00000
 734.41;   84.067;  -65.267;    0.000;149.33334
 734.67;   85.933;  -63.533;    0.000;149.46667
 734.94;   66.733;  -70.800;    0.000;137.53333
 735.20;   78.867;  -78.867;    0.000;157.73334
 735.46;   94.267;  -51.600;    0.000;145.86667
 735.73;   57.933;  -79.333;    0.000;137.26667
 735.99;   80.467;  -65.200;    0.000;145.66666
 736.25;   64.133;  -68.067;    0.000;132.20000
 736.51;   71.933;  -76.933;    0.000;148.86667
 736.77;   77.800;  -79.200;    0.000;157.00000
 737.04;   84.667;  -56.600;    0.000;141.26666
 737.30;   57.733;  -87.867;    0.000;145.60000
 737.56;   62.200;  -61.800;    0.000;124.00000
 737.82;   58.333;  -88.533;    0.000;146.86666
 738.09;   92.800;  -71.867;    0.000;164.66667
 738.35;   35.200;  -79.267;    0.000;114.46667
 738.61;   80.333;  -62.667;    0.000;143.00000
 738.87;   73.400;  -58.533;    0.000;131.93333
 739.14;   56.400;  -73.933;    0.000;130.33334
 739.40;   53.267;  -91.333;    0.000;144.60000
 739.66;   48.600;  -77.600;    0.000;126.20000
 739.92;   45.733;  -89.533;    0.000;135.26667
 740.18;   53.400;  -82.600;    0.000;136.00000
 740.45;   58.933;  -88.400;    0.000;147.33334
 740.71;   56.667;  -55.400;    0.000;112.06667
 740.97;   56.267;  -51.533;    0.000;107.80000
 741.23;   61.667;  -66.200;    0.000;127.86666
 741.49;   32.133;  -74.600;    0.000;106.73333
 741.76;   33.200;  -89.000;    0.000;122.20000
 742.02;   33.600;  -74.533;    0.000;108.13333
 742.28;   46.400;  -65.600;    0.000;112.00000
 742.54;   29.733;  -87.800;    0.000;117.53334
 742.80;   40.800;  -73.600;    0.000;114.40000
 743.06;   52.600;  -74.733;    0.000;127.33333
 743.33;   40.000;  -82.867;    0.000;122.86667
 743.59;   13.133;  -90.533;    0.000;103.66667
 743.85;   43.333;  -87.467;    0.000;130.80000
 744.11;   41.933;  -90.467;    0.000;132.40000
 744.37;   60.533;  -55.467;    0.000;116.00000
 744.63;   23.400;  -81.800;    0.000;105.20000
 744.90;   27.867;  -82.133;    0.000;110.00000
 745.16;   12.400;  -76.867;    0.000;89.26667
 745.42;   18.800;  -68.667;    0.000;87.46666
 745.68;   33.467;  -76.067;    0.000;109.53333
 745.94;   67.733;  -51.800;    0.000;119.53333
 746.20;   29.800;  -80.067;    0.000;109.86666
 746.46;   59.467;  -62.133;    0.000;121.60000
 746.72;   50.200;  -64.333;    0.000;114.53334
 746.99;   10.867;  -61.267;    0.000;72.13333
 747.25;   57.467;  -47.533;    0.000;105.00000
 747.51;   17.600;  -74.133;    0.000;91.73333
 747.77;   34.067;  -73.067;    0.000;107.13333
 748.03;   32.267;  -89.267;    0.000;121.53334
 748.29;   22.400;  -93.133;    0.000;115.53333
 748.55;   20.267;  -59.733;    0.000;80.00000
 748.81;    3.000;  -84.400;    0.000;87.40000
 749.08;   44.000;  -67.200;    0.000;111.20000
 749.34;   25.400;  -68.067;    0.000;93.46667
 749.60;   41.933;  -68.067;    0.000;110.00000
 749.86;   30.333;  -76.467;    0.000;106.80000
 750.12;   12.867;  -75.600;    0.000;88.46667
 750.38;   19.800;  -76.533;    0.000;96.33333
 750.64;    9.667;  -79.667;    0.000;89.33333
 750.90;   19.867;  -62.133;    0.000;82.00000
 751.16;   24.600;  -85.133;    0.000;109.73333
 751.42;   13.333;  -67.067;    0.000;80.40000
 751.68;   31.067;  -59.067;    0.000;90.13333
 751.95;    3.667;  -89.200;    0.000;92.86666
 752.21;   14.533;  -81.933;    0.000;96.46667
 752.47;   -9.800;  -83.667;    0.000;73.86666
 752.73;    4.000;  -73.733;    0.000;77.73333
 752.99;   -9.733;  -84.400;    0.000;74.66667
 753.25;   14.467;  -80.200;    0.000;94.66666
 753.51;   12.400;  -78.133;    0.000;90.53333
 753.77;   15.733;  -71.067;    0.000;86.80000
 754.03;   -5.200;  -70.133;    0.000;64.93333
 754.29;    2.600;  -77.733;    0.000;80.33333
 754.55;   -2.200;  -77.733;    0.000;75.53333
 754.81;   10.400;  -65.800;    0.000;76.20000
 755.07;  -10.733;  -84.667;    0.000;73.93333
 755.33;    6.667;  -60.467;    0.000;67.13333
 755.59;  -23.533;  -81.067;    0.000;57.53333
 755.85;   11.600;  -95.667;    0.000;107.26666
 756.11;   -1.467;  -89.333;    0.000;87.86667
 756.37;    2.533;  -70.000;    0.000;72.53333
 756.63;    6.333;  -62.067;    0.000;68.40000
 756.89;   -8.133;  -90.600;    0.000;82.46667
 757.15;   -4.600;  -79.067;    0.000;74.46667
 757.41;   29.067;  -43.333;    0.000;72.40000
 757.68;   -5.333;  -95.067;    0.000;89.73333
 757.94;    4.533;  -60.733;    0.000;65.26667
 758.20;    7.800;  -65.333;    0.000;73.13334
 758.46;  -18.600;  -71.733;    0.000;53.13333
 758.72;   -6.533;  -87.200;    0.000;80.66666
 758.98;   -4.800;  -61.200;    0.000;56.40000
 759.24;    1.733;  -83.800;    0.000;85.53334
 759.50;    9.867;  -68.800;    0.000;78.66667
 759.76;    5.533;  -81.333;    0.000;86.86667
 760.02;   -1.800;  -78.400;    0.000;76.60000
 760.27;  -10.733;  -61.400;    0.000;50.66667
 760.53;  -12.933;  -72.733;    0.000;59.80000
 760.79;   -3.867;  -78.733;    0.000;74.86666
 761.05;  -22.467;  -56.067;    0.000;33.60000
 761.31;    2.867;  -59.333;    0.000;62.20000
 761.57;   -5.933;  -67.533;    0.000;61.60000
 761.83;  -15.067;  -76.800;    0.000;61.73334
 762.09;   -4.200;  -88.667;    0.000;84.46666
 762.35;  -23.667;  -90.733;    0.000;67.06666
 762.61;  -12.133;  -71.800;    0.000;59.66667
 762.87;   -5.400;  -72.333;    0.000;66.93334
 763.13;  -40.733;  -90.067;    0.000;49.33333
 763.39;    4.800;  -65.067;    0.000;69.86667
 763.65;  -28.467;  -68.467;    0.000;40.00000
 763.91;  -23.267;  -71.933;    0.000;48.66667
 764.17;  -11.133;  -66.667;    0.000;55.53333
 764.43;  -14.933;  -59.600;    0.000;44.66667
 764.69;   -7.267;  -83.600;    0.000;76.33333
 764.95;  -12.467;  -96.267;    0.000;83.80000
 765.21;    0.400;  -87.867;    0.000;88.26667
 765.47;  -19.933;  -69.533;    0.000;49.60000
 765.73;  -21.800;  -67.400;    0.000;45.60000
 765.98;  -18.200;  -50.133;    0.000;31.93333
 766.24;  -26.200;  -76.333;    0.000;50.13334
 766.50;  -35.267;  -88.133;    0.000;52.86666
 766.76;  -16.933;  -70.267;    0.000;53.33334
 767.02;   -9.267;  -88.933;    0.000;79.66667
 767.28;  -14.200;  -71.467;    0.000;57.26667
 767.54;  -27.933;  -61.467;    0.000;33.53333
 767.80;  -18.267;  -70.133;    0.000;51.86666
 768.06;  -10.533;  -73.933;    0.000;63.40000
 768.32;  -17.600;  -73.933;    0.000;56.33333
 768.58;  -30.267;  -78.267;    0.000;48.00000
 768.83;  -26.400;  -61.333;    0.000;34.93333
 769.09;  -28.933;  -70.400;    0.000;41.46667
 769.35;  -23.467;  -57.200;    0.000;33.73333
 769.61;  -48.000;  -79.533;    0.000;31.53333
 769.87;   -2.067;  -72.133;    0.000;70.06666
 770.13;  -23.267;  -84.533;    0.000;61.26667
 770.39;  -56.533;  -84.067;    0.000;27.53333
 770.65;  -22.000;  -73.533;    0.000;51.53333
 770.90;  -19.733;  -78.133;    0.000;58.40000
 771.16;  -38.400;  -82.667;    0.000;44.26666
 771.42;  -29.067;  -71.800;    0.000;42.73334
 771.68;  -15.667;  -82.867;    0.000;67.20000
 771.94;  -21.333;  -74.933;    0.000;53.60000
 772.20;  -42.133;  -67.733;    0.000;25.59999
 772.46;  -21.933;  -94.267;    0.000;72.33334
 772.71;  -53.733;  -77.733;    0.000;24.00000
 772.97;  -14.533;  -58.933;    0.000;44.40000
 773.23;  -32.600;  -77.400;    0.000;44.80000
 773.49;  -21.133;  -58.800;    0.000;37.66667
 773.75;  -31.400;  -76.800;    0.000;45.40000
 774.01;  -37.533;  -79.267;    0.000;41.73334
 774.26;  -45.467;  -90.467;    0.000;45.00000
 774.52;  -15.733;  -64.067;    0.000;48.33333
 774.78;  -35.733;  -82.400;    0.000;46.66667
 775.04;    3.733;  -46.800;    0.000;50.53333
 775.30;  -26.933;  -60.800;    0.000;33.86667
 775.56;  -25.533;  -75.200;    0.000;49.66666
 775.81;  -46.067;  -65.000;    0.000;18.93333
 776.07;  -29.733;  -82.667;    0.000;52.93333
 776.33;  -49.133;  -91.333;    0.000;42.20000
 776.59;  -30.867;  -71.867;    0.000;41.00000
 776.85;  -65.200;  -82.000;    0.000;16.80000
 777.10;  -31.867;  -66.800;    0.000;34.93334
 777.36;  -41.667;  -75.867;    0.000;34.20000
 777.62;  -15.200;  -75.733;    0.000;60.53333
 777.88;  -67.467;  -80.800;    0.000;13.33334
 778.14;  -24.800;  -74.333;    0.000;49.53334
 778.39;  -34.267;  -83.533;    0.000;49.26667
 778.65;  -40.400;  -67.067;    0.000;26.66666
 778.91;  -44.267;  -82.400;    0.000;38.13334
 779.17;  -25.800;  -57.333;    0.000;31.53333
 779.42;  -60.200;  -84.867;    0.000;24.66667
 779.68;  -40.667;  -86.000;    0.000;45.33333
 779.94;  -59.667;  -83.733;    0.000;24.06666
 780.20;  -24.067;  -86.600;    0.000;62.53333
 780.46;  -55.667;  -77.733;    0.000;22.06666
 780.71;  -31.600;  -69.933;    0.000;38.33333
 780.97;  -39.600;  -76.933;    0.000;37.33334
 781.23;  -27.933;  -60.800;    0.000;32.86667
 781.49;  -35.533;  -68.133;    0.000;32.60000
 781.74;  -42.667;  -76.667;    0.000;34.00000
 782.00;  -56.800;  -71.533;    0.000;14.73333
 782.26;  -24.667;  -68.733;    0.000;44.06666
 782.52;  -40.267;  -81.533;    0.000;41.26667
 782.77;  -30.600;  -74.267;    0.000;43.66667
 783.03;  -62.400;  -96.333;    0.000;33.93333
 783.29;  -44.267;  -84.267;    0.000;40.00000
 783.54;  -58.533;  -78.200;    0.000;19.66666
 783.80;  -21.000;  -60.200;    0.000;39.20000
 784.06;  -42.667;  -72.133;    0.000;29.46666
 784.32;  -22.400;  -78.133;    0.000;55.73333
 784.57;  -19.333;  -62.933;    0.000;43.60000
 784.83;  -53.533;  -86.200;    0.000;32.66666
 785.09;  -71.667;  -88.533;    0.000;16.86667
 785.34;  -48.000;  -84.000;    0.000;36.00000
 785.60;  -18.133;  -57.667;    0.000;39.53333
 785.86;  -47.467;  -90.933;    0.000;43.46667
 786.12;  -29.533;  -68.733;    0.000;39.20000
 786.37;  -24.467;  -53.933;    0.000;29.46667
 786.63;  -65.667; -104.800;    0.000;39.13334
 786.89;  -23.200;  -71.867;    0.000;48.66667
 787.14;  -41.667;  -66.933;    0.000;25.26667
 787.40;  -48.000;  -79.467;    0.000;31.46667
 787.66;  -38.333;  -85.867;    0.000;47.53334
 787.91;  -21.400;  -60.600;    0.000;39.20000
 788.17;  -46.000;  -76.400;    0.000;30.40000
 788.43;  -63.267;  -84.200;    0.000;20.93333
 788.68;  -58.533;  -82.333;    0.000;23.80000
 788.94;  -28.533;  -70.067;    0.000;41.53333
 789.20;  -65.400;  -85.867;    0.000;20.46667
 789.45;  -58.200;  -85.067;    0.000;26.86666
 789.71;  -54.000;  -92.600;    0.000;38.60000
 789.97;  -35.467;  -45.933;    0.000;10.46667
 790.22;  -62.333;  -71.600;    0.000; 9.26667
 790.48;  -34.333;  -83.267;    0.000;48.93334
 790.74;  -42.200;  -43.667;    0.000; 1.46667
 790.99;  -43.200;  -83.867;    0.000;40.66667
 791.25;  -45.800;  -83.133;    0.000;37.33333
 791.51;  -49.400;  -76.400;    0.000;27.00000
 791.76;  -30.333;  -56.933;    0.000;26.60000
 792.02;  -55.933;  -72.400;    0.000;16.46667
 792.27;  -50.600;  -75.400;    0.000;24.80000
 792.53;  -45.800;  -89.667;    0.000;43.86666
 792.79;  -59.867;  -86.133;    0.000;26.26667
 793.04;  -37.267;  -73.333;    0.000;36.06667
 793.30;  -53.133;  -85.800;    0.000;32.66667
 793.56;  -35.467;  -76.600;    0.000;41.13333
 793.81;  -13.600;  -65.267;    0.000;51.66667
 794.07;  -58.133;  -91.933;    0.000;33.80000
 794.32;  -52.467;  -76.067;    0.000;23.60000
 794.58;  -46.800;  -76.867;    0.000;30.06667
 794.84;  -41.467;  -64.533;    0.000;23.06667
 795.09;  -33.933;  -44.333;    0.000;10.40000
 795.35;  -30.667;  -64.333;    0.000;33.66667
 795.60;  -48.733;  -76.867;    0.000;28.13334
 795.86;  -33.333;  -73.400;    0.000;40.06667
 796.12;  -59.533;  -98.000;    0.000;38.46667
 796.37;  -40.067;  -79.533;    0.000;39.46667
 796.63;  -40.200;  -66.533;    0.000;26.33333
 796.88;  -62.800;  -75.800;    0.000;13.00000
 797.14;  -40.800;  -68.200;    0.000;27.40000
 797.39;  -49.133;  -63.800;    0.000;14.66666
 797.65;  -47.867;  -89.800;    0.000;41.93334
 797.91;  -64.267;  -80.267;    0.000;16.00000
 798.16;  -46.533;  -90.733;    0.000;44.20000
 798.42;  -61.133;  -79.000;    0.000;17.86666
 798.67;  -62.800;  -79.667;    0.000;16.86666
 798.93;  -58.400;  -84.733;    0.000;26.33333
 799.18;  -52.800;  -73.667;    0.000;20.86666
 799.44;  -64.733;  -87.200;    0.000;22.46667
 799.69;  -50.333;  -70.133;    0.000;19.80000
 799.95;  -62.067;  -81.400;    0.000;19.33334
 800.21;  -50.400;  -92.000;    0.000;41.60000
 800.46;  -38.800;  -72.667;    0.000;33.86666
 800.72;  -58.000;  -94.800;    0.000;36.80000
 800.97;  -55.600;  -80.600;    0.000;25.00000
 801.23;  -55.400;  -96.733;    0.000;41.33333
 801.48;  -58.733; -101.800;    0.000;43.06667
 801.74;  -58.867;  -95.800;    0.000;36.93334
 801.99;  -61.333;  -68.333;    0.000; 7.00000
 802.25;  -52.867;  -88.867;    0.000;36.00000
 802.50;  -55.533;  -66.400;    0.000;10.86667
 802.76;  -47.267;  -49.467;    0.000; 2.20000
 803.01;  -68.133;  -88.133;    0.000;20.00000
 803.27;  -51.467;  -63.200;    0.000;11.73333
 803.52;  -38.933;  -79.067;    0.000;40.13333
 803.78;  -45.267;  -72.933;    0.000;27.66667
 804.03;  -70.867;  -80.333;    0.000; 9.46667
 804.29;  -70.000;  -77.933;    0.000; 7.93333
 804.54;  -53.333;  -83.667;    0.000;30.33333
 804.80;  -50.067;  -91.333;    0.000;41.26667
 805.05;  -62.867;  -89.200;    0.000;26.33333
 805.31;  -25.933;  -55.133;    0.000;29.20000
 805.56;  -50.333;  -62.733;    0.000;12.40000
 805.82;  -64.200;  -81.467;    0.000;17.26667
 806.07;  -46.733;  -57.933;    0.000;11.20000
 806.33;  -50.067;  -53.267;    0.000; 3.20000
 806.58;  -73.600;  -92.133;    0.000;18.53333
 806.84;  -44.333;  -74.600;    0.000;30.26667
 807.09;  -56.733;  -81.733;    0.000;25.00000
 807.34;  -54.867;  -78.533;    0.000;23.66667
 807.60;  -52.333;  -85.800;    0.000;33.46667
 807.85;  -40.533;  -53.200;    0.000;12.66667
 808.11;  -66.533;  -83.467;    0.000;16.93333
 808.36;  -22.733;  -54.467;    0.000;31.73333
 808.62;  -66.200;  -82.933;    0.000;16.73334
 808.87;  -47.800;  -80.800;    0.000;33.00000
 809.13;  -78.867;  -79.667;    0.000; 0.80000
 809.38;  -32.733;  -63.467;    0.000;30.73333
 809.63;  -70.467;  -77.867;    0.000; 7.40000
 809.89;  -36.667;  -70.467;    0.000;33.80000
 810.14;  -65.667;  -76.267;    0.000;10.60001
 810.40;  -46.000;  -58.200;    0.000;12.20000
 810.65;  -56.600;  -80.133;    0.000;23.53333
 810.91;  -71.667;  -97.200;    0.000;25.53333
 811.16;  -59.467;  -85.733;    0.000;26.26666
 811.41;  -46.533;  -79.067;    0.000;32.53333
 811.67;  -66.133;  -96.600;    0.000;30.46667
 811.92;  -29.200;  -75.333;    0.000;46.13334
 812.18;  -55.933;  -82.333;    0.000;26.40000
 812.43;  -51.467;  -66.800;    0.000;15.33334
 812.68;  -62.267;  -89.200;    0.000;26.93333
 812.94;  -43.133;  -81.467;    0.000;38.33333
 813.19;  -63.867;  -76.067;    0.000;12.20000
 813.45;  -15.933;  -50.667;    0.000;34.73333
 813.70;  -67.933;  -94.467;    0.000;26.53333
 813.95;  -60.000;  -77.867;    0.000;17.86667
 814.21;  -49.933;  -87.000;    0.000;37.06667
 814.46;  -49.000;  -68.400;    0.000;19.40000
 814.71;  -72.800;  -83.800;    0.000;11.00000
 814.97;  -41.733;  -81.467;    0.000;39.73333
 815.22;  -75.200;  -92.333;    0.000;17.13334
 815.48;  -60.867;  -88.133;    0.000;27.26667
 815.73;  -18.267;  -23.800;    0.000; 5.53333
 815.98;  -63.533;  -83.267;    0.000;19.73334
 816.24;  -65.133;  -76.133;    0.000;11.00000
 816.49;  -41.200;  -65.733;    0.000;24.53333
 816.74;  -58.667;  -83.067;    0.000;24.40000
 817.00;  -34.733;  -54.667;    0.000;19.93333
 817.25;  -52.733;  -65.600;    0.000;12.86666
 817.50;  -58.667;  -81.200;    0.000;22.53333
 817.76;  -64.733;  -80.000;    0.000;15.26667
 818.01;  -83.867;  -79.267;    0.000;-4.60000
 818.26;  -66.133;  -92.867;    0.000;26.73334
 818.52;  -64.133;  -93.133;    0.000;29.00000
 818.77;  -66.000;  -87.467;    0.000;21.46667
 819.02;  124.600;  -43.200;    0.000;167.80000
 819.28;  -31.867;  -80.267;    0.000;48.40000
 819.53;  -67.733;  -66.467;    0.000;-1.26666
 819.78;  -57.200;  -76.533;    0.000;19.33333
 820.04;  -52.133;  -64.600;    0.000;12.46666
 820.29;  -66.133;  -85.733;    0.000;19.60000
 820.54;  -49.000;  -54.867;    0.000; 5.86666
 820.79;  -57.267;  -63.867;    0.000; 6.60000
 821.05;  -79.933;  -89.800;    0.000; 9.86667
 821.30;  -37.867;  -71.200;    0.000;33.33333
 821.55;  -41.933;  -61.333;    0.000;19.40000
 821.81;  -66.267;  -73.800;    0.000; 7.53333
 822.06;  -57.333;  -67.533;    0.000;10.20000
 822.31;  -55.400;  -61.867;    0.000; 6.46666
 822.56;  -64.933;  -84.533;    0.000;19.60000
 822.82;  -67.800;  -95.533;    0.000;27.73333
 823.07;  -45.200;  -64.267;    0.000;19.06667
 823.32;  -70.933;  -90.067;    0.000;19.13333
 823.58;  -56.733;  -71.667;    0.000;14.93333
 823.83;  -66.933;  -79.600;    0.000;12.66666
 824.08;  -57.000;  -79.800;    0.000;22.80000
 824.33;  -80.933;  -86.000;    0.000; 5.06667
 824.59;  -78.333;  -79.667;    0.000; 1.33333
 824.84;  -73.600;  -78.400;    0.000; 4.80000
 825.09;  -51.733;  -79.400;    0.000;27.66667
 825.34;  -63.267;  -82.067;    0.000;18.80000
 825.60;  -59.067;  -83.800;    0.000;24.73334
 825.85;  -74.533;  -82.667;    0.000; 8.13333
 826.10;  -70.467;  -86.600;    0.000;16.13333
 826.35;  -76.733;  -70.933;    0.000;-5.80000
 826.61;  -78.200;  -69.133;    0.000;-9.06667
 826.86;  -73.000;  -95.867;    0.000;22.86667
 827.11;  -61.200;  -79.067;    0.000;17.86666
 827.36;  -89.933;  -90.333;    0.000; 0.40000
 827.61;  -68.267;  -96.067;    0.000;27.80000
 827.87;  -66.267;  -92.067;    0.000;25.80000
 828.12;  -60.933;  -73.533;    0.000;12.60000
 828.37;  -64.067;  -80.867;    0.000;16.80000
 828.62;  -59.533;  -94.400;    0.000;34.86667
 828.88;  -72.267;  -92.800;    0.000;20.53333
 829.13;  -56.267;  -86.400;    0.000;30.13334
 829.38;  -76.800;  -82.733;    0.000; 5.93333
 829.63;  -65.400;  -81.467;    0.000;16.06667
 829.88;  -73.267;  -70.800;    0.000;-2.46667
 830.14;  -84.200;  -92.600;    0.000; 8.40000
 830.39;  -70.733;  -65.867;    0.000;-4.86666
 830.64;  -70.800;  -86.867;    0.000;16.06667
 830.89;  -55.467;  -72.333;    0.000;16.86667
 831.14;  -61.600;  -71.667;    0.000;10.06667
 831.39;  -91.333;  -87.867;    0.000;-3.46667
 831.65;  -53.200;  -88.267;    0.000;35.06667
 831.90;  -76.600;  -91.733;    0.000;15.13333
 832.15;  -65.400;  -81.267;    0.000;15.86667
 832.40;  -68.400;  -66.533;    0.000;-1.86667
 832.65;  -66.333;  -77.733;    0.000;11.39999
 832.90;  -81.600;  -97.933;    0.000;16.33334
 833.16;  -69.933;  -75.400;    0.000; 5.46667
 833.41;  -48.400;  -72.800;    0.000;24.40000
 833.66;  -83.400;  -86.533;    0.000; 3.13333
 833.91;  -85.400;  -85.667;    0.000; 0.26666
 834.16;  -73.000;  -87.267;    0.000;14.26667
 834.41;  -74.400;  -84.800;    0.000;10.40000
 834.66;  -58.200;  -62.600;    0.000; 4.40000
 834.92;  -86.067;  -78.933;    0.000;-7.13333
 835.17;  -82.467;  -94.267;    0.000;11.80000
 835.42;  -48.200;  -66.067;    0.000;17.86666
 835.67;  -60.200;  -67.467;    0.000; 7.26667
 835.92;  -85.067;  -68.333;    0.000;-16.73333
 836.17;  -62.067;  -91.667;    0.000;29.60000
 836.42;  -80.467;  -91.400;    0.000;10.93333
 836.67;  -80.333;  -82.200;    0.000; 1.86666
 836.93;  -78.400; -102.267;    0.000;23.86667
 837.18;  -60.533;  -63.800;    0.000; 3.26667
 837.43;  -84.200;  -82.667;    0.000;-1.53333
 837.68;  -66.867;  -70.200;    0.000; 3.33333
 837.93;  -80.267;  -81.667;    0.000; 1.39999
 838.18;  -58.133; -103.200;    0.000;45.06666
 838.43;  -83.000; -100.600;    0.000;17.60000
 838.68;  -62.733;  -82.200;    0.000;19.46666
 838.93;  -65.800;  -79.533;    0.000;13.73333
 839.18;  -53.800;  -82.600;    0.000;28.80000
 839.43;  -74.400;  -67.000;    0.000;-7.40000
 839.69;  -67.800;  -80.200;    0.000;12.39999
 839.94;  -64.867;  -93.667;    0.000;28.80000
 840.19;  -66.400;  -92.267;    0.000;25.86667
 840.44;  -78.667; -100.933;    0.000;22.26667
 840.69;  -55.133;  -60.933;    0.000; 5.80000
 840.94;  -83.200;  -78.467;    0.000;-4.73333
 841.19;  -36.800;  -51.467;    0.000;14.66667
 841.44;  -68.600;  -72.667;    0.000; 4.06667
 841.69;  -56.133;  -60.533;    0.000; 4.40000
 841.94;  -62.133;  -85.200;    0.000;23.06666
 842.19;  -75.400;  -64.267;    0.000;-11.13333
 842.44;  -76.867;  -94.800;    0.000;17.93333
 842.69;  -83.667;  -88.400;    0.000; 4.73334
 842.94;  -69.467;  -80.400;    0.000;10.93333
 843.19;  -73.133;  -79.267;    0.000; 6.13334
 843.44;  -73.467;  -82.067;    0.000; 8.60000
 843.69;  -72.867;  -88.533;    0.000;15.66666
 843.94;  -10.800;  -36.333;    0.000;25.53333
 844.19;  -67.800;  -87.067;    0.000;19.26666
 844.44;  -56.867;  -78.800;    0.000;21.93334
 844.69;  -60.533;  -79.867;    0.000;19.33334
 844.95;  -51.133;  -94.067;    0.000;42.93333
 845.20;  -75.467;  -83.733;    0.000; 8.26666
 845.45;  -68.933;  -74.200;    0.000; 5.26666
 845.70;  -65.467;  -73.400;    0.000; 7.93333
 845.95;  -74.733;  -87.600;    0.000;12.86667
 846.20;  -73.333;  -67.133;    0.000;-6.20000
 846.45;  -51.067;  -83.467;    0.000;32.40000
 846.70;  -56.133;  -72.400;    0.000;16.26667
 846.95;  -79.467;  -84.333;    0.000; 4.86667
 847.20;  -64.000;  -82.067;    0.000;18.06667
 847.44;  -49.067;  -51.400;    0.000; 2.33334
 847.69;  -70.800;  -81.067;    0.000;10.26666
 847.94;  -68.067;  -67.533;    0.000;-0.53333
 848.19;  -66.200;  -81.067;    0.000;14.86667
 848.44;  -50.467;  -74.867;    0.000;24.40000
 848.69;  -75.600;  -81.267;    0.000; 5.66667
 848.94;  -85.400;  -76.267;    0.000;-9.13333
 849.19;  -75.267;  -82.667;    0.000; 7.39999
 849.44;  -76.600;  -88.733;    0.000;12.13333
 849.69;  -69.800;  -50.067;    0.000;-19.73334
 849.94;  -97.200; -100.067;    0.000; 2.86667
 850.19;  -46.400;  -66.067;    0.000;19.66666
 850.44;  -52.000;  -72.000;    0.000;20.00000
 850.69;  -65.400;  -77.733;    0.000;12.33333
 850.94;  -73.600;  -89.600;    0.000;16.00000
 851.19;  -69.667;  -80.133;    0.000;10.46667
 851.44;  -70.867;  -87.667;    0.000;16.80000
 851.69;  -71.333;  -82.667;    0.000;11.33333
 851.94;  -66.000;  -72.533;    0.000; 6.53333
 852.19;  -71.800;  -83.067;    0.000;11.26666
 852.44;  -75.200;  -98.333;    0.000;23.13334
 852.68;  -82.800;  -80.467;    0.000;-2.33334
 852.93;  -86.533;  -80.000;    0.000;-6.53333
 853.18;  -42.267;  -89.400;    0.000;47.13334
 853.43;  -83.400;  -83.133;    0.000;-0.26667
 853.68;  -72.200;  -77.933;    0.000; 5.73334
 853.93;  -69.800;  -78.667;    0.000; 8.86666
 854.18;  -50.467;  -72.267;    0.000;21.80000
 854.43;  -78.667;  -84.733;    0.000; 6.06667
 854.68;  -78.400;  -70.467;    0.000;-7.93333
 854.93;  -61.667;  -69.933;    0.000; 8.26667
 855.18;  -68.400;  -76.600;    0.000; 8.20000
 855.42;  -50.333;  -77.600;    0.000;27.26667
 855.67;  -72.333;  -67.600;    0.000;-4.73334
 855.92;  -81.267;  -87.067;    0.000; 5.80000
 856.17;  -32.467;  -65.800;    0.000;33.33334
 856.42;  -64.533;  -92.533;    0.000;28.00000
 856.67;  -75.800;  -73.600;    0.000;-2.20000
 856.92;  -81.067;  -76.133;    0.000;-4.93333
 857.17;  -77.333;  -81.733;    0.000; 4.39999
 857.41;  -65.933;  -77.800;    0.000;11.86667
 857.66;  -68.267;  -66.333;    0.000;-1.93333
 857.91;  -64.800;  -58.000;    0.000;-6.80000
 858.16;  -79.333;  -78.867;    0.000;-0.46667
 858.41;  -66.067;  -79.267;    0.000;13.20000
 858.66;  -63.600;  -80.000;    0.000;16.40000
 858.91;  -73.800;  -61.133;    0.000;-12.66667
 859.15;  -71.000;  -79.533;    0.000; 8.53333
 859.40;  -44.200;  -68.533;    0.000;24.33333
 859.65;  -76.267;  -91.000;    0.000;14.73333
 859.90;  -88.333;  -87.133;    0.000;-1.20000
 860.15;  -60.867;  -74.200;    0.000;13.33333
 860.40;  -59.333;  -64.000;    0.000; 4.66667
 860.64;  -51.067;  -57.867;    0.000; 6.80000
 860.89;  -67.800;  -91.867;    0.000;24.06667
 861.14;  -70.800;  -73.667;    0.000; 2.86666
 861.39;  -63.667;  -68.933;    0.000; 5.26667
 861.64;  -68.133;  -73.667;    0.000; 5.53333
 861.88;  -56.067;  -73.933;    0.000;17.86667
 862.13;  -56.000;  -77.467;    0.000;21.46667
 862.38;  -73.267;  -78.800;    0.000; 5.53333
 862.63;  -77.600;  -87.067;    0.000; 9.46667
 862.88;  -48.133;  -81.067;    0.000;32.93333
 863.12;  -64.133;  -62.067;    0.000;-2.06667
 863.37;  -68.800;  -85.267;    0.000;16.46667
 863.62;  -71.400;  -86.000;    0.000;14.60000
 863.87;  -90.333;  -80.067;    0.000;-10.26667
 864.12;  -60.400;  -79.600;    0.000;19.20000
 864.36;  -63.000;  -79.933;    0.000;16.93333
 864.61;  -76.800;  -70.133;    0.000;-6.66667
 864.86;  -68.867;  -92.467;    0.000;23.60000
 865.11;  -56.733;  -53.067;    0.000;-3.66667
 865.35;  -73.733;  -58.867;    0.000;-14.86666
 865.60;  -60.267;  -73.000;    0.000;12.73333
 865.85;  -62.533;  -60.800;    0.000;-1.73333
 866.10;  -84.467;  -80.467;    0.000;-4.00000
 866.34;  -69.467;  -78.133;    0.000; 8.66666
 866.59;  -59.467;  -46.200;    0.000;-13.26667
 866.84;  -65.667;  -86.467;    0.000;20.80000
 867.09;  -54.067;  -71.000;    0.000;16.93333
 867.33;  -70.733;  -98.600;    0.000;27.86667
 867.58;  -49.133;  -60.400;    0.000;11.26667
 867.83;  -71.933;  -82.533;    0.000;10.60000
 868.08;  -54.467;  -60.733;    0.000; 6.26667
 868.32;  -75.733;  -82.067;    0.000; 6.33334
 868.57;  -56.333;  -69.667;    0.000;13.33333
 868.82;  -56.800;  -62.533;    0.000; 5.73333
 869.07;  -78.600;  -86.800;    0.000; 8.20000
 869.31;  -65.000;  -74.067;    0.000; 9.06667
 869.56;  -62.133;  -80.867;    0.000;18.73333
 869.81;  -69.733;  -90.933;    0.000;21.20000
 870.05;  -63.000;  -86.067;    0.000;23.06667
 870.30;  -52.867;  -63.600;    0.000;10.73333
 870.55;  -35.333;  -62.600;    0.000;27.26667
 870.80;  -48.000;  -58.000;    0.000;10.00000
 871.04;  -62.067;  -54.933;    0.000;-7.13333
 871.29;  -75.400;  -87.000;    0.000;11.60000
 871.54;  -52.333;  -79.733;    0.000;27.40000
 871.78;  -76.800;  -82.267;    0.000; 5.46667
 872.03;  -60.400;  -57.667;    0.000;-2.73333
 872.28;  -68.133;  -72.333;    0.000; 4.20000
 872.52;  -57.800;  -81.533;    0.000;23.73333
 872.77;  -83.133;  -95.400;    0.000;12.26667
 873.02;  -72.667;  -87.533;    0.000;14.86667
 873.26;  -72.133;  -88.267;    0.000;16.13334
 873.51;  -46.933;  -64.400;    0.000;17.46667
 873.76;  -70.467;  -66.533;    0.000;-3.93333
 874.00;  -51.600;  -61.267;    0.000; 9.66667
 874.25;  -94.067;  -98.000;    0.000; 3.93333
 874.50;  -63.133;  -72.733;    0.000; 9.59999
 874.74;  -69.200;  -71.533;    0.000; 2.33334
 874.99;  -72.667;  -62.333;    0.000;-10.33333
 875.24;  -22.733;  -39.667;    0.000;16.93333
 875.48;  -50.933;  -65.200;    0.000;14.26666
 875.73;  -59.667;  -71.733;    0.000;12.06666
 875.98;  -72.400;  -78.067;    0.000; 5.66666
 876.22;  -56.733;  -78.533;    0.000;21.80000
 876.47;  -57.600;  -48.267;    0.000;-9.33333
 876.71;  -74.867;  -64.200;    0.000;-10.66667
 876.96;  -36.200;  -29.200;    0.000;-7.00000
 877.21;  -52.733;  -74.867;    0.000;22.13334
 877.45;  -63.000;  -79.200;    0.000;16.20000
 877.70;  -62.867;  -56.933;    0.000;-5.93333
 877.95;  -43.267;  -38.600;    0.000;-4.66667
 878.19;  -62.600;  -50.600;    0.000;-12.00000
 878.44;  -45.467;  -66.267;    0.000;20.80000
 878.68;  -17.267;  -39.333;    0.000;22.06667
 878.93;  -29.667;  -64.867;    0.000;35.20000
 879.18;  -24.200;  -76.933;    0.000;52.73333
 879.42;  -46.933;  -62.067;    0.000;15.13333
 879.67;  -62.867;  -71.933;    0.000; 9.06667
 879.91;  -23.467;  -48.067;    0.000;24.60000
 880.16;  -54.533;  -52.467;    0.000;-2.06667
 880.40;  -62.467;  -58.200;    0.000;-4.26667
 880.65;  -56.667;  -50.600;    0.000;-6.06667
 880.90;  -37.600;  -48.333;    0.000;10.73333
 881.14;  -60.867;  -53.200;    0.000;-7.66666
 881.39;  -59.267;  -59.867;    0.000; 0.60000
 881.63;  -66.067;  -75.133;    0.000; 9.06667
 881.88;  -20.067;  -81.467;    0.000;61.40000
 882.12;  -67.000;  -63.667;    0.000;-3.33333
 882.37;  -43.333;  -47.333;    0.000; 4.00000
 882.62;  -44.733;  -64.667;    0.000;19.93333
 882.86;  -59.600;  -67.533;    0.000; 7.93333
 883.11;  -67.600;  -61.400;    0.000;-6.20000
 883.35;  -40.267;  -52.667;    0.000;12.40000
 883.60;  -33.333;  -31.067;    0.000;-2.26666
 883.84;  -53.933;  -62.400;    0.000; 8.46667
 884.09;  -53.333;  -52.000;    0.000;-1.33333
 884.33;  -45.067;  -51.600;    0.000; 6.53333
 884.58;  -47.667;  -59.533;    0.000;11.86666
 884.82;  -47.133;  -59.667;    0.000;12.53333
 885.07;  -51.733;  -68.067;    0.000;16.33333
 885.31;  -41.000;  -39.533;    0.000;-1.46667
 885.56;  -45.867;  -58.067;    0.000;12.20000
 885.80;  -55.600;  -72.133;    0.000;16.53333
 886.05;  -57.867;  -65.533;    0.000; 7.66667
 886.29;  -28.267;  -44.400;    0.000;16.13334
 886.54;  -32.800;  -63.333;    0.000;30.53333
 886.78;  -36.600;  -55.533;    0.000;18.93333
 887.03;  -58.733;  -63.667;    0.000; 4.93333
 887.27;   -1.067;  -25.200;    0.000;24.13333
 887.52;  -53.600;  -46.933;    0.000;-6.66666
 887.76;  -40.067;  -55.133;    0.000;15.06667
 888.01;  -44.933;  -59.267;    0.000;14.33333
 888.25;  -45.933;  -59.200;    0.000;13.26667
 888.50;  -36.400;  -40.667;    0.000; 4.26667
 888.74;  -32.333;  -43.467;    0.000;11.13334
 888.99;  -38.267;  -50.267;    0.000;12.00000
 889.23;  -35.267;  -47.667;    0.000;12.40000
 889.48;  -62.667;  -54.600;    0.000;-8.06667
 889.72;  -35.600;  -39.733;    0.000; 4.13334
 889.97;  -35.333;  -46.267;    0.000;10.93333
 890.21;  -54.067;  -31.267;    0.000;-22.80000
 890.46;  -20.133;  -38.800;    0.000;18.66667
 890.70;  -35.200;  -54.933;    0.000;19.73333
 890.94;  -38.867;  -51.533;    0.000;12.66667
 891.19;  -32.533;  -44.067;    0.000;11.53333
 891.43;  -33.267;  -44.200;    0.000;10.93333
 891.68;  -12.267;  -36.867;    0.000;24.60000
 891.92;  -31.067;  -59.800;    0.000;28.73333
 892.17;  -32.467;  -51.333;    0.000;18.86666
 892.41;  -49.000;  -53.200;    0.000; 4.20000
 892.66;  -17.467;  -42.400;    0.000;24.93333
 892.90;    5.133;  -26.933;    0.000;32.06667
 893.14;  -18.400;  -28.000;    0.000; 9.60000
 893.39;  -19.467;  -29.600;    0.000;10.13333
 893.63;  -27.400;  -46.800;    0.000;19.40000
 893.88;  -30.600;  -47.333;    0.000;16.73333
 894.12;  -13.133;  -31.533;    0.000;18.40000
 894.36;  -42.467;  -43.800;    0.000; 1.33333
 894.61;  -21.133;  -41.000;    0.000;19.86667
 894.85;  -31.133;  -24.667;    0.000;-6.46667
 895.10;  -12.000;  -24.267;    0.000;12.26667
 895.34;  -38.467;  -39.333;    0.000; 0.86666
 895.58;  -17.800;  -28.000;    0.000;10.20000
 895.83;    1.333;  -29.267;    0.000;30.60000
 896.07;  -19.200;  -37.333;    0.000;18.13333
 896.32;  -27.467;  -41.800;    0.000;14.33333
 896.56;   -2.533;  -28.467;    0.000;25.93333
 896.80;  -14.600;  -32.933;    0.000;18.33333
 897.05;  -11.667;  -27.733;    0.000;16.06667
 897.29;  -24.533;  -14.200;    0.000;-10.33333
 897.53;    3.733;  -10.067;    0.000;13.80000
 897.78;  -10.067;  -15.333;    0.000; 5.26667
 898.02;    9.333;    7.400;    0.000; 1.93333
 898.26;  -14.400;   -7.933;    0.000;-6.46667
 898.51;  -13.133;    0.533;    0.000;-13.66667
 898.75;    0.133;   -7.133;    0.000; 7.26667
 898.99;    1.733;    9.600;    0.000;-7.86667
 899.24;   11.933;  -18.067;    0.000;30.00000
 899.48;    5.933;   11.267;    0.000;-5.33333
 899.73;    4.400;  -25.333;    0.000;29.73333
 899.97;   16.533;    6.467;    0.000;10.06667
 900.21;   19.067;   10.533;    0.000; 8.53333
 900.46;   45.533;   25.933;    0.000;19.60000
 900.70;   37.333;   19.600;    0.000;17.73333
 900.94;   29.333;  -12.400;    0.000;41.73333
 901.18;   28.800;   41.067;    0.000;-12.26667
 901.43;   43.133;   44.133;    0.000;-1.00000
 901.67;   41.000;   40.000;    0.000; 1.00000
 901.91;   55.333;   30.800;    0.000;24.53333
 902.16;   57.000;   32.733;    0.000;24.26667
 902.40;   76.867;   68.067;    0.000; 8.80000
 902.64;   71.467;   43.267;    0.000;28.20000
 902.89;   93.933;   63.400;    0.000;30.53333
 903.13;  109.067;   87.933;    0.000;21.13333
 903.37;  109.067;  118.667;    0.000;-9.60000
 903.61;  138.933;  126.733;    0.000;12.20000
 903.86;  133.733;  117.467;    0.000;16.26667
 904.10;  154.933;  131.933;    0.000;23.00000
 904.34;  196.667;  167.667;    0.000;29.00000
 904.59;  197.733;  192.933;    0.000; 4.80000
 904.83;  237.133;  198.667;    0.000;38.46666
 905.07;  269.333;  244.067;    0.000;25.26668
 905.31;  301.800;  300.133;    0.000; 1.66666
 905.56;  315.267;  270.800;    0.000;44.46667
 905.80;  380.867;  346.467;    0.000;34.39999

