point3
Integration time [ms]:  15.000
Averaging Nr. [scans]: 15
Smoothing Nr. [pixels]: 0
Data measured with spectrometer [name]: 1307078U2
Wave   ;Sample   ;Dark     ;Reference;Scope Corrected for Dark
[nm]   ;[counts] ;[counts] ;[counts] 

 351.07;    3.400;   23.733;    0.000;-20.33333
 351.37;   12.667;   -4.467;    0.000;17.13333
 351.66;   21.867;    3.333;    0.000;18.53333
 351.95;    6.933;  -13.467;    0.000;20.40000
 352.24;  -11.667;   -8.067;    0.000;-3.60000
 352.54;    2.000;  -24.200;    0.000;26.20000
 352.83;    7.200;    0.267;    0.000; 6.93333
 353.12;   24.600;   -2.733;    0.000;27.33333
 353.42;  -16.000;  -10.267;    0.000;-5.73333
 353.71;  -19.533;   -6.533;    0.000;-13.00000
 354.00;    2.400;    1.600;    0.000; 0.80000
 354.30;   -4.800;  -21.333;    0.000;16.53333
 354.59;  -15.733;  -15.133;    0.000;-0.60000
 354.88;   -2.933;    2.333;    0.000;-5.26667
 355.17;  -12.800;   -5.867;    0.000;-6.93333
 355.47;   -7.867;  -19.600;    0.000;11.73333
 355.76;   -1.067;    0.867;    0.000;-1.93333
 356.05;   22.000;  -12.333;    0.000;34.33333
 356.35;   12.000;   -0.533;    0.000;12.53333
 356.64;   16.267;   13.200;    0.000; 3.06667
 356.93;   10.400;   -4.933;    0.000;15.33333
 357.22;   21.867;   -8.133;    0.000;30.00000
 357.52;   -5.733;   -2.867;    0.000;-2.86667
 357.81;   13.267;  -14.600;    0.000;27.86667
 358.10;    9.400;  -13.533;    0.000;22.93333
 358.39;   -0.267;  -12.400;    0.000;12.13333
 358.69;    4.467;   -6.000;    0.000;10.46667
 358.98;    5.800;  -19.267;    0.000;25.06667
 359.27;    5.600;    6.000;    0.000;-0.40000
 359.57;    6.600;   15.333;    0.000;-8.73333
 359.86;  -10.400;  -22.333;    0.000;11.93333
 360.15;   23.067;   10.667;    0.000;12.40000
 360.44;   -0.733;  -15.000;    0.000;14.26667
 360.74;   -1.133;   -6.000;    0.000; 4.86667
 361.03;  -18.467;    4.867;    0.000;-23.33333
 361.32;   10.467;   -6.333;    0.000;16.80000
 361.61;   -7.867;   -5.067;    0.000;-2.80000
 361.91;    8.867;   -3.533;    0.000;12.40000
 362.20;   -2.800;  -19.200;    0.000;16.40000
 362.49;  -10.600;  -10.067;    0.000;-0.53333
 362.78;    3.200;    3.733;    0.000;-0.53333
 363.08;    6.467;  -33.667;    0.000;40.13333
 363.37;  -17.067;   -8.200;    0.000;-8.86667
 363.66;   12.600;   14.267;    0.000;-1.66667
 363.95;  -12.400;    1.400;    0.000;-13.80000
 364.24;   12.933;   -9.667;    0.000;22.60000
 364.54;  -11.800;   -8.333;    0.000;-3.46667
 364.83;   -1.800;   -9.533;    0.000; 7.73333
 365.12;  -10.000;  -10.600;    0.000; 0.60000
 365.41;    9.267;   -6.533;    0.000;15.80000
 365.71;   -3.067;  -12.133;    0.000; 9.06667
 366.00;   -2.067;  -10.667;    0.000; 8.60000
 366.29;  -20.067;    0.933;    0.000;-21.00000
 366.58;   -1.133;   -8.133;    0.000; 7.00000
 366.87;   11.733;  -14.333;    0.000;26.06667
 367.17;   26.933;   -6.467;    0.000;33.40000
 367.46;  -13.267;  -11.133;    0.000;-2.13333
 367.75;    5.267;  -16.000;    0.000;21.26667
 368.04;    9.800;  -20.533;    0.000;30.33333
 368.34;   -0.333;  -21.467;    0.000;21.13333
 368.63;  -13.667;    3.133;    0.000;-16.80000
 368.92;   34.800;    7.000;    0.000;27.80000
 369.21;   -1.667;   -1.933;    0.000; 0.26667
 369.50;    8.000;  -17.667;    0.000;25.66667
 369.80;  -25.133;    5.467;    0.000;-30.60000
 370.09;    3.333;   -1.067;    0.000; 4.40000
 370.38;  -14.200;  -19.733;    0.000; 5.53333
 370.67;   -2.200;   -4.800;    0.000; 2.60000
 370.96;    0.400;   -1.533;    0.000; 1.93333
 371.26;   -8.267;   -6.267;    0.000;-2.00000
 371.55;  -21.600;   -8.933;    0.000;-12.66667
 371.84;    1.533;  -14.600;    0.000;16.13333
 372.13;   -6.867;  -14.067;    0.000; 7.20000
 372.42;   -1.467;  -10.600;    0.000; 9.13333
 372.71;   11.067;    2.800;    0.000; 8.26667
 373.01;   16.667;  -12.133;    0.000;28.80000
 373.30;   -9.133;   -0.067;    0.000;-9.06667
 373.59;    8.400;  -20.200;    0.000;28.60000
 373.88;  -13.867;  -15.133;    0.000; 1.26667
 374.17;    1.200;   -1.800;    0.000; 3.00000
 374.46;   -3.933;  -18.200;    0.000;14.26667
 374.76;    7.000;    7.667;    0.000;-0.66667
 375.05;   28.667;   29.000;    0.000;-0.33333
 375.34;   10.667;   -8.467;    0.000;19.13333
 375.63;   -2.667;    0.467;    0.000;-3.13333
 375.92;   -1.733;   -0.533;    0.000;-1.20000
 376.21;  -14.467;   -4.600;    0.000;-9.86667
 376.51;   15.067;  -11.000;    0.000;26.06667
 376.80;   16.600;  -11.800;    0.000;28.40000
 377.09;  -12.867;  -11.600;    0.000;-1.26667
 377.38;  -25.067;    0.067;    0.000;-25.13333
 377.67;   23.067;  -11.067;    0.000;34.13333
 377.96;   -6.200;  -10.933;    0.000; 4.73333
 378.25;    2.667;    1.467;    0.000; 1.20000
 378.55;   -1.933;  -17.800;    0.000;15.86667
 378.84;  -17.133;  -23.933;    0.000; 6.80000
 379.13;   -7.267;   -1.000;    0.000;-6.26667
 379.42;   17.733;  -29.667;    0.000;47.40000
 379.71;    2.867;  -16.400;    0.000;19.26667
 380.00;    9.667;   -1.400;    0.000;11.06667
 380.29;   -7.733;    7.000;    0.000;-14.73333
 380.59;   -5.467;   -4.800;    0.000;-0.66667
 380.88;  -17.800;  -16.400;    0.000;-1.40000
 381.17;   -5.067;  -15.867;    0.000;10.80000
 381.46;   -4.400;    2.800;    0.000;-7.20000
 381.75;    3.333;   -2.533;    0.000; 5.86667
 382.04;   11.800;   -7.067;    0.000;18.86667
 382.33;   -0.867;  -27.667;    0.000;26.80000
 382.62;  -19.133;  -12.533;    0.000;-6.60000
 382.91;   -1.933;   -2.667;    0.000; 0.73333
 383.21;    2.067;   -2.067;    0.000; 4.13333
 383.50;   -0.467;  -13.133;    0.000;12.66667
 383.79;   12.133;  -19.600;    0.000;31.73333
 384.08;   -4.400;  -20.467;    0.000;16.06667
 384.37;  -17.333;  -20.000;    0.000; 2.66667
 384.66;    3.533;  -16.867;    0.000;20.40000
 384.95;    1.133;   -5.000;    0.000; 6.13333
 385.24;  -13.533;  -13.133;    0.000;-0.40000
 385.53;    2.600;  -11.800;    0.000;14.40000
 385.83;  -11.733;   -2.400;    0.000;-9.33333
 386.12;   -1.733;  -12.467;    0.000;10.73333
 386.41;    3.533;  -16.933;    0.000;20.46667
 386.70;  -21.067;  -12.933;    0.000;-8.13333
 386.99;   -9.467;  -20.533;    0.000;11.06667
 387.28;    3.067;    1.800;    0.000; 1.26667
 387.57;    3.133;   -9.267;    0.000;12.40000
 387.86;  -19.733;   -3.333;    0.000;-16.40000
 388.15;   -3.333;  -25.200;    0.000;21.86667
 388.44;  -12.333;   -7.200;    0.000;-5.13333
 388.73;    7.200;  -13.400;    0.000;20.60000
 389.02;    5.533;    3.467;    0.000; 2.06667
 389.31;    5.400;  -10.667;    0.000;16.06667
 389.61;   11.333;  -10.667;    0.000;22.00000
 389.90;   -0.733;  -24.733;    0.000;24.00000
 390.19;  -18.067;   -9.733;    0.000;-8.33333
 390.48;    2.667;  -27.600;    0.000;30.26667
 390.77;    1.000;    6.467;    0.000;-5.46667
 391.06;   11.733;   -7.800;    0.000;19.53333
 391.35;  -14.867;  -22.800;    0.000; 7.93333
 391.64;   12.133;    1.133;    0.000;11.00000
 391.93;  -33.733;    0.000;    0.000;-33.73333
 392.22;   -8.667;  -13.533;    0.000; 4.86667
 392.51;    4.733;  -10.933;    0.000;15.66667
 392.80;   14.600;   -6.733;    0.000;21.33333
 393.09;   -1.733;  -27.333;    0.000;25.60000
 393.38;   -4.067;  -14.467;    0.000;10.40000
 393.67;   -6.200;  -32.867;    0.000;26.66667
 393.96;    7.467;  -11.133;    0.000;18.60000
 394.25;  -10.400;  -28.800;    0.000;18.40000
 394.54;   29.267;  -18.867;    0.000;48.13333
 394.83;  -15.467;  -16.333;    0.000; 0.86667
 395.13;   -3.533;  -12.333;    0.000; 8.80000
 395.42;  -17.400;  -11.733;    0.000;-5.66667
 395.71;   -3.133;  -31.733;    0.000;28.60000
 396.00;   -9.867;  -13.667;    0.000; 3.80000
 396.29;    7.133;   -4.733;    0.000;11.86667
 396.58;  -17.600;   -9.467;    0.000;-8.13333
 396.87;    8.467;    1.200;    0.000; 7.26667
 397.16;  -13.200;  -10.133;    0.000;-3.06667
 397.45;  -20.000;  -20.333;    0.000; 0.33333
 397.74;  -10.467;  -15.200;    0.000; 4.73333
 398.03;   -5.733;  -30.000;    0.000;24.26667
 398.32;   -9.733;  -18.733;    0.000; 9.00000
 398.61;  -17.200;  -19.667;    0.000; 2.46667
 398.90;  -13.667;  -10.733;    0.000;-2.93333
 399.19;   12.400;  -27.000;    0.000;39.40000
 399.48;  -11.867;  -15.533;    0.000; 3.66667
 399.77;   -5.133;  -12.733;    0.000; 7.60000
 400.06;    0.000;  -10.667;    0.000;10.66667
 400.35;    2.733;   -8.200;    0.000;10.93333
 400.64;  -24.333;    6.733;    0.000;-31.06667
 400.93;    3.000;  -24.533;    0.000;27.53333
 401.22;  -11.733;   -5.467;    0.000;-6.26667
 401.51;    0.133;  -10.600;    0.000;10.73333
 401.80;  -11.333;  -23.667;    0.000;12.33333
 402.09;  -15.467;  -12.067;    0.000;-3.40000
 402.38;   -8.600;  -16.667;    0.000; 8.06667
 402.67;   -2.600;    6.600;    0.000;-9.20000
 402.96;  -14.600;  -22.933;    0.000; 8.33333
 403.25;   10.800;  -26.200;    0.000;37.00000
 403.54;   18.467;  -16.467;    0.000;34.93333
 403.83;   -4.600;   -0.200;    0.000;-4.40000
 404.12;  -14.933;  -10.000;    0.000;-4.93333
 404.41;   -0.733;  -15.067;    0.000;14.33333
 404.70;   -0.400;    0.533;    0.000;-0.93333
 404.98;  -12.133;   -0.333;    0.000;-11.80000
 405.27;  -10.067;  -23.267;    0.000;13.20000
 405.56;   -1.400;   -3.867;    0.000; 2.46667
 405.85;  -11.333;  -32.400;    0.000;21.06667
 406.14;   16.333;  -28.400;    0.000;44.73333
 406.43;   -8.267;  -25.933;    0.000;17.66667
 406.72;   -1.467;   -6.400;    0.000; 4.93333
 407.01;  -19.600;  -17.733;    0.000;-1.86667
 407.30;  -11.200;  -23.733;    0.000;12.53333
 407.59;  -13.933;  -14.200;    0.000; 0.26667
 407.88;  -18.000;  -23.067;    0.000; 5.06667
 408.17;  -21.133;   -4.600;    0.000;-16.53333
 408.46;   -5.533;   -9.933;    0.000; 4.40000
 408.75;    1.533;   -1.533;    0.000; 3.06667
 409.04;    3.867;  -16.533;    0.000;20.40000
 409.33;  -18.467;  -28.200;    0.000; 9.73333
 409.62;    8.267;  -19.267;    0.000;27.53333
 409.91;  -20.000;  -12.400;    0.000;-7.60000
 410.20;    1.000;  -31.000;    0.000;32.00000
 410.48;   -4.533;   -4.467;    0.000;-0.06667
 410.77;    2.200;  -27.000;    0.000;29.20000
 411.06;  -18.733;  -23.000;    0.000; 4.26667
 411.35;   -1.267;    5.667;    0.000;-6.93333
 411.64;   -6.667;   -7.933;    0.000; 1.26667
 411.93;   -0.667;  -26.000;    0.000;25.33333
 412.22;  -23.600;  -21.533;    0.000;-2.06667
 412.51;   18.200;   -4.467;    0.000;22.66667
 412.80;    0.733;    2.467;    0.000;-1.73333
 413.09;    7.000;  -26.667;    0.000;33.66667
 413.38;    8.867;    3.067;    0.000; 5.80000
 413.67;   -8.467;  -30.467;    0.000;22.00000
 413.96;  -11.400;  -31.400;    0.000;20.00000
 414.24;   -6.733;   -9.733;    0.000; 3.00000
 414.53;  -18.733;    5.933;    0.000;-24.66667
 414.82;    8.600;    2.000;    0.000; 6.60000
 415.11;  -16.333;   11.667;    0.000;-28.00000
 415.40;    0.800;  -18.067;    0.000;18.86667
 415.69;    0.933;   -9.733;    0.000;10.66667
 415.98;  -22.133;   -1.600;    0.000;-20.53333
 416.27;   -8.400;  -16.267;    0.000; 7.86667
 416.56;    4.467;  -38.667;    0.000;43.13333
 416.84;    1.467;   -7.600;    0.000; 9.06667
 417.13;   -7.867;  -12.867;    0.000; 5.00000
 417.42;    5.867;   -7.067;    0.000;12.93333
 417.71;   -5.867;  -20.667;    0.000;14.80000
 418.00;  -13.667;  -17.733;    0.000; 4.06667
 418.29;   -6.667;  -14.600;    0.000; 7.93333
 418.58;  -14.600;  -36.267;    0.000;21.66667
 418.87;   -3.733;  -16.000;    0.000;12.26667
 419.15;    6.867;  -19.800;    0.000;26.66667
 419.44;   20.533;  -11.533;    0.000;32.06667
 419.73;   -2.800;  -24.200;    0.000;21.40000
 420.02;  -11.800;  -34.533;    0.000;22.73333
 420.31;  -16.267;   -7.800;    0.000;-8.46667
 420.60;   11.533;   -0.667;    0.000;12.20000
 420.89;  -18.667;  -25.200;    0.000; 6.53333
 421.18;   -0.600;  -17.533;    0.000;16.93333
 421.46;   -5.867;  -29.267;    0.000;23.40000
 421.75;    9.867;  -25.333;    0.000;35.20000
 422.04;  -16.333;  -29.333;    0.000;13.00000
 422.33;    5.200;   -3.800;    0.000; 9.00000
 422.62;  -14.800;  -12.867;    0.000;-1.93333
 422.91;    5.733;  -28.933;    0.000;34.66667
 423.19;  -19.467;  -30.533;    0.000;11.06667
 423.48;   19.267;   -8.200;    0.000;27.46667
 423.77;  -25.667;  -16.533;    0.000;-9.13333
 424.06;  -21.267;  -32.667;    0.000;11.40000
 424.35;  -12.067;  -29.533;    0.000;17.46667
 424.64;   -5.667;  -11.667;    0.000; 6.00000
 424.93;  -32.467;  -10.267;    0.000;-22.20000
 425.21;   -4.533;  -34.267;    0.000;29.73333
 425.50;   -5.400;  -15.733;    0.000;10.33333
 425.79;   -2.400;  -21.533;    0.000;19.13333
 426.08;    7.467;  -24.467;    0.000;31.93333
 426.37;  -16.733;   -5.533;    0.000;-11.20000
 426.65;  -17.733;   -9.733;    0.000;-8.00000
 426.94;  -15.333;  -21.000;    0.000; 5.66667
 427.23;   -1.133;  -24.133;    0.000;23.00000
 427.52;  -27.200;  -27.333;    0.000; 0.13333
 427.81;  -24.467;  -22.067;    0.000;-2.40000
 428.10;   15.400;   -2.667;    0.000;18.06667
 428.38;  -19.200;  -44.067;    0.000;24.86666
 428.67;   15.933;  -13.733;    0.000;29.66667
 428.96;  -30.933;  -38.867;    0.000; 7.93333
 429.25;   -0.667;   -4.400;    0.000; 3.73333
 429.54;  -10.933;  -29.933;    0.000;19.00000
 429.82;   -6.667;   -8.533;    0.000; 1.86667
 430.11;   -1.133;    5.867;    0.000;-7.00000
 430.40;    0.267;   -2.400;    0.000; 2.66667
 430.69;  -14.000;  -11.200;    0.000;-2.80000
 430.98;  -10.333;  -23.667;    0.000;13.33333
 431.26;  -14.933;  -13.867;    0.000;-1.06667
 431.55;    9.467;   -3.400;    0.000;12.86667
 431.84;  -19.200;  -21.000;    0.000; 1.80000
 432.13;    2.800;  -11.267;    0.000;14.06667
 432.41;  -21.333;  -24.200;    0.000; 2.86667
 432.70;    1.933;  -20.200;    0.000;22.13333
 432.99;  -13.600;  -17.533;    0.000; 3.93333
 433.28;  -18.200;  -16.933;    0.000;-1.26667
 433.57;   -9.467;  -16.867;    0.000; 7.40000
 433.85;   -6.733;  -10.267;    0.000; 3.53333
 434.14;  -13.667;   -4.267;    0.000;-9.40000
 434.43;   25.533;  -14.400;    0.000;39.93333
 434.72;   -6.400;  -18.600;    0.000;12.20000
 435.00;  -20.067;   -6.200;    0.000;-13.86667
 435.29;   -7.267;  -15.933;    0.000; 8.66667
 435.58;   -2.200;   -0.067;    0.000;-2.13333
 435.87;  -23.267;   -7.533;    0.000;-15.73333
 436.15;  -28.600;  -29.000;    0.000; 0.40000
 436.44;  -24.733;  -13.200;    0.000;-11.53333
 436.73;   -3.933;  -17.133;    0.000;13.20000
 437.02;  -12.000;  -12.267;    0.000; 0.26667
 437.30;  -17.267;  -12.200;    0.000;-5.06667
 437.59;   -4.400;  -14.933;    0.000;10.53333
 437.88;    2.600;  -27.667;    0.000;30.26667
 438.17;  -16.467;  -28.000;    0.000;11.53333
 438.45;  -20.733;  -13.267;    0.000;-7.46667
 438.74;  -20.933;  -10.533;    0.000;-10.40000
 439.03;  -18.133;  -16.933;    0.000;-1.20000
 439.32;  -15.600;   -0.133;    0.000;-15.46667
 439.60;    1.467;  -37.000;    0.000;38.46667
 439.89;  -27.667;  -11.200;    0.000;-16.46667
 440.18;    1.733;   -8.200;    0.000; 9.93333
 440.46;  -29.467;  -26.800;    0.000;-2.66667
 440.75;    3.200;  -19.133;    0.000;22.33333
 441.04;  -17.667;  -17.400;    0.000;-0.26667
 441.33;   -2.067;  -25.000;    0.000;22.93333
 441.61;  -16.400;  -16.467;    0.000; 0.06667
 441.90;   14.267;  -10.267;    0.000;24.53333
 442.19;  -13.200;  -40.133;    0.000;26.93334
 442.47;  -15.933;  -10.667;    0.000;-5.26667
 442.76;  -16.533;  -27.267;    0.000;10.73333
 443.05;  -13.800;  -13.467;    0.000;-0.33333
 443.34;    1.800;  -29.267;    0.000;31.06667
 443.62;  -12.333;  -16.333;    0.000; 4.00000
 443.91;  -10.867;  -30.600;    0.000;19.73333
 444.20;    0.800;   -2.067;    0.000; 2.86667
 444.48;  -21.600;  -20.600;    0.000;-1.00000
 444.77;   -8.400;  -12.200;    0.000; 3.80000
 445.06;   -3.667;  -28.733;    0.000;25.06667
 445.34;    9.200;  -19.200;    0.000;28.40000
 445.63;   -5.933;  -32.333;    0.000;26.40000
 445.92;    4.200;    6.733;    0.000;-2.53333
 446.21;    4.600;   -4.533;    0.000; 9.13333
 446.49;    1.267;  -22.600;    0.000;23.86667
 446.78;   -0.933;   -2.867;    0.000; 1.93333
 447.07;  -10.000;  -26.067;    0.000;16.06667
 447.35;  -32.067;  -17.200;    0.000;-14.86666
 447.64;  -10.533;  -19.267;    0.000; 8.73333
 447.93;   -5.867;  -10.133;    0.000; 4.26667
 448.21;   -7.333;  -11.400;    0.000; 4.06667
 448.50;  -13.267;    1.933;    0.000;-15.20000
 448.79;  -14.933;   -7.267;    0.000;-7.66667
 449.07;   -5.600;  -19.667;    0.000;14.06667
 449.36;   -7.067;  -32.133;    0.000;25.06667
 449.65;  -24.667;  -27.000;    0.000; 2.33333
 449.93;  -20.933;  -13.200;    0.000;-7.73333
 450.22;   -9.067;  -10.067;    0.000; 1.00000
 450.51;  -18.267;  -36.933;    0.000;18.66667
 450.79;  -11.400;  -24.267;    0.000;12.86667
 451.08;   -7.333;  -18.000;    0.000;10.66667
 451.36;   -5.133;  -16.533;    0.000;11.40000
 451.65;   -3.933;  -11.267;    0.000; 7.33333
 451.94;  -34.467;  -22.400;    0.000;-12.06667
 452.22;  -18.067;  -16.533;    0.000;-1.53333
 452.51;   -7.800;   -6.400;    0.000;-1.40000
 452.80;   -5.533;  -17.333;    0.000;11.80000
 453.08;  -26.867;  -30.000;    0.000; 3.13333
 453.37;   -5.333;   -1.267;    0.000;-4.06667
 453.66;  -13.333;  -25.933;    0.000;12.60000
 453.94;  -11.000;  -22.667;    0.000;11.66667
 454.23;  -23.733;  -12.867;    0.000;-10.86667
 454.51;   -2.267;    6.200;    0.000;-8.46667
 454.80;  -42.600;   -8.933;    0.000;-33.66667
 455.09;   -5.400;  -27.800;    0.000;22.40000
 455.37;  -12.533;    3.867;    0.000;-16.40000
 455.66;   -5.733;  -26.733;    0.000;21.00000
 455.95;   -6.000;  -10.000;    0.000; 4.00000
 456.23;   -2.600;   -9.800;    0.000; 7.20000
 456.52;  -26.800;  -28.867;    0.000; 2.06667
 456.80;  -10.333;  -19.933;    0.000; 9.60000
 457.09;   -7.800;  -14.933;    0.000; 7.13333
 457.38;    0.200;  -15.400;    0.000;15.60000
 457.66;  -27.400;  -12.000;    0.000;-15.40000
 457.95;   -1.667;  -26.867;    0.000;25.20000
 458.23;  -10.200;  -16.133;    0.000; 5.93333
 458.52;   -7.667;  -23.467;    0.000;15.80000
 458.81;  -28.533;  -14.733;    0.000;-13.80000
 459.09;   -6.733;   -9.200;    0.000; 2.46667
 459.38;   -7.200;  -16.133;    0.000; 8.93333
 459.66;  -25.067;  -27.267;    0.000; 2.20000
 459.95;   -7.800;  -29.133;    0.000;21.33333
 460.23;  -22.867;   -0.267;    0.000;-22.60000
 460.52;  -19.067;  -27.733;    0.000; 8.66667
 460.81;   -5.267;  -15.067;    0.000; 9.80000
 461.09;  -12.400;  -25.600;    0.000;13.20000
 461.38;    5.600;  -19.333;    0.000;24.93333
 461.66;  -40.267;  -25.000;    0.000;-15.26667
 461.95;  -18.533;  -13.400;    0.000;-5.13333
 462.23;  -28.333;  -27.133;    0.000;-1.20000
 462.52;    0.533;  -35.933;    0.000;36.46667
 462.81;  -32.667;  -28.667;    0.000;-4.00000
 463.09;    2.533;  -41.667;    0.000;44.20000
 463.38;  -24.667;   -7.533;    0.000;-17.13333
 463.66;  -27.333;  -18.933;    0.000;-8.40000
 463.95;  -23.600;  -17.133;    0.000;-6.46667
 464.23;   -2.733;  -19.400;    0.000;16.66667
 464.52;  -16.400;   -7.133;    0.000;-9.26667
 464.80;  -16.600;  -33.333;    0.000;16.73333
 465.09;  -15.267;  -11.733;    0.000;-3.53333
 465.38;   -5.800;  -27.067;    0.000;21.26667
 465.66;  -15.933;  -25.733;    0.000; 9.80000
 465.95;   -4.200;  -32.133;    0.000;27.93334
 466.23;  -21.200;   -8.467;    0.000;-12.73333
 466.52;   -4.000;  -31.200;    0.000;27.20000
 466.80;   -6.400;   -1.533;    0.000;-4.86667
 467.09;  -16.467;  -19.267;    0.000; 2.80000
 467.37;  -17.800;  -20.667;    0.000; 2.86667
 467.66;  -15.667;  -14.933;    0.000;-0.73333
 467.94;  -17.533;  -17.933;    0.000; 0.40000
 468.23;  -23.267;   -7.000;    0.000;-16.26667
 468.51;  -27.267;    6.867;    0.000;-34.13333
 468.80;  -17.267;  -37.867;    0.000;20.60000
 469.08;  -22.400;   -5.400;    0.000;-17.00000
 469.37;  -12.667;  -31.733;    0.000;19.06667
 469.66;   -8.533;  -10.933;    0.000; 2.40000
 469.94;  -14.867;  -26.933;    0.000;12.06667
 470.23;  -16.667;  -12.267;    0.000;-4.40000
 470.51;  -18.800;  -24.800;    0.000; 6.00000
 470.80;  -24.933;   -1.000;    0.000;-23.93333
 471.08;   -2.000;  -32.600;    0.000;30.60000
 471.37;  -17.733;  -23.133;    0.000; 5.40000
 471.65;    1.867;  -20.067;    0.000;21.93333
 471.94;  -14.267;  -35.333;    0.000;21.06667
 472.22;  -22.733;  -27.333;    0.000; 4.60000
 472.51;  -19.533;  -18.733;    0.000;-0.80000
 472.79;    1.867;  -22.667;    0.000;24.53333
 473.08;  -17.267;  -10.600;    0.000;-6.66667
 473.36;   -2.533;  -13.333;    0.000;10.80000
 473.64;  -33.800;  -12.667;    0.000;-21.13333
 473.93;  -21.200;  -45.933;    0.000;24.73333
 474.21;  -29.333;  -34.267;    0.000; 4.93333
 474.50;    5.933;  -14.200;    0.000;20.13333
 474.78;   -6.400;    2.867;    0.000;-9.26667
 475.07;  -25.533;  -25.133;    0.000;-0.40000
 475.35;  -21.933;  -12.400;    0.000;-9.53333
 475.64;    4.000;  -35.800;    0.000;39.80000
 475.92;  -29.667;  -18.267;    0.000;-11.40000
 476.21;    3.467;  -48.467;    0.000;51.93333
 476.49;    3.067;  -20.267;    0.000;23.33333
 476.78;  -17.000;  -10.400;    0.000;-6.60000
 477.06;  -25.533;  -14.067;    0.000;-11.46667
 477.35;    4.733;  -21.667;    0.000;26.40000
 477.63;  -32.933;  -24.067;    0.000;-8.86667
 477.91;  -11.933;  -36.000;    0.000;24.06667
 478.20;  -14.133;  -21.667;    0.000; 7.53333
 478.48;   26.400;    1.667;    0.000;24.73333
 478.77;  -15.800;  -30.667;    0.000;14.86667
 479.05;   -7.133;  -41.600;    0.000;34.46667
 479.34;   -3.600;  -23.267;    0.000;19.66667
 479.62;    6.800;  -38.733;    0.000;45.53333
 479.91;  -12.200;  -13.333;    0.000; 1.13333
 480.19;   17.733;   -9.467;    0.000;27.20000
 480.47;  -20.667;  -29.733;    0.000; 9.06667
 480.76;   -5.800;  -50.333;    0.000;44.53333
 481.04;   -9.733;  -16.933;    0.000; 7.20000
 481.33;   -6.133;   -1.133;    0.000;-5.00000
 481.61;  -12.133;  -12.067;    0.000;-0.06667
 481.90;  -12.600;  -21.333;    0.000; 8.73333
 482.18;    1.067;  -26.600;    0.000;27.66667
 482.46;    0.400;  -22.867;    0.000;23.26667
 482.75;  -11.867;  -25.400;    0.000;13.53333
 483.03;  -26.067;  -30.267;    0.000; 4.20000
 483.32;   -4.600;  -45.200;    0.000;40.60000
 483.60;    5.867;  -27.000;    0.000;32.86667
 483.88;   -4.600;  -24.200;    0.000;19.60000
 484.17;    9.533;  -13.533;    0.000;23.06667
 484.45;  -14.600;  -28.267;    0.000;13.66667
 484.74;   -2.733;  -40.400;    0.000;37.66667
 485.02;    0.400;   -2.800;    0.000; 3.20000
 485.30;    3.067;  -25.533;    0.000;28.60000
 485.59;    8.133;  -57.333;    0.000;65.46667
 485.87;   13.200;  -13.667;    0.000;26.86667
 486.16;   12.667;  -24.000;    0.000;36.66667
 486.44;    9.933;  -33.533;    0.000;43.46667
 486.72;   28.000;  -23.267;    0.000;51.26667
 487.01;   23.267;  -40.867;    0.000;64.13333
 487.29;   18.667;  -10.400;    0.000;29.06667
 487.58;   43.400;  -12.467;    0.000;55.86667
 487.86;   39.267;  -26.000;    0.000;65.26667
 488.14;   44.800;  -25.067;    0.000;69.86667
 488.43;   56.400;  -20.133;    0.000;76.53333
 488.71;   57.800;  -11.467;    0.000;69.26667
 488.99;   80.067;   -9.400;    0.000;89.46667
 489.28;   88.533;  -34.467;    0.000;123.00000
 489.56;   89.400;  -15.267;    0.000;104.66667
 489.85;  116.200;  -31.600;    0.000;147.80000
 490.13;  112.800;  -28.600;    0.000;141.40000
 490.41;  143.667;  -14.733;    0.000;158.40001
 490.70;  157.667;  -21.400;    0.000;179.06667
 490.98;  149.800;  -39.400;    0.000;189.20000
 491.26;  183.800;  -27.133;    0.000;210.93334
 491.55;  212.533;  -28.067;    0.000;240.60001
 491.83;  210.067;  -30.133;    0.000;240.20000
 492.11;  254.200;  -30.467;    0.000;284.66666
 492.40;  240.667;  -14.600;    0.000;255.26667
 492.68;  286.933;  -22.333;    0.000;309.26665
 492.96;  297.733;  -32.133;    0.000;329.86667
 493.25;  328.667;  -23.267;    0.000;351.93332
 493.53;  361.133;  -17.667;    0.000;378.80000
 493.81;  389.733;  -42.667;    0.000;432.40001
 494.10;  419.867;  -42.467;    0.000;462.33334
 494.38;  472.600;  -37.733;    0.000;510.33334
 494.66;  503.800;  -12.867;    0.000;516.66665
 494.95;  539.800;  -26.000;    0.000;565.79999
 495.23;  567.533;   -7.933;    0.000;575.46666
 495.51;  642.467;  -10.867;    0.000;653.33334
 495.80;  658.400;  -34.067;    0.000;692.46669
 496.08;  713.133;    3.400;    0.000;709.73336
 496.36;  745.733;   -5.867;    0.000;751.60000
 496.65;  812.600;  -15.067;    0.000;827.66664
 496.93;  864.133;   -8.467;    0.000;872.60003
 497.21;  920.533;  -46.667;    0.000;967.19999
 497.50;  964.133;   -9.600;    0.000;973.73336
 497.78;  997.600;  -32.000;    0.000;1029.59998
 498.06; 1054.267;  -32.733;    0.000;1087.00006
 498.34; 1124.333;  -25.067;    0.000;1149.40004
 498.63; 1194.533;  -34.667;    0.000;1229.19999
 498.91; 1249.067;  -20.067;    0.000;1269.13332
 499.19; 1337.400;  -33.800;    0.000;1371.20002
 499.48; 1405.933;  -31.467;    0.000;1437.40002
 499.76; 1463.933;   -4.533;    0.000;1468.46668
 500.04; 1534.867;  -35.867;    0.000;1570.73336
 500.32; 1603.200;  -14.000;    0.000;1617.19995
 500.61; 1702.867;  -29.133;    0.000;1732.00003
 500.89; 1810.600;  -24.733;    0.000;1835.33331
 501.17; 1878.667;  -13.533;    0.000;1892.19996
 501.46; 1924.800;  -10.867;    0.000;1935.66672
 501.74; 2040.733;  -28.533;    0.000;2069.26661
 502.02; 2122.467;    0.867;    0.000;2121.59989
 502.30; 2247.667;  -20.800;    0.000;2268.46675
 502.59; 2237.133;  -19.533;    0.000;2256.66663
 502.87; 2351.200;  -38.067;    0.000;2389.26662
 503.15; 2445.000;  -39.733;    0.000;2484.73333
 503.43; 2564.867;  -29.867;    0.000;2594.73337
 503.72; 2697.933;  -33.867;    0.000;2731.80001
 504.00; 2781.933;  -34.067;    0.000;2816.00002
 504.28; 2841.867;  -26.733;    0.000;2868.60003
 504.56; 2971.333;  -31.600;    0.000;3002.93325
 504.85; 3035.200;  -20.533;    0.000;3055.73328
 505.13; 3159.133;  -27.333;    0.000;3186.46663
 505.41; 3260.800;  -26.333;    0.000;3287.13338
 505.69; 3421.200;  -13.467;    0.000;3434.66662
 505.98; 3470.333;  -13.267;    0.000;3483.59992
 506.26; 3618.333;  -33.133;    0.000;3651.46659
 506.54; 3675.133;  -28.000;    0.000;3703.13330
 506.82; 3851.533;  -24.600;    0.000;3876.13345
 507.11; 3906.267;   -3.800;    0.000;3910.06660
 507.39; 4075.133;  -29.533;    0.000;4104.66663
 507.67; 4168.867;  -25.733;    0.000;4194.60003
 507.95; 4280.333;  -31.000;    0.000;4311.33350
 508.23; 4496.600;  -38.400;    0.000;4535.00010
 508.52; 4531.333;  -20.067;    0.000;4551.40016
 508.80; 4620.400;  -18.467;    0.000;4638.86657
 509.08; 4739.600;  -27.067;    0.000;4766.66677
 509.36; 4855.867;   -8.667;    0.000;4864.53337
 509.65; 4964.600;  -20.333;    0.000;4984.93343
 509.93; 5117.000;  -28.067;    0.000;5145.06667
 510.21; 5170.333;  -12.467;    0.000;5182.80016
 510.49; 5378.067;  -18.067;    0.000;5396.13356
 510.77; 5423.600;  -32.933;    0.000;5456.53343
 511.06; 5507.267;  -41.400;    0.000;5548.66660
 511.34; 5724.533;   -9.267;    0.000;5733.79987
 511.62; 5779.200;   -9.533;    0.000;5788.73353
 511.90; 5879.533;  -30.133;    0.000;5909.66654
 512.18; 6054.133;   -8.333;    0.000;6062.46663
 512.47; 6206.667;  -28.133;    0.000;6234.79984
 512.75; 6221.400;  -11.067;    0.000;6232.46657
 513.03; 6410.600;  -10.267;    0.000;6420.86676
 513.31; 6494.200;  -43.867;    0.000;6538.06686
 513.59; 6695.800;  -23.000;    0.000;6718.79980
 513.87; 6694.000;  -11.000;    0.000;6705.00000
 514.16; 6771.067;  -27.333;    0.000;6798.40023
 514.44; 6908.933;  -23.400;    0.000;6932.33311
 514.72; 7089.867;  -40.333;    0.000;7130.20003
 515.00; 7160.467;   -5.467;    0.000;7165.93346
 515.28; 7252.400;  -30.933;    0.000;7283.33323
 515.56; 7297.333;  -17.133;    0.000;7314.46683
 515.85; 7479.600;  -21.200;    0.000;7500.80010
 516.13; 7559.000;  -16.200;    0.000;7575.20000
 516.41; 7763.200;  -50.467;    0.000;7813.66686
 516.69; 7798.267;  -20.533;    0.000;7818.79993
 516.97; 7953.467;   -2.733;    0.000;7956.20013
 517.25; 7998.667;  -22.267;    0.000;8020.93317
 517.54; 8142.400;  -30.000;    0.000;8172.39990
 517.82; 8202.800;  -31.000;    0.000;8233.79980
 518.10; 8337.134;  -10.600;    0.000;8347.73379
 518.38; 8386.267;  -16.400;    0.000;8402.66660
 518.66; 8489.667;   -7.933;    0.000;8497.60033
 518.94; 8544.533;  -20.133;    0.000;8564.66654
 519.22; 8707.866;  -13.000;    0.000;8720.86621
 519.51; 8737.667;   10.000;    0.000;8727.66699
 519.79; 8875.267;  -17.533;    0.000;8892.79993
 520.07; 8998.733;  -16.067;    0.000;9014.80007
 520.35; 9034.533;  -29.467;    0.000;9063.99987
 520.63; 9127.267;  -20.000;    0.000;9147.26660
 520.91; 9281.800;  -27.867;    0.000;9309.66647
 521.19; 9301.533;  -34.400;    0.000;9335.93320
 521.47; 9497.267;  -16.867;    0.000;9514.13327
 521.75; 9539.733;  -26.133;    0.000;9565.86673
 522.04; 9523.066;  -21.333;    0.000;9544.39974
 522.32; 9599.533;  -36.867;    0.000;9636.39987
 522.60; 9652.467;  -30.933;    0.000;9683.40013
 522.88; 9831.600;  -24.267;    0.000;9855.86628
 523.16; 9838.400;  -42.667;    0.000;9881.06706
 523.44;10001.333;  -20.867;    0.000;10022.19967
 523.72;10093.934;  -24.400;    0.000;10118.33359
 524.00;10135.200;  -13.733;    0.000;10148.93353
 524.28;10276.400;  -11.667;    0.000;10288.06706
 524.57;10226.000;  -14.000;    0.000;10240.00000
 524.85;10322.134;  -31.600;    0.000;10353.73379
 525.13;10472.467;   -3.933;    0.000;10476.40013
 525.41;10513.800;  -35.533;    0.000;10549.33314
 525.69;10559.467;  -23.133;    0.000;10582.60013
 525.97;10606.267;  -10.467;    0.000;10616.73327
 526.25;10628.200;  -24.800;    0.000;10653.00019
 526.53;10775.467;  -41.467;    0.000;10816.93346
 526.81;10823.200;  -43.667;    0.000;10866.86686
 527.09;10883.533;    1.000;    0.000;10882.53320
 527.37;10965.934;  -13.333;    0.000;10979.26693
 527.65;10979.134;  -28.200;    0.000;11007.33379
 527.93;11006.866;  -33.067;    0.000;11039.93288
 528.22;11022.134;  -25.733;    0.000;11047.86712
 528.50;11190.667;  -23.067;    0.000;11213.73366
 528.78;11289.733;  -35.733;    0.000;11325.46673
 529.06;11287.200;  -14.800;    0.000;11302.00020
 529.34;11270.134;  -35.133;    0.000;11305.26712
 529.62;11464.200;  -19.933;    0.000;11484.13353
 529.90;11419.467;  -17.200;    0.000;11436.66680
 530.18;11525.866;    8.533;    0.000;11517.33288
 530.46;11534.333;  -13.333;    0.000;11547.66634
 530.74;11576.866;   -3.333;    0.000;11580.19954
 531.02;11665.533;  -20.133;    0.000;11685.66654
 531.30;11700.733;  -11.467;    0.000;11712.20006
 531.58;11888.267;  -21.933;    0.000;11910.19993
 531.86;11834.667;   -6.467;    0.000;11841.13366
 532.14;11903.467;  -28.667;    0.000;11932.13346
 532.42;11851.066;  -19.800;    0.000;11870.86641
 532.70;12009.934;  -16.733;    0.000;12026.66693
 532.98;11921.467;   -9.867;    0.000;11931.33346
 533.26;12114.467;  -23.533;    0.000;12138.00013
 533.54;12032.866;   -9.067;    0.000;12041.93288
 533.82;12240.800;  -39.467;    0.000;12280.26647
 534.10;12189.333;  -23.533;    0.000;12212.86634
 534.38;12226.667;  -44.267;    0.000;12270.93366
 534.66;12277.000;  -21.267;    0.000;12298.26667
 534.94;12337.333;  -11.467;    0.000;12348.79967
 535.22;12312.533;  -18.267;    0.000;12330.79987
 535.50;12471.533;  -22.600;    0.000;12494.13320
 535.78;12364.467;  -21.933;    0.000;12386.40013
 536.06;12569.533;  -16.533;    0.000;12586.06654
 536.34;12543.733;  -14.600;    0.000;12558.33340
 536.62;12468.467;  -26.733;    0.000;12495.20013
 536.90;12556.733;  -11.867;    0.000;12568.60007
 537.18;12682.000;  -16.667;    0.000;12698.66667
 537.46;12676.533;  -27.867;    0.000;12704.39987
 537.74;12710.667;  -36.200;    0.000;12746.86699
 538.02;12753.000;  -19.800;    0.000;12772.80000
 538.30;12779.600;  -10.533;    0.000;12790.13294
 538.58;12813.866;  -33.733;    0.000;12847.59954
 538.86;12893.467;   -2.267;    0.000;12895.73346
 539.14;12872.267;  -26.667;    0.000;12898.93327
 539.42;13030.533;   -6.000;    0.000;13036.53320
 539.70;13064.533;  -13.933;    0.000;13078.46654
 539.98;13029.667;  -11.067;    0.000;13040.73366
 540.26;12999.934;  -38.400;    0.000;13038.33360
 540.54;13044.134;  -39.333;    0.000;13083.46712
 540.82;13108.733;  -21.133;    0.000;13129.86673
 541.10;13224.467;  -28.733;    0.000;13253.20013
 541.38;13235.467;   -5.867;    0.000;13241.33346
 541.66;13125.000;  -23.200;    0.000;13148.20000
 541.94;13116.467;  -26.200;    0.000;13142.66680
 542.22;13217.333;  -32.267;    0.000;13249.59967
 542.50;13384.733;  -34.133;    0.000;13418.86673
 542.78;13369.000;  -28.000;    0.000;13397.00000
 543.06;13292.267;  -27.867;    0.000;13320.13327
 543.34;13417.934;  -34.333;    0.000;13452.26693
 543.62;13417.400;  -18.867;    0.000;13436.26706
 543.90;13376.134;  -16.733;    0.000;13392.86712
 544.17;13352.733;  -32.067;    0.000;13384.80006
 544.45;13392.733;  -34.933;    0.000;13427.66673
 544.73;13389.600;    3.533;    0.000;13386.06628
 545.01;13571.733;  -33.000;    0.000;13604.73340
 545.29;13520.934;  -26.667;    0.000;13547.60026
 545.57;13727.667;  -20.000;    0.000;13747.66699
 545.85;13566.533;  -18.467;    0.000;13584.99987
 546.13;13584.400;  -32.667;    0.000;13617.06706
 546.41;13588.866;  -30.400;    0.000;13619.26621
 546.69;13684.467;  -21.400;    0.000;13705.86680
 546.97;13619.200;  -38.467;    0.000;13657.66686
 547.25;13677.134;  -31.667;    0.000;13708.80046
 547.52;13695.333;  -20.933;    0.000;13716.26634
 547.80;13716.333;  -19.800;    0.000;13736.13301
 548.08;13735.600;  -16.533;    0.000;13752.13294
 548.36;13796.467;  -24.133;    0.000;13820.60013
 548.64;13782.267;  -14.133;    0.000;13796.39993
 548.92;13770.733;  -20.867;    0.000;13791.60007
 549.20;13764.800;   -5.067;    0.000;13769.86647
 549.48;13805.667;   -7.667;    0.000;13813.33366
 549.76;13703.600;   -8.867;    0.000;13712.46628
 550.04;13850.733;  -31.133;    0.000;13881.86673
 550.31;13884.533;  -20.133;    0.000;13904.66654
 550.59;13813.267;  -35.533;    0.000;13848.79993
 550.87;13852.134;  -23.067;    0.000;13875.20046
 551.15;13970.800;   -9.733;    0.000;13980.53314
 551.43;13935.000;  -14.667;    0.000;13949.66667
 551.71;13852.934;  -29.667;    0.000;13882.60026
 551.99;13861.467;   -8.400;    0.000;13869.86680
 552.27;13868.600;  -38.267;    0.000;13906.86628
 552.54;13926.134;   -6.667;    0.000;13932.80046
 552.82;13825.066;  -19.200;    0.000;13844.26641
 553.10;13931.866;  -25.533;    0.000;13957.39954
 553.38;13983.000;   -9.933;    0.000;13992.93333
 553.66;13958.733;  -42.867;    0.000;14001.60006
 553.94;13892.400;  -23.200;    0.000;13915.60039
 554.22;13907.934;  -16.733;    0.000;13924.66693
 554.49;13900.667;  -28.533;    0.000;13929.20033
 554.77;13989.400;  -23.933;    0.000;14013.33372
 555.05;13924.400;   -9.133;    0.000;13933.53372
 555.33;14049.800;  -13.867;    0.000;14063.66647
 555.61;13990.667;  -11.267;    0.000;14001.93366
 555.89;13995.000;  -21.200;    0.000;14016.20000
 556.16;13994.400;  -23.400;    0.000;14017.80039
 556.44;13895.134;   -7.267;    0.000;13902.40046
 556.72;13905.333;  -11.200;    0.000;13916.53301
 557.00;13989.400;  -13.933;    0.000;14003.33372
 557.28;13926.866;   -9.867;    0.000;13936.73288
 557.56;14006.533;  -15.533;    0.000;14022.06654
 557.83;13996.200;  -11.267;    0.000;14007.46686
 558.11;13839.200;    1.067;    0.000;13838.13353
 558.39;13977.934;  -28.400;    0.000;14006.33359
 558.67;13976.134;   -8.333;    0.000;13984.46712
 558.95;13828.066;  -33.200;    0.000;13861.26641
 559.23;13892.066;  -15.000;    0.000;13907.06641
 559.50;13953.200;  -15.533;    0.000;13968.73353
 559.78;13934.066;    8.733;    0.000;13925.33307
 560.06;13881.134;  -13.133;    0.000;13894.26712
 560.34;13890.934;  -12.800;    0.000;13903.73359
 560.62;13918.400;  -28.733;    0.000;13947.13372
 560.89;13763.800;   -4.867;    0.000;13768.66647
 561.17;13772.934;  -27.600;    0.000;13800.53359
 561.45;13790.200;   -0.533;    0.000;13790.73353
 561.73;13790.934;  -26.267;    0.000;13817.20026
 562.00;13783.400;  -23.667;    0.000;13807.06706
 562.28;13778.934;  -24.867;    0.000;13803.80026
 562.56;13725.667;  -25.333;    0.000;13751.00033
 562.84;13688.667;  -18.533;    0.000;13707.20033
 563.12;13713.533;  -18.000;    0.000;13731.53320
 563.39;13736.066;  -25.533;    0.000;13761.59974
 563.67;13714.400;  -11.933;    0.000;13726.33372
 563.95;13698.600;  -12.400;    0.000;13710.99961
 564.23;13656.866;   13.067;    0.000;13643.79954
 564.50;13641.733;  -11.533;    0.000;13653.26673
 564.78;13641.400;  -11.467;    0.000;13652.86706
 565.06;13513.333;  -22.133;    0.000;13535.46634
 565.34;13530.934;   -8.467;    0.000;13539.40026
 565.61;13583.267;   -9.867;    0.000;13593.13327
 565.89;13410.533;   -9.667;    0.000;13420.19987
 566.17;13445.267;  -36.533;    0.000;13481.79993
 566.45;13467.733;  -10.333;    0.000;13478.06673
 566.73;13374.134;  -33.600;    0.000;13407.73379
 567.00;13422.267;  -34.133;    0.000;13456.39994
 567.28;13323.000;  -19.333;    0.000;13342.33333
 567.56;13450.467;  -21.933;    0.000;13472.40013
 567.83;13339.866;  -20.600;    0.000;13360.46621
 568.11;13346.333;  -26.333;    0.000;13372.66634
 568.39;13257.866;  -18.333;    0.000;13276.19954
 568.67;13230.200;   -8.267;    0.000;13238.46686
 568.94;13154.533;  -17.667;    0.000;13172.19987
 569.22;13154.600;  -18.600;    0.000;13173.19961
 569.50;13120.866;  -19.133;    0.000;13139.99954
 569.78;13091.467;    2.333;    0.000;13089.13346
 570.05;12980.333;  -11.067;    0.000;12991.39967
 570.33;12994.934;  -23.800;    0.000;13018.73359
 570.61;12967.533;  -14.800;    0.000;12982.33320
 570.88;12954.267;   -6.000;    0.000;12960.26660
 571.16;12841.066;  -15.600;    0.000;12856.66641
 571.44;12833.333;  -18.267;    0.000;12851.59967
 571.72;12875.533;  -21.333;    0.000;12896.86654
 571.99;12903.467;  -19.133;    0.000;12922.60013
 572.27;12789.200;  -27.133;    0.000;12816.33353
 572.55;12707.267;   -3.933;    0.000;12711.19993
 572.82;12736.066;  -28.733;    0.000;12764.79974
 573.10;12700.600;   -6.533;    0.000;12707.13294
 573.38;12634.934;  -38.067;    0.000;12673.00026
 573.65;12585.400;   19.800;    0.000;12565.60039
 573.93;12418.733;  -12.733;    0.000;12431.46673
 574.21;12522.400;   -0.600;    0.000;12523.00039
 574.48;12436.267;  -18.933;    0.000;12455.19993
 574.76;12382.467;  -19.667;    0.000;12402.13346
 575.04;12310.400;   -9.200;    0.000;12319.60039
 575.32;12360.866;  -16.933;    0.000;12377.79954
 575.59;12288.066;  -24.467;    0.000;12312.53307
 575.87;12069.333;  -26.400;    0.000;12095.73301
 576.15;12266.600;  -24.867;    0.000;12291.46628
 576.42;12277.000;   -8.933;    0.000;12285.93333
 576.70;12031.333;  -32.600;    0.000;12063.93301
 576.98;11977.267;   -6.000;    0.000;11983.26660
 577.25;12032.866;  -49.933;    0.000;12082.79955
 577.53;11960.066;   -0.933;    0.000;11960.99974
 577.80;11859.066;  -13.733;    0.000;11872.79974
 578.08;11828.934;  -31.800;    0.000;11860.73359
 578.36;11843.533;  -24.867;    0.000;11868.39987
 578.63;11738.000;  -31.000;    0.000;11769.00000
 578.91;11805.467;  -21.067;    0.000;11826.53346
 579.19;11683.800;  -19.000;    0.000;11702.79980
 579.46;11555.333;  -34.400;    0.000;11589.73301
 579.74;11575.600;  -27.333;    0.000;11602.93294
 580.02;11477.800;  -17.400;    0.000;11495.19980
 580.29;11481.600;  -13.333;    0.000;11494.93294
 580.57;11489.066;   -8.333;    0.000;11497.39974
 580.84;11271.733;  -18.400;    0.000;11290.13340
 581.12;11290.066;  -16.733;    0.000;11306.79974
 581.40;11166.733;  -18.533;    0.000;11185.26673
 581.67;11148.600;  -12.267;    0.000;11160.86628
 581.95;11185.467;  -27.867;    0.000;11213.33346
 582.23;11096.200;  -21.133;    0.000;11117.33353
 582.50;11060.000;  -15.933;    0.000;11075.93333
 582.78;10889.934;  -20.200;    0.000;10910.13359
 583.05;11015.066;  -24.867;    0.000;11039.93307
 583.33;10918.467;  -28.067;    0.000;10946.53346
 583.61;10820.467;   -1.533;    0.000;10822.00013
 583.88;10701.866;  -30.933;    0.000;10732.79954
 584.16;10612.600;   -7.600;    0.000;10620.19961
 584.43;10673.267;  -20.467;    0.000;10693.73327
 584.71;10575.333;  -21.400;    0.000;10596.73301
 584.99;10605.400;  -19.133;    0.000;10624.53372
 585.26;10468.400;   -4.400;    0.000;10472.80039
 585.54;10363.400;  -27.533;    0.000;10390.93372
 585.81;10351.866;  -35.200;    0.000;10387.06621
 586.09;10289.934;  -10.933;    0.000;10300.86693
 586.37;10335.600;  -20.267;    0.000;10355.86628
 586.64;10078.200;  -33.400;    0.000;10111.60020
 586.92;10224.333;  -39.000;    0.000;10263.33301
 587.19;10120.400;   -2.200;    0.000;10122.60039
 587.47; 9929.000;  -15.000;    0.000;9944.00000
 587.74; 9965.866;   -6.267;    0.000;9972.13288
 588.02; 9928.066;  -27.000;    0.000;9955.06641
 588.30; 9990.333;  -15.133;    0.000;10005.46634
 588.57; 9733.134;  -23.133;    0.000;9756.26712
 588.85; 9833.866;  -23.133;    0.000;9856.99954
 589.12; 9721.934;  -28.400;    0.000;9750.33359
 589.40; 9732.400;  -22.933;    0.000;9755.33372
 589.67; 9497.733;  -28.933;    0.000;9526.66673
 589.95; 9606.600;  -11.267;    0.000;9617.86628
 590.22; 9601.200;  -16.867;    0.000;9618.06686
 590.50; 9443.400;  -41.067;    0.000;9484.46706
 590.77; 9441.866;  -11.667;    0.000;9453.53288
 591.05; 9335.267;  -22.600;    0.000;9357.86660
 591.33; 9329.400;  -24.733;    0.000;9354.13372
 591.60; 9183.600;  -38.000;    0.000;9221.59961
 591.88; 9252.200;  -12.333;    0.000;9264.53353
 592.15; 9152.267;  -10.667;    0.000;9162.93327
 592.43; 9025.667;  -27.533;    0.000;9053.20033
 592.70; 8940.800;  -22.200;    0.000;8962.99981
 592.98; 8941.866;  -26.733;    0.000;8968.59954
 593.25; 8932.733;   -4.067;    0.000;8936.80007
 593.53; 8877.733;  -29.200;    0.000;8906.93340
 593.80; 8766.400;  -27.800;    0.000;8794.20039
 594.08; 8731.533;  -18.267;    0.000;8749.79987
 594.35; 8592.200;  -26.933;    0.000;8619.13353
 594.63; 8561.400;  -21.800;    0.000;8583.20039
 594.90; 8562.934;  -39.200;    0.000;8602.13359
 595.18; 8422.533;   -0.467;    0.000;8422.99987
 595.45; 8421.467;  -16.067;    0.000;8437.53346
 595.73; 8362.800;  -38.733;    0.000;8401.53314
 596.00; 8336.733;  -36.067;    0.000;8372.80006
 596.28; 8260.533;  -26.200;    0.000;8286.73320
 596.55; 8270.000;  -23.067;    0.000;8293.06667
 596.83; 8169.000;  -18.533;    0.000;8187.53333
 597.10; 8096.267;  -20.533;    0.000;8116.79993
 597.38; 8005.067;  -13.400;    0.000;8018.46689
 597.65; 7882.467;  -15.400;    0.000;7897.86680
 597.93; 7872.533;  -38.400;    0.000;7910.93320
 598.20; 7808.133;  -42.067;    0.000;7850.19997
 598.48; 7784.200;  -37.533;    0.000;7821.73353
 598.75; 7659.200;  -19.200;    0.000;7678.40020
 599.03; 7644.133;  -47.800;    0.000;7691.93330
 599.30; 7597.000;  -35.600;    0.000;7632.60000
 599.58; 7433.600;  -19.400;    0.000;7453.00010
 599.85; 7557.533;  -10.400;    0.000;7567.93320
 600.12; 7450.667;  -10.200;    0.000;7460.86650
 600.40; 7415.200;  -25.600;    0.000;7440.80020
 600.67; 7284.600;  -21.467;    0.000;7306.06676
 600.95; 7279.733;  -16.800;    0.000;7296.53340
 601.22; 7193.667;  -11.533;    0.000;7205.19984
 601.50; 7187.467;  -33.067;    0.000;7220.53346
 601.77; 7147.200;   -7.400;    0.000;7154.60020
 602.05; 7146.267;  -16.667;    0.000;7162.93327
 602.32; 7050.000;   -4.800;    0.000;7054.80000
 602.59; 6917.533;  -25.000;    0.000;6942.53320
 602.87; 6872.800;  -37.000;    0.000;6909.79980
 603.14; 6877.667;  -32.600;    0.000;6910.26650
 603.42; 6788.667;  -15.667;    0.000;6804.33317
 603.69; 6870.733;  -31.800;    0.000;6902.53340
 603.97; 6730.400;  -20.267;    0.000;6750.66657
 604.24; 6716.867;  -45.600;    0.000;6762.46670
 604.51; 6645.067;   -9.200;    0.000;6654.26689
 604.79; 6641.933;  -18.000;    0.000;6659.93311
 605.06; 6467.067;  -37.067;    0.000;6504.13356
 605.34; 6457.533;   -3.533;    0.000;6461.06654
 605.61; 6423.067;  -43.800;    0.000;6466.86689
 605.89; 6421.867;  -43.267;    0.000;6465.13337
 606.16; 6333.667;  -26.067;    0.000;6359.73317
 606.43; 6354.067;  -14.067;    0.000;6368.13356
 606.71; 6275.467;  -26.133;    0.000;6301.60013
 606.98; 6283.800;  -33.667;    0.000;6317.46647
 607.26; 6155.933;  -29.133;    0.000;6185.06644
 607.53; 6216.533;  -44.000;    0.000;6260.53320
 607.80; 6101.067;  -39.133;    0.000;6140.20023
 608.08; 6085.467;  -30.733;    0.000;6116.20013
 608.35; 6036.933;  -28.667;    0.000;6065.59977
 608.62; 5964.133;  -28.133;    0.000;5992.26663
 608.90; 5909.733;  -30.200;    0.000;5939.93340
 609.17; 5963.200;  -42.867;    0.000;6006.06686
 609.45; 5841.667;  -20.933;    0.000;5862.59984
 609.72; 5836.133;  -29.200;    0.000;5865.33330
 609.99; 5791.133;  -21.133;    0.000;5812.26663
 610.27; 5736.800;  -25.133;    0.000;5761.93314
 610.54; 5725.400;  -42.200;    0.000;5767.59990
 610.81; 5703.067;  -45.600;    0.000;5748.66689
 611.09; 5633.933;   -6.000;    0.000;5639.93311
 611.36; 5621.600;  -45.400;    0.000;5667.00010
 611.64; 5549.667;  -45.800;    0.000;5595.46650
 611.91; 5483.000;  -28.467;    0.000;5511.46667
 612.18; 5476.267;  -30.400;    0.000;5506.66660
 612.46; 5456.000;  -38.000;    0.000;5494.00000
 612.73; 5446.000;  -19.267;    0.000;5465.26667
 613.00; 5393.800;  -37.600;    0.000;5431.39980
 613.28; 5301.867;  -28.000;    0.000;5329.86670
 613.55; 5334.600;  -42.133;    0.000;5376.73343
 613.82; 5193.133;  -22.267;    0.000;5215.39997
 614.10; 5192.267;  -54.133;    0.000;5246.39994
 614.37; 5172.267;  -32.933;    0.000;5205.19994
 614.64; 5146.867;  -35.133;    0.000;5182.00003
 614.92; 4974.400;  -27.600;    0.000;5001.99990
 615.19; 5052.333;  -34.200;    0.000;5086.53350
 615.46; 4914.200;  -24.133;    0.000;4938.33353
 615.74; 4882.467;  -32.600;    0.000;4915.06680
 616.01; 4767.133;  -26.133;    0.000;4793.26663
 616.28; 4751.600;  -24.600;    0.000;4776.20010
 616.56; 4609.533;  -22.067;    0.000;4631.59987
 616.83; 4546.667;  -25.667;    0.000;4572.33317
 617.10; 4494.733;  -15.267;    0.000;4510.00006
 617.37; 4518.133;  -24.000;    0.000;4542.13330
 617.65; 4558.733;  -26.600;    0.000;4585.33340
 617.92; 4580.200;  -14.333;    0.000;4594.53353
 618.19; 4499.333;  -47.533;    0.000;4546.86683
 618.47; 4505.733;  -30.600;    0.000;4536.33340
 618.74; 4428.333;  -33.333;    0.000;4461.66683
 619.01; 4428.400;  -34.267;    0.000;4462.66657
 619.28; 4416.533;  -28.000;    0.000;4444.53320
 619.56; 4402.533;  -39.267;    0.000;4441.79987
 619.83; 4415.467;  -33.467;    0.000;4448.93346
 620.10; 4431.133;  -40.667;    0.000;4471.79997
 620.38; 4309.000;  -37.467;    0.000;4346.46667
 620.65; 4324.067;  -42.467;    0.000;4366.53356
 620.92; 4283.333;  -18.533;    0.000;4301.86683
 621.19; 4312.533;  -34.733;    0.000;4347.26654
 621.47; 4348.667;  -46.600;    0.000;4395.26650
 621.74; 4340.400;  -44.733;    0.000;4385.13324
 622.01; 4277.867;  -32.467;    0.000;4310.33337
 622.28; 4271.467;  -41.133;    0.000;4312.60013
 622.56; 4276.133;  -21.067;    0.000;4297.19997
 622.83; 4294.400;  -40.600;    0.000;4334.99990
 623.10; 4264.200;  -29.200;    0.000;4293.40020
 623.38; 4218.800;  -46.600;    0.000;4265.39980
 623.65; 4264.067;  -22.000;    0.000;4286.06689
 623.92; 4177.800;  -71.733;    0.000;4249.53313
 624.19; 4232.800;  -53.667;    0.000;4286.46647
 624.46; 4153.067;  -30.933;    0.000;4184.00023
 624.74; 4168.000;  -39.400;    0.000;4207.40000
 625.01; 4178.733;  -30.467;    0.000;4209.20007
 625.28; 4124.000;  -38.600;    0.000;4162.60000
 625.55; 4046.000;  -43.800;    0.000;4089.80000
 625.83; 4112.133;  -38.133;    0.000;4150.26664
 626.10; 4074.533;  -44.933;    0.000;4119.46678
 626.37; 4039.667;  -37.000;    0.000;4076.66675
 626.64; 4045.200;  -40.733;    0.000;4085.93328
 626.92; 4007.267;  -19.333;    0.000;4026.59994
 627.19; 3982.533;  -39.933;    0.000;4022.46678
 627.46; 3955.667;  -30.267;    0.000;3985.93341
 627.73; 3896.600;  -37.400;    0.000;3934.00010
 628.00; 3896.800;  -23.867;    0.000;3920.66672
 628.28; 3910.733;  -41.467;    0.000;3952.20007
 628.55; 3880.267;  -33.800;    0.000;3914.06660
 628.82; 3846.333;  -56.933;    0.000;3903.26659
 629.09; 3839.267;  -33.667;    0.000;3872.93327
 629.36; 3826.067;  -42.600;    0.000;3868.66665
 629.64; 3829.267;  -39.400;    0.000;3868.66660
 629.91; 3788.867;  -14.000;    0.000;3802.86670
 630.18; 3785.067;  -30.133;    0.000;3815.19998
 630.45; 3856.800;  -58.533;    0.000;3915.33338
 630.72; 3718.733;  -42.867;    0.000;3761.60006
 631.00; 3710.667;  -45.333;    0.000;3756.00008
 631.27; 3716.667;  -44.867;    0.000;3761.53341
 631.54; 3744.733;  -49.467;    0.000;3794.20007
 631.81; 3652.200;  -28.200;    0.000;3680.39995
 632.08; 3645.133;  -55.400;    0.000;3700.53330
 632.35; 3607.000;  -26.267;    0.000;3633.26667
 632.63; 3594.467;  -56.600;    0.000;3651.06655
 632.90; 3604.733;  -31.067;    0.000;3635.80007
 633.17; 3657.200;  -52.800;    0.000;3709.99995
 633.44; 3585.000;  -31.667;    0.000;3616.66667
 633.71; 3550.333;  -37.933;    0.000;3588.26659
 633.98; 3575.600;  -25.933;    0.000;3601.53343
 634.25; 3527.667;  -30.667;    0.000;3558.33341
 634.53; 3485.667;  -28.267;    0.000;3513.93341
 634.80; 3513.600;  -31.867;    0.000;3545.46676
 635.07; 3525.200;  -63.267;    0.000;3588.46662
 635.34; 3559.067;  -18.400;    0.000;3577.46665
 635.61; 3522.933;  -22.733;    0.000;3545.66668
 635.88; 3556.467;  -37.000;    0.000;3593.46655
 636.15; 3511.933;  -31.000;    0.000;3542.93335
 636.43; 3534.533;  -33.000;    0.000;3567.53345
 636.70; 3594.533;  -31.400;    0.000;3625.93345
 636.97; 3591.400;  -33.333;    0.000;3624.73323
 637.24; 3451.333;  -45.933;    0.000;3497.26659
 637.51; 3429.800;  -29.533;    0.000;3459.33338
 637.78; 3374.333;  -63.800;    0.000;3438.13325
 638.05; 3361.467;  -29.467;    0.000;3390.93322
 638.32; 3387.733;  -26.533;    0.000;3414.26673
 638.60; 3305.000;  -18.800;    0.000;3323.80000
 638.87; 3326.267;  -47.800;    0.000;3374.06660
 639.14; 3302.133;  -56.133;    0.000;3358.26664
 639.41; 3238.000;  -22.400;    0.000;3260.40000
 639.68; 3212.200;  -58.733;    0.000;3270.93328
 639.95; 3124.000;  -46.467;    0.000;3170.46667
 640.22; 3141.400;  -45.933;    0.000;3187.33324
 640.49; 3166.133;  -17.267;    0.000;3183.39997
 640.76; 3156.867;  -59.400;    0.000;3216.26670
 641.03; 3087.400;  -50.067;    0.000;3137.46657
 641.30; 3071.467;  -39.467;    0.000;3110.93322
 641.58; 3049.333;  -34.467;    0.000;3083.79992
 641.85; 2974.133;  -33.467;    0.000;3007.59997
 642.12; 3001.800;  -47.000;    0.000;3048.80005
 642.39; 2941.933;  -27.867;    0.000;2969.80002
 642.66; 2928.733;  -46.533;    0.000;2975.26673
 642.93; 2843.800;  -43.000;    0.000;2886.80005
 643.20; 2822.133;  -50.533;    0.000;2872.66663
 643.47; 2845.333;  -38.667;    0.000;2883.99992
 643.74; 2811.733;  -60.733;    0.000;2872.46673
 644.01; 2836.467;  -44.200;    0.000;2880.66655
 644.28; 2781.400;  -55.000;    0.000;2836.39990
 644.55; 2743.400;  -49.933;    0.000;2793.33324
 644.82; 2735.467;  -24.867;    0.000;2760.33322
 645.09; 2697.933;  -40.667;    0.000;2738.60002
 645.36; 2673.667;  -23.733;    0.000;2697.40008
 645.63; 2735.467;  -47.733;    0.000;2783.19989
 645.91; 2686.267;  -44.467;    0.000;2730.73327
 646.18; 2629.067;  -28.333;    0.000;2657.39998
 646.45; 2713.267;  -38.800;    0.000;2752.06660
 646.72; 2635.067;  -52.000;    0.000;2687.06665
 646.99; 2631.733;  -30.933;    0.000;2662.66673
 647.26; 2578.200;  -56.600;    0.000;2634.79995
 647.53; 2565.933;  -40.533;    0.000;2606.46668
 647.80; 2568.000;  -34.067;    0.000;2602.06667
 648.07; 2490.333;  -49.400;    0.000;2539.73325
 648.34; 2562.667;  -51.533;    0.000;2614.20008
 648.61; 2489.133;  -37.467;    0.000;2526.59997
 648.88; 2465.533;  -57.733;    0.000;2523.26678
 649.15; 2472.733;  -50.800;    0.000;2523.53340
 649.42; 2437.467;  -38.133;    0.000;2475.59989
 649.69; 2455.133;  -27.733;    0.000;2482.86663
 649.96; 2392.267;  -36.600;    0.000;2428.86660
 650.23; 2422.200;  -30.867;    0.000;2453.06662
 650.50; 2411.067;  -38.667;    0.000;2449.73332
 650.77; 2394.733;  -45.067;    0.000;2439.80006
 651.04; 2392.333;  -58.600;    0.000;2450.93325
 651.31; 2347.333;  -45.000;    0.000;2392.33325
 651.58; 2353.533;  -34.200;    0.000;2387.73345
 651.85; 2294.067;  -23.800;    0.000;2317.86665
 652.12; 2323.067;  -34.733;    0.000;2357.79998
 652.39; 2281.933;  -44.000;    0.000;2325.93335
 652.66; 2312.467;  -45.933;    0.000;2358.39989
 652.93; 2240.000;  -50.733;    0.000;2290.73333
 653.20; 2242.333;  -49.133;    0.000;2291.46659
 653.47; 2209.133;  -45.067;    0.000;2254.19997
 653.74; 2193.400;  -42.467;    0.000;2235.86657
 654.01; 2228.800;  -36.933;    0.000;2265.73338
 654.28; 2249.600;  -30.467;    0.000;2280.06676
 654.55; 2160.867;  -61.533;    0.000;2222.40003
 654.81; 2173.267;  -43.533;    0.000;2216.79993
 655.08; 2115.933;  -63.667;    0.000;2179.60002
 655.35; 2145.333;  -69.067;    0.000;2214.39992
 655.62; 2116.933;  -59.467;    0.000;2176.40002
 655.89; 2062.000;  -61.800;    0.000;2123.80000
 656.16; 2041.133;  -51.133;    0.000;2092.26664
 656.43; 2080.000;  -48.400;    0.000;2128.40000
 656.70; 2014.467;  -30.733;    0.000;2045.20001
 656.97; 2033.667;  -44.933;    0.000;2078.59996
 657.24; 2042.400;  -38.067;    0.000;2080.46669
 657.51; 1977.667;  -62.067;    0.000;2039.73329
 657.78; 1973.467;  -29.333;    0.000;2002.80001
 658.05; 1962.333;  -39.333;    0.000;2001.66671
 658.32; 1972.800;  -41.133;    0.000;2013.93338
 658.59; 1923.667;  -47.333;    0.000;1970.99996
 658.86; 1916.133;  -41.067;    0.000;1957.19997
 659.12; 1959.533;  -57.533;    0.000;2017.06666
 659.39; 1931.600;  -38.733;    0.000;1970.33331
 659.66; 1887.333;  -30.000;    0.000;1917.33337
 659.93; 1846.733;  -29.267;    0.000;1875.99994
 660.20; 1839.333;  -29.800;    0.000;1869.13337
 660.47; 1883.867;  -58.533;    0.000;1942.40003
 660.74; 1819.067;  -46.733;    0.000;1865.79998
 661.01; 1835.000;  -39.733;    0.000;1874.73333
 661.28; 1838.000;  -52.467;    0.000;1890.46667
 661.55; 1863.667;   -0.067;    0.000;1863.73329
 661.81; 1800.267;  -57.600;    0.000;1857.86672
 662.08; 1769.933;  -41.000;    0.000;1810.93335
 662.35; 1768.067;  -49.200;    0.000;1817.26665
 662.62; 1761.800;  -55.200;    0.000;1817.00005
 662.89; 1744.733;  -57.267;    0.000;1801.99994
 663.16; 1748.800;  -32.333;    0.000;1781.13338
 663.43; 1721.000;  -51.067;    0.000;1772.06667
 663.70; 1697.133;  -59.467;    0.000;1756.59997
 663.96; 1703.067;  -47.133;    0.000;1750.19999
 664.23; 1655.667;  -52.400;    0.000;1708.06663
 664.50; 1658.400;  -60.267;    0.000;1718.66669
 664.77; 1624.600;  -49.867;    0.000;1674.46664
 665.04; 1639.733;  -41.200;    0.000;1680.93328
 665.31; 1609.667;  -28.867;    0.000;1638.53329
 665.58; 1615.800;  -39.867;    0.000;1655.66671
 665.84; 1620.267;  -35.467;    0.000;1655.73339
 666.11; 1596.867;  -50.400;    0.000;1647.26670
 666.38; 1576.000;  -46.533;    0.000;1622.53333
 666.65; 1579.200;  -56.667;    0.000;1635.86662
 666.92; 1537.533;  -73.133;    0.000;1610.66666
 667.19; 1498.467;  -45.667;    0.000;1544.13334
 667.46; 1538.600;  -37.067;    0.000;1575.66664
 667.72; 1561.467;  -51.200;    0.000;1612.66668
 667.99; 1501.533;  -40.000;    0.000;1541.53333
 668.26; 1533.133;  -45.933;    0.000;1579.06664
 668.53; 1496.600;  -52.933;    0.000;1549.53331
 668.80; 1512.467;  -41.467;    0.000;1553.93334
 669.06; 1431.267;  -51.133;    0.000;1482.40006
 669.33; 1448.733;  -43.333;    0.000;1492.06661
 669.60; 1428.800;  -51.933;    0.000;1480.73338
 669.87; 1398.867;  -58.533;    0.000;1457.40003
 670.14; 1367.067;  -51.467;    0.000;1418.53332
 670.41; 1421.467;  -60.667;    0.000;1482.13334
 670.67; 1392.733;  -30.333;    0.000;1423.06661
 670.94; 1343.733;  -47.200;    0.000;1390.93328
 671.21; 1343.133;  -39.267;    0.000;1382.39997
 671.48; 1343.933;  -57.200;    0.000;1401.13335
 671.75; 1333.733;  -50.400;    0.000;1384.13328
 672.01; 1305.667;  -31.000;    0.000;1336.66663
 672.28; 1335.133;  -52.667;    0.000;1387.79997
 672.55; 1354.067;  -46.000;    0.000;1400.06665
 672.82; 1336.000;  -56.067;    0.000;1392.06667
 673.08; 1287.600;  -61.000;    0.000;1348.59998
 673.35; 1289.667;  -43.467;    0.000;1333.13329
 673.62; 1257.200;  -43.133;    0.000;1300.33329
 673.89; 1247.200;  -54.600;    0.000;1301.79995
 674.16; 1233.400;  -66.733;    0.000;1300.13335
 674.42; 1239.267;  -51.733;    0.000;1291.00006
 674.69; 1227.000;  -62.933;    0.000;1289.93333
 674.96; 1231.200;  -49.867;    0.000;1281.06662
 675.23; 1179.267;  -71.600;    0.000;1250.86672
 675.49; 1178.600;  -41.533;    0.000;1220.13331
 675.76; 1165.800;  -43.800;    0.000;1209.60005
 676.03; 1181.000;  -36.267;    0.000;1217.26667
 676.30; 1187.800;  -60.333;    0.000;1248.13338
 676.56; 1135.467;  -71.933;    0.000;1207.40001
 676.83; 1144.333;  -55.333;    0.000;1199.66671
 677.10; 1130.733;  -62.600;    0.000;1193.33327
 677.37; 1124.333;  -54.733;    0.000;1179.06671
 677.63; 1080.000;  -62.267;    0.000;1142.26667
 677.90; 1123.267;  -49.333;    0.000;1172.60006
 678.17; 1100.800;  -48.533;    0.000;1149.33338
 678.44; 1114.933;  -45.467;    0.000;1160.40002
 678.70; 1051.533;  -33.867;    0.000;1085.39999
 678.97; 1037.733;  -63.800;    0.000;1101.53328
 679.24; 1045.067;  -48.400;    0.000;1093.46665
 679.50; 1028.067;  -54.133;    0.000;1082.19999
 679.77; 1034.000;  -46.667;    0.000;1080.66667
 680.04; 1034.733;  -54.867;    0.000;1089.59994
 680.31; 1016.333;  -67.400;    0.000;1083.73331
 680.57; 1004.800;  -66.733;    0.000;1071.53332
 680.84;  992.867;  -63.933;    0.000;1056.79997
 681.11; 1040.867;  -54.533;    0.000;1095.40003
 681.37;  969.333;  -59.267;    0.000;1028.59998
 681.64;  998.933;  -62.867;    0.000;1061.80001
 681.91;  959.600;  -45.733;    0.000;1005.33331
 682.17;  977.267;  -44.133;    0.000;1021.40000
 682.44;  984.867;  -65.067;    0.000;1049.93330
 682.71;  938.600;  -39.733;    0.000;978.33331
 682.98;  900.000;  -38.400;    0.000;938.40000
 683.24;  939.600;  -65.733;    0.000;1005.33331
 683.51;  921.533;  -65.067;    0.000;986.59999
 683.78;  914.067;  -52.867;    0.000;966.93332
 684.04;  897.267;  -44.333;    0.000;941.59999
 684.31;  894.067;  -51.067;    0.000;945.13332
 684.58;  875.067;  -65.200;    0.000;940.26665
 684.84;  890.333;  -45.400;    0.000;935.73331
 685.11;  851.733;  -53.067;    0.000;904.80000
 685.38;  909.533;  -62.667;    0.000;972.19999
 685.64;  855.867;  -70.600;    0.000;926.46664
 685.91;  873.600;  -53.133;    0.000;926.73331
 686.17;  844.400;  -69.800;    0.000;914.20003
 686.44;  831.533;  -51.533;    0.000;883.06666
 686.71;  839.067;  -61.867;    0.000;900.93332
 686.97;  823.667;  -73.000;    0.000;896.66669
 687.24;  806.133;  -57.067;    0.000;863.20003
 687.51;  835.600;  -52.800;    0.000;888.39997
 687.77;  826.067;  -45.600;    0.000;871.66665
 688.04;  832.133;  -66.333;    0.000;898.46670
 688.31;  800.200;  -58.600;    0.000;858.80001
 688.57;  792.800;  -43.733;    0.000;836.53332
 688.84;  798.467;  -44.667;    0.000;843.13334
 689.10;  795.467;  -48.533;    0.000;844.00001
 689.37;  766.133;  -55.733;    0.000;821.86670
 689.64;  772.133;  -54.067;    0.000;826.20003
 689.90;  731.533;  -66.467;    0.000;797.99999
 690.17;  724.200;  -56.133;    0.000;780.33335
 690.44;  741.133;  -63.933;    0.000;805.06670
 690.70;  742.600;  -76.533;    0.000;819.13331
 690.97;  700.200;  -58.533;    0.000;758.73335
 691.23;  731.200;  -66.400;    0.000;797.60001
 691.50;  676.333;  -52.400;    0.000;728.73331
 691.77;  689.267;  -75.133;    0.000;764.39999
 692.03;  678.733;  -60.600;    0.000;739.33334
 692.30;  684.533;  -46.000;    0.000;730.53333
 692.56;  688.933;  -58.467;    0.000;747.40002
 692.83;  657.467;  -57.867;    0.000;715.33334
 693.10;  686.333;  -50.600;    0.000;736.93331
 693.36;  635.267;  -52.800;    0.000;688.06666
 693.63;  636.533;  -50.733;    0.000;687.26666
 693.89;  614.600;  -52.333;    0.000;666.93331
 694.16;  620.333;  -55.533;    0.000;675.86665
 694.42;  640.533;  -55.467;    0.000;695.99999
 694.69;  642.867;  -30.067;    0.000;672.93331
 694.96;  643.733;  -40.333;    0.000;684.06667
 695.22;  591.600;  -52.533;    0.000;644.13331
 695.49;  650.000;  -28.200;    0.000;678.20000
 695.75;  599.933;  -59.933;    0.000;659.86668
 696.02;  588.933;  -61.200;    0.000;650.13335
 696.28;  608.867;  -50.533;    0.000;659.39997
 696.55;  599.400;  -61.000;    0.000;660.40002
 696.81;  526.267;  -50.933;    0.000;577.20000
 697.08;  545.867;  -71.667;    0.000;617.53330
 697.34;  546.800;  -50.667;    0.000;597.46666
 697.61;  545.267;  -49.400;    0.000;594.66666
 697.88;  520.333;  -49.933;    0.000;570.26665
 698.14;  534.933;  -59.467;    0.000;594.40002
 698.41;  517.267;  -52.000;    0.000;569.26666
 698.67;  533.200;  -59.133;    0.000;592.33335
 698.94;  509.000;  -69.400;    0.000;578.40000
 699.20;  510.533;  -58.600;    0.000;569.13332
 699.47;  486.800;  -69.800;    0.000;556.59999
 699.73;  477.800;  -56.800;    0.000;534.59999
 700.00;  474.667;  -38.200;    0.000;512.86666
 700.26;  496.200;  -59.267;    0.000;555.46668
 700.53;  467.467;  -35.600;    0.000;503.06667
 700.79;  457.600;  -45.600;    0.000;503.20000
 701.06;  437.067;  -60.133;    0.000;497.20002
 701.32;  455.600;  -54.133;    0.000;509.73334
 701.59;  433.133;  -60.800;    0.000;493.93333
 701.85;  432.467;  -52.133;    0.000;484.60001
 702.12;  394.600;  -62.333;    0.000;456.93334
 702.38;  426.467;  -51.333;    0.000;477.80001
 702.65;  413.600;  -43.600;    0.000;457.20000
 702.91;  438.533;  -37.133;    0.000;475.66666
 703.18;  428.733;  -38.600;    0.000;467.33334
 703.44;  385.067;  -65.533;    0.000;450.60001
 703.71;  357.267;  -58.000;    0.000;415.26666
 703.97;  372.867;  -62.133;    0.000;435.00000
 704.24;  369.467;  -57.267;    0.000;426.73334
 704.50;  371.733;  -68.933;    0.000;440.66667
 704.76;  359.000;  -52.200;    0.000;411.20000
 705.03;  357.200;  -69.133;    0.000;426.33334
 705.29;  334.933;  -57.067;    0.000;391.99998
 705.56;  365.533;  -51.133;    0.000;416.66666
 705.82;  342.400;  -69.067;    0.000;411.46666
 706.09;  340.000;  -49.600;    0.000;389.60000
 706.35;  293.667;  -68.267;    0.000;361.93333
 706.62;  332.600;  -52.200;    0.000;384.80001
 706.88;  312.467;  -76.333;    0.000;388.80001
 707.15;  271.800;  -68.133;    0.000;339.93332
 707.41;  272.467;  -73.600;    0.000;346.06667
 707.67;  300.000;  -78.000;    0.000;378.00000
 707.94;  273.933;  -51.933;    0.000;325.86665
 708.20;  295.400;  -61.733;    0.000;357.13333
 708.47;  287.667;  -50.933;    0.000;338.59999
 708.73;  279.333;  -72.667;    0.000;352.00001
 709.00;  264.133;  -44.333;    0.000;308.46666
 709.26;  257.667;  -54.200;    0.000;311.86666
 709.52;  246.867;  -56.067;    0.000;302.93333
 709.79;  248.733;  -62.600;    0.000;311.33334
 710.05;  240.533;  -55.600;    0.000;296.13334
 710.32;  251.333;  -52.800;    0.000;304.13333
 710.58;  238.400;  -71.933;    0.000;310.33333
 710.84;  246.333;  -51.067;    0.000;297.39999
 711.11;  223.200;  -61.467;    0.000;284.66666
 711.37;  251.933;  -62.000;    0.000;313.93333
 711.64;  230.667;  -62.600;    0.000;293.26667
 711.90;  232.200;  -55.333;    0.000;287.53333
 712.16;  225.333;  -57.267;    0.000;282.59999
 712.43;  212.133;  -69.533;    0.000;281.66666
 712.69;  215.800;  -56.467;    0.000;272.26667
 712.96;  196.733;  -77.067;    0.000;273.80000
 713.22;  207.600;  -44.467;    0.000;252.06667
 713.48;  189.067;  -98.333;    0.000;287.40000
 713.75;  222.400;  -45.133;    0.000;267.53333
 714.01;  184.867;  -67.867;    0.000;252.73334
 714.27;  183.667;  -58.400;    0.000;242.06667
 714.54;  196.667;  -54.733;    0.000;251.40001
 714.80;  182.867;  -51.533;    0.000;234.40000
 715.06;  184.333;  -64.067;    0.000;248.39999
 715.33;  165.400;  -62.200;    0.000;227.59999
 715.59;  186.400;  -68.000;    0.000;254.39999
 715.86;  150.867;  -61.800;    0.000;212.66667
 716.12;  193.333;  -75.800;    0.000;269.13333
 716.38;  178.467;  -36.400;    0.000;214.86666
 716.65;  174.933;  -64.400;    0.000;239.33334
 716.91;  156.400;  -73.867;    0.000;230.26666
 717.17;  178.667;  -60.067;    0.000;238.73334
 717.44;  168.200;  -39.533;    0.000;207.73333
 717.70;  146.133;  -58.267;    0.000;204.40000
 717.96;  148.467;  -42.467;    0.000;190.93333
 718.23;  172.067;  -60.667;    0.000;232.73333
 718.49;  165.467;  -71.267;    0.000;236.73333
 718.75;  161.600;  -50.867;    0.000;212.46667
 719.02;  158.133;  -51.333;    0.000;209.46666
 719.28;  158.667;  -74.800;    0.000;233.46667
 719.54;  131.800;  -62.600;    0.000;194.40000
 719.80;  154.133;  -65.667;    0.000;219.80000
 720.07;  148.467;  -39.533;    0.000;187.99999
 720.33;  170.467;  -64.933;    0.000;235.39999
 720.59;  151.600;  -75.400;    0.000;227.00001
 720.86;  169.667;  -81.533;    0.000;251.20000
 721.12;  135.933;  -60.533;    0.000;196.46667
 721.38;  136.933;  -69.667;    0.000;206.60000
 721.65;  146.133;  -68.667;    0.000;214.80000
 721.91;  173.733;  -65.200;    0.000;238.93333
 722.17;  119.933;  -62.000;    0.000;181.93333
 722.43;  158.667;  -66.733;    0.000;225.40000
 722.70;  104.667;  -63.000;    0.000;167.66666
 722.96;  157.333;  -55.133;    0.000;212.46666
 723.22;  104.867;  -64.467;    0.000;169.33334
 723.48;  144.467;  -55.467;    0.000;199.93333
 723.75;  148.200;  -58.667;    0.000;206.86666
 724.01;  139.133;  -63.933;    0.000;203.06667
 724.27;  115.200;  -68.733;    0.000;183.93333
 724.54;  153.333;  -61.467;    0.000;214.80000
 724.80;  144.333;  -74.000;    0.000;218.33333
 725.06;  131.267;  -69.133;    0.000;200.39999
 725.32;  135.133;  -56.800;    0.000;191.93333
 725.59;  158.200;  -58.867;    0.000;217.06666
 725.85;  129.533;  -76.600;    0.000;206.13334
 726.11;  139.800;  -58.733;    0.000;198.53334
 726.37;  135.600;  -54.933;    0.000;190.53334
 726.64;  138.333;  -50.800;    0.000;189.13333
 726.90;  122.800;  -48.267;    0.000;171.06667
 727.16;  120.867;  -66.933;    0.000;187.80000
 727.42;  139.800;  -63.400;    0.000;203.20000
 727.68;  131.200;  -52.267;    0.000;183.46666
 727.95;  108.333;  -70.600;    0.000;178.93333
 728.21;  159.533;  -58.733;    0.000;218.26667
 728.47;  125.467;  -52.867;    0.000;178.33333
 728.73;  160.000;  -45.667;    0.000;205.66667
 729.00;  143.267;  -48.000;    0.000;191.26666
 729.26;  115.467;  -47.000;    0.000;162.46667
 729.52;   94.600;  -61.800;    0.000;156.40000
 729.78;  132.867;  -66.000;    0.000;198.86667
 730.04;  118.067;  -73.400;    0.000;191.46667
 730.31;  132.400;  -62.667;    0.000;195.06666
 730.57;  123.867;  -63.800;    0.000;187.66667
 730.83;  136.933;  -72.267;    0.000;209.20000
 731.09;  130.067;  -34.533;    0.000;164.60000
 731.35;  128.600;  -50.733;    0.000;179.33334
 731.62;  121.733;  -61.733;    0.000;183.46666
 731.88;  123.933;  -54.200;    0.000;178.13334
 732.14;  113.133;  -55.000;    0.000;168.13333
 732.40;  109.267;  -51.933;    0.000;161.20000
 732.66;  108.200;  -62.333;    0.000;170.53333
 732.92;  119.467;  -56.267;    0.000;175.73333
 733.19;  105.600;  -43.933;    0.000;149.53333
 733.45;  121.400;  -52.267;    0.000;173.66667
 733.71;  106.667;  -78.200;    0.000;184.86666
 733.97;  135.400;  -32.000;    0.000;167.39999
 734.23;   93.467;  -46.867;    0.000;140.33333
 734.49;  114.533;  -69.200;    0.000;183.73333
 734.76;  108.133;  -53.533;    0.000;161.66666
 735.02;  119.667;  -80.800;    0.000;200.46667
 735.28;   94.867;  -67.200;    0.000;162.06667
 735.54;  126.200;  -71.600;    0.000;197.80000
 735.80;   85.533;  -72.267;    0.000;157.80000
 736.06;  126.133;  -51.533;    0.000;177.66666
 736.32;   99.533;  -58.333;    0.000;157.86666
 736.59;   97.333;  -74.867;    0.000;172.20000
 736.85;  100.600;  -48.933;    0.000;149.53333
 737.11;   93.867;  -72.267;    0.000;166.13334
 737.37;   82.400;  -73.467;    0.000;155.86667
 737.63;   81.800;  -58.467;    0.000;140.26667
 737.89;   77.200;  -62.533;    0.000;139.73333
 738.15;  104.267;  -56.600;    0.000;160.86667
 738.41;   97.867;  -57.867;    0.000;155.73333
 738.67;   95.467;  -64.067;    0.000;159.53333
 738.94;   68.067;  -58.267;    0.000;126.33333
 739.20;   88.467;  -71.933;    0.000;160.40000
 739.46;   93.867;  -68.333;    0.000;162.20000
 739.72;   91.333;  -84.333;    0.000;175.66667
 739.98;   82.733;  -77.133;    0.000;159.86666
 740.24;   78.333;  -61.000;    0.000;139.33334
 740.50;   87.800;  -63.800;    0.000;151.60000
 740.76;   98.933;  -71.667;    0.000;170.60000
 741.02;   53.533;  -59.200;    0.000;112.73333
 741.28;   74.533;  -63.133;    0.000;137.66667
 741.54;   77.733;  -53.867;    0.000;131.59999
 741.81;   73.867;  -71.133;    0.000;145.00000
 742.07;   74.000;  -70.733;    0.000;144.73333
 742.33;   79.067;  -75.000;    0.000;154.06667
 742.59;   64.333;  -63.933;    0.000;128.26667
 742.85;  100.000;  -68.200;    0.000;168.20000
 743.11;   65.067;  -67.533;    0.000;132.60000
 743.37;   68.067;  -87.267;    0.000;155.33334
 743.63;   51.600;  -65.467;    0.000;117.06667
 743.89;   59.400;  -67.800;    0.000;127.20000
 744.15;   45.533;  -55.267;    0.000;100.80000
 744.41;   40.600;  -55.133;    0.000;95.73333
 744.67;   53.133;  -74.333;    0.000;127.46667
 744.93;   71.600;  -56.200;    0.000;127.80000
 745.19;   51.600;  -69.600;    0.000;121.20000
 745.45;   75.600;  -55.933;    0.000;131.53333
 745.71;   44.933;  -63.867;    0.000;108.80000
 745.97;   63.867;  -62.933;    0.000;126.80000
 746.23;   58.200;  -90.800;    0.000;149.00000
 746.49;   52.667;  -70.533;    0.000;123.20000
 746.75;   58.800;  -67.267;    0.000;126.06667
 747.02;   47.600;  -64.267;    0.000;111.86667
 747.28;   48.933;  -70.867;    0.000;119.80000
 747.54;   48.400;  -71.667;    0.000;120.06667
 747.80;   55.600;  -76.000;    0.000;131.60000
 748.06;   34.333;  -62.200;    0.000;96.53333
 748.32;   26.067;  -63.333;    0.000;89.40000
 748.58;   44.867;  -67.067;    0.000;111.93333
 748.84;   39.333;  -49.733;    0.000;89.06667
 749.10;  119.533;    3.733;    0.000;115.80000
 749.36;   18.400;  -71.533;    0.000;89.93333
 749.62;   32.000;  -82.533;    0.000;114.53333
 749.88;   45.600;  -67.600;    0.000;113.20000
 750.14;   28.533;  -60.867;    0.000;89.40000
 750.40;   30.667;  -78.000;    0.000;108.66667
 750.66;   50.533;  -45.200;    0.000;95.73333
 750.91;   45.000;  -73.533;    0.000;118.53333
 751.17;   51.600;  -60.133;    0.000;111.73333
 751.43;   13.467;  -50.733;    0.000;64.20000
 751.69;   33.667;  -46.267;    0.000;79.93333
 751.95;   10.067;  -52.600;    0.000;62.66667
 752.21;   33.533;  -64.933;    0.000;98.46667
 752.47;   30.533;  -64.600;    0.000;95.13333
 752.73;   31.333;  -78.933;    0.000;110.26667
 752.99;   19.067;  -75.400;    0.000;94.46667
 753.25;   25.667;  -76.133;    0.000;101.80000
 753.51;   32.533;  -60.800;    0.000;93.33333
 753.77;   24.267;  -53.467;    0.000;77.73333
 754.03;   20.200;  -61.133;    0.000;81.33334
 754.29;   10.800;  -78.400;    0.000;89.20000
 754.55;   -1.933;  -57.533;    0.000;55.60000
 754.81;   16.733;  -75.467;    0.000;92.20000
 755.07;   -7.800;  -66.200;    0.000;58.40000
 755.33;   12.333;  -76.800;    0.000;89.13334
 755.59;    1.800;  -84.133;    0.000;85.93333
 755.85;   10.200;  -83.333;    0.000;93.53334
 756.10;   -4.800;  -64.267;    0.000;59.46667
 756.36;   14.200;  -55.600;    0.000;69.80000
 756.62;   -3.133;  -67.600;    0.000;64.46667
 756.88;   18.600;  -56.133;    0.000;74.73334
 757.14;   13.467;  -35.000;    0.000;48.46667
 757.40;   17.800;  -66.333;    0.000;84.13334
 757.66;    3.533;  -62.333;    0.000;65.86667
 757.92;    6.533;  -67.400;    0.000;73.93333
 758.18;   -7.133;  -57.267;    0.000;50.13333
 758.44;   10.933;  -64.867;    0.000;75.80000
 758.70;    3.667;  -59.533;    0.000;63.20000
 758.95;    6.800;  -56.467;    0.000;63.26667
 759.21;    4.133;  -73.733;    0.000;77.86666
 759.47;   -3.000;  -64.867;    0.000;61.86667
 759.73;   -4.800;  -73.533;    0.000;68.73333
 759.99;    4.733;  -74.400;    0.000;79.13333
 760.25;    2.600;  -86.333;    0.000;88.93334
 760.51;  -23.800;  -91.667;    0.000;67.86666
 760.77;    5.000;  -57.800;    0.000;62.80000
 761.02;   -8.600;  -56.600;    0.000;48.00000
 761.28;  -11.200;  -68.800;    0.000;57.60000
 761.54;    7.133;  -63.800;    0.000;70.93333
 761.80;   -7.133;  -66.267;    0.000;59.13334
 762.06;   16.733;  -84.133;    0.000;100.86666
 762.32;   -0.667;  -74.400;    0.000;73.73333
 762.58;    8.933;  -52.400;    0.000;61.33333
 762.83;  -11.133;  -50.733;    0.000;39.60000
 763.09;   -5.267;  -72.733;    0.000;67.46666
 763.35;  -16.933;  -61.933;    0.000;45.00000
 763.61;    5.933;  -61.333;    0.000;67.26667
 763.87;   -4.400;  -46.667;    0.000;42.26667
 764.13;   -6.400;  -50.267;    0.000;43.86667
 764.38;  -11.000;  -73.067;    0.000;62.06667
 764.64;   -1.333;  -84.267;    0.000;82.93334
 764.90;  -17.333;  -69.667;    0.000;52.33333
 765.16;    1.267;  -69.200;    0.000;70.46666
 765.42;   -0.400;  -53.200;    0.000;52.80000
 765.68;  -11.200;  -54.133;    0.000;42.93334
 765.93;   -8.667;  -63.600;    0.000;54.93333
 766.19;   13.333;  -55.600;    0.000;68.93333
 766.45;  -22.533;  -81.800;    0.000;59.26667
 766.71;  -10.333;  -64.800;    0.000;54.46667
 766.97;  -25.933;  -65.533;    0.000;39.60000
 767.22;   -7.933;  -78.800;    0.000;70.86667
 767.48;  -18.133;  -64.200;    0.000;46.06666
 767.74;   -7.333;  -72.533;    0.000;65.20000
 768.00;  -27.933;  -72.867;    0.000;44.93334
 768.26;  -21.333;  -74.133;    0.000;52.80000
 768.51;  -14.933;  -70.067;    0.000;55.13333
 768.77;   -3.867;  -54.600;    0.000;50.73333
 769.03;  -20.933;  -80.867;    0.000;59.93334
 769.29;  -11.000;  -70.600;    0.000;59.60000
 769.54;  -18.467;  -67.400;    0.000;48.93333
 769.80;  -18.333;  -89.267;    0.000;70.93334
 770.06;  -29.067;  -68.533;    0.000;39.46667
 770.32;  -17.933;  -63.333;    0.000;45.40000
 770.57;  -37.333;  -69.533;    0.000;32.20000
 770.83;  -13.933;  -55.733;    0.000;41.80000
 771.09;  -37.200;  -88.800;    0.000;51.60000
 771.35;   -8.867;  -69.267;    0.000;60.40000
 771.61;  -42.200;  -78.133;    0.000;35.93333
 771.86;  -22.067;  -76.667;    0.000;54.60000
 772.12;  -26.533;  -61.667;    0.000;35.13334
 772.38;  -20.800;  -62.400;    0.000;41.60000
 772.63;  -18.333;  -74.733;    0.000;56.40000
 772.89;  -15.067;  -71.667;    0.000;56.60000
 773.15;  -10.733;  -76.200;    0.000;65.46666
 773.41;  -29.867;  -74.067;    0.000;44.20000
 773.66;  -41.067;  -76.733;    0.000;35.66666
 773.92;  -23.800;  -64.733;    0.000;40.93333
 774.18;  -25.067;  -54.467;    0.000;29.40000
 774.44;  -33.867;  -72.933;    0.000;39.06667
 774.69;  -28.667;  -64.733;    0.000;36.06666
 774.95;  -32.800;  -55.333;    0.000;22.53333
 775.21;  -21.800;  -55.733;    0.000;33.93333
 775.46;  -26.267;  -87.733;    0.000;61.46666
 775.72;  -33.400;  -54.067;    0.000;20.66666
 775.98;  -45.133;  -51.400;    0.000; 6.26667
 776.24;  -50.867;  -65.067;    0.000;14.20000
 776.49;  -15.600;  -72.400;    0.000;56.80000
 776.75;  -25.800;  -58.533;    0.000;32.73333
 777.01;  -24.667;  -50.800;    0.000;26.13333
 777.26;  -16.400;  -49.200;    0.000;32.80000
 777.52;  -19.867;  -71.200;    0.000;51.33333
 777.78;  -23.800;  -56.933;    0.000;33.13334
 778.03;  -25.733;  -78.000;    0.000;52.26667
 778.29;  -36.933;  -68.867;    0.000;31.93333
 778.55;  -21.667;  -56.933;    0.000;35.26667
 778.80;  -41.400;  -78.867;    0.000;37.46667
 779.06;  -23.067;  -65.333;    0.000;42.26667
 779.32;  -33.333;  -67.867;    0.000;34.53334
 779.57;  -26.733;  -77.333;    0.000;50.60000
 779.83;  -28.133;  -80.000;    0.000;51.86667
 780.09;  -18.467;  -73.800;    0.000;55.33334
 780.34;  -25.933;  -60.000;    0.000;34.06667
 780.60;  -15.267;  -70.867;    0.000;55.60000
 780.86;  -43.133;  -66.400;    0.000;23.26667
 781.11;  -14.733;  -47.933;    0.000;33.20000
 781.37;  -40.200;  -56.600;    0.000;16.40000
 781.63;  -21.400;  -55.400;    0.000;34.00000
 781.88;  -34.200;  -67.467;    0.000;33.26667
 782.14;  -47.467;  -81.667;    0.000;34.20000
 782.39;  -38.133;  -97.533;    0.000;59.40000
 782.65;  -39.200;  -84.933;    0.000;45.73333
 782.91;  -19.867;  -64.533;    0.000;44.66667
 783.16;  -53.200;  -70.133;    0.000;16.93333
 783.42;  -33.267;  -82.267;    0.000;49.00000
 783.67;  -29.800;  -58.267;    0.000;28.46667
 783.93;  -38.267;  -68.467;    0.000;30.20000
 784.19;  -34.600;  -72.533;    0.000;37.93333
 784.44;  -34.067;  -55.800;    0.000;21.73333
 784.70;  -32.200;  -71.667;    0.000;39.46666
 784.96;  -46.600;  -92.400;    0.000;45.80000
 785.21;  -24.600;  -50.867;    0.000;26.26666
 785.47;  -28.533;  -63.467;    0.000;34.93333
 785.72;  -40.800;  -75.133;    0.000;34.33333
 785.98;  -66.400;  -75.867;    0.000; 9.46667
 786.23;  -55.200;  -71.000;    0.000;15.80000
 786.49;  -59.200;  -61.667;    0.000; 2.46667
 786.75;  -42.867;  -83.933;    0.000;41.06667
 787.00;  -60.667;  -73.867;    0.000;13.20000
 787.26;  -35.933;  -80.467;    0.000;44.53333
 787.51;  -35.600;  -61.000;    0.000;25.40000
 787.77;  -45.600;  -71.200;    0.000;25.60000
 788.02;  -20.200;  -43.200;    0.000;23.00000
 788.28;  -15.333;  -80.400;    0.000;65.06667
 788.54;  -44.400;  -79.933;    0.000;35.53333
 788.79;  -35.400;  -71.133;    0.000;35.73333
 789.05;  -38.600;  -87.200;    0.000;48.60000
 789.30;  -43.867;  -58.933;    0.000;15.06667
 789.56;  -53.600;  -73.400;    0.000;19.80000
 789.81;  -27.933;  -77.200;    0.000;49.26666
 790.07;  -34.667;  -52.467;    0.000;17.80000
 790.32;  -32.133;  -73.333;    0.000;41.20000
 790.58;  -50.400;  -53.333;    0.000; 2.93333
 790.83;  -34.067;  -69.200;    0.000;35.13333
 791.09;  -48.067;  -88.200;    0.000;40.13333
 791.35;  -49.067;  -88.200;    0.000;39.13333
 791.60;  -67.133;  -64.733;    0.000;-2.40000
 791.86;  -38.733;  -77.267;    0.000;38.53334
 792.11;  -54.667;  -67.600;    0.000;12.93333
 792.37;  -32.533;  -76.200;    0.000;43.66666
 792.62;  -40.600;  -64.967;    0.000;24.36667
 792.88;  -48.667;  -53.733;    0.000; 5.06667
 793.13;  -48.867;  -74.533;    0.000;25.66667
 793.39;  -48.600;  -79.600;    0.000;31.00000
 793.64;  -54.800;  -87.000;    0.000;32.20000
 793.90;  -31.000;  -65.000;    0.000;34.00000
 794.15;  -39.600;  -54.733;    0.000;15.13334
 794.41;  -47.667;  -71.533;    0.000;23.86666
 794.66;  -49.400;  -62.400;    0.000;13.00000
 794.92;  -69.400;  -69.800;    0.000; 0.40000
 795.17;  -59.533;  -68.267;    0.000; 8.73334
 795.43;  -40.467;  -65.600;    0.000;25.13333
 795.68;  -42.933;  -67.933;    0.000;25.00000
 795.94;  -30.200;  -73.000;    0.000;42.80000
 796.19;  -53.933;  -84.000;    0.000;30.06667
 796.44;  -36.400;  -85.133;    0.000;48.73333
 796.70;  -42.467;  -50.467;    0.000; 8.00000
 796.95;  -31.000;  -77.667;    0.000;46.66666
 797.21;  -34.267;  -80.200;    0.000;45.93333
 797.46;  -58.200;  -82.800;    0.000;24.60000
 797.72;  -69.733;  -71.000;    0.000; 1.26667
 797.97;  -33.600;  -72.800;    0.000;39.20000
 798.23;  -49.000;  -77.200;    0.000;28.20000
 798.48;  -31.400;  -67.333;    0.000;35.93334
 798.74;  -43.400;  -72.333;    0.000;28.93333
 798.99;  -52.000;  -85.267;    0.000;33.26667
 799.24;  -53.333;  -71.133;    0.000;17.80000
 799.50;  -27.000;  -75.667;    0.000;48.66666
 799.75;  -67.267;  -71.533;    0.000; 4.26666
 800.01;  -44.133;  -69.733;    0.000;25.59999
 800.26;  -53.867;  -70.600;    0.000;16.73333
 800.52;  -40.800;  -66.400;    0.000;25.60000
 800.77;  -60.400;  -65.267;    0.000; 4.86667
 801.02;  -60.333;  -68.667;    0.000; 8.33333
 801.28;  -64.067;  -45.067;    0.000;-19.00000
 801.53;  -43.133;  -75.133;    0.000;32.00000
 801.79;  -44.133;  -61.067;    0.000;16.93333
 802.04;  -52.467;  -77.200;    0.000;24.73333
 802.29;  -51.067;  -70.933;    0.000;19.86667
 802.55;  -59.000;  -73.933;    0.000;14.93333
 802.80;  -52.133;  -50.533;    0.000;-1.60000
 803.06;  -48.200;  -67.933;    0.000;19.73333
 803.31;  -68.733;  -67.467;    0.000;-1.26666
 803.56;  -43.133;  -80.333;    0.000;37.20000
 803.82;  -59.200;  -73.600;    0.000;14.40000
 804.07;  -45.467;  -77.000;    0.000;31.53333
 804.32;  -43.667;  -75.267;    0.000;31.60000
 804.58;  -63.467;  -83.800;    0.000;20.33334
 804.83;  -59.400;  -62.333;    0.000; 2.93333
 805.09;  -38.067;  -78.800;    0.000;40.73334
 805.34;  -41.667;  -49.333;    0.000; 7.66666
 805.59;  -29.667;  -64.333;    0.000;34.66667
 805.85;  -38.733;  -70.800;    0.000;32.06667
 806.10;  -46.667;  -62.200;    0.000;15.53333
 806.35;  -38.800;  -69.400;    0.000;30.60000
 806.61;  -40.933;  -87.667;    0.000;46.73333
 806.86;  -83.800;  -74.667;    0.000;-9.13334
 807.11;  -56.000;  -63.067;    0.000; 7.06667
 807.37;  -57.533;  -52.400;    0.000;-5.13333
 807.62;  -58.067;  -80.933;    0.000;22.86667
 807.87;  -61.667;  -61.000;    0.000;-0.66667
 808.13;  -59.467;  -74.733;    0.000;15.26666
 808.38;  -74.067;  -75.867;    0.000; 1.80000
 808.63;  -68.000;  -89.933;    0.000;21.93333
 808.89;  -69.200;  -59.533;    0.000;-9.66666
 809.14;  -43.333;  -82.467;    0.000;39.13334
 809.39;  -67.667;  -72.867;    0.000; 5.20000
 809.65;  -64.800;  -86.200;    0.000;21.39999
 809.90;  -60.267;  -76.533;    0.000;16.26667
 810.15;  -43.800;  -61.133;    0.000;17.33334
 810.41;  -54.333;  -57.600;    0.000; 3.26667
 810.66;  -53.400;  -74.067;    0.000;20.66666
 810.91;  -68.467;  -78.600;    0.000;10.13333
 811.16;  -53.400;  -80.400;    0.000;27.00000
 811.42;  -44.000;  -81.600;    0.000;37.60000
 811.67;  -45.733;  -55.533;    0.000; 9.80000
 811.92;  -87.933;  -76.800;    0.000;-11.13333
 812.18;  -48.800;  -69.267;    0.000;20.46667
 812.43;  -85.933;  -79.267;    0.000;-6.66666
 812.68;  -51.800;  -84.600;    0.000;32.80000
 812.93;  -73.533;  -57.667;    0.000;-15.86666
 813.19;  -46.867;  -86.267;    0.000;39.40001
 813.44;  -68.867;  -72.067;    0.000; 3.20000
 813.69;  -39.333;  -64.467;    0.000;25.13334
 813.95;  -58.533;  -67.867;    0.000; 9.33334
 814.20;  -61.200;  -75.467;    0.000;14.26667
 814.45;  -67.333;  -81.467;    0.000;14.13333
 814.70;  -51.333;  -67.133;    0.000;15.80000
 814.96;  -52.200;  -72.800;    0.000;20.60000
 815.21;  -56.733;  -78.000;    0.000;21.26667
 815.46;  -79.467;  -64.333;    0.000;-15.13333
 815.71;  -63.800;  -70.533;    0.000; 6.73333
 815.96;  -48.200;  -81.133;    0.000;32.93333
 816.22;  -59.200;  -82.733;    0.000;23.53333
 816.47;  -51.333;  -61.333;    0.000;10.00000
 816.72;  -61.933;  -86.667;    0.000;24.73333
 816.97;  -45.533;  -89.933;    0.000;44.40000
 817.23;  -53.600;  -56.400;    0.000; 2.80000
 817.48;  -57.600;  -52.267;    0.000;-5.33333
 817.73;  -57.667;  -82.467;    0.000;24.80000
 817.98;  -40.733;  -79.867;    0.000;39.13334
 818.23;  -72.600;  -71.667;    0.000;-0.93333
 818.49;  -44.867;  -68.267;    0.000;23.40001
 818.74;  -35.667;  -56.600;    0.000;20.93333
 818.99;  -65.333;  -75.333;    0.000;10.00000
 819.24;  -35.733;  -65.333;    0.000;29.60000
 819.50;  -63.667;  -86.400;    0.000;22.73333
 819.75;  -48.267;  -73.000;    0.000;24.73333
 820.00;  -41.867;  -60.600;    0.000;18.73333
 820.25;  -58.067;  -77.267;    0.000;19.20000
 820.50;  -64.333;  -75.867;    0.000;11.53333
 820.75;  -43.333;  -76.000;    0.000;32.66667
 821.01;  -73.333;  -66.933;    0.000;-6.40000
 821.26;  -52.067;  -67.867;    0.000;15.80000
 821.51;  -56.667;  -73.267;    0.000;16.60000
 821.76;  -45.267;  -83.733;    0.000;38.46666
 822.01;  -49.800;  -64.933;    0.000;15.13334
 822.26;  -60.467;  -61.933;    0.000; 1.46667
 822.52;  -65.533;  -86.400;    0.000;20.86667
 822.77;  -48.200;  -89.867;    0.000;41.66667
 823.02;  -60.333;  -54.800;    0.000;-5.53333
 823.27;  -47.667;  -79.733;    0.000;32.06666
 823.52;  -59.933;  -77.867;    0.000;17.93333
 823.77;  -70.533;  -91.267;    0.000;20.73334
 824.03;  -46.400;  -73.400;    0.000;27.00000
 824.28;  -64.200;  -67.400;    0.000; 3.20000
 824.53;  -49.933;  -49.000;    0.000;-0.93333
 824.78;  -34.267;  -65.600;    0.000;31.33333
 825.03;  -81.733;  -75.133;    0.000;-6.60000
 825.28;  -68.600;  -62.867;    0.000;-5.73333
 825.53;  -82.533;  -70.600;    0.000;-11.93333
 825.78;  -73.133;  -58.733;    0.000;-14.40000
 826.04;  -59.667;  -76.867;    0.000;17.20000
 826.29;  -37.533;  -65.400;    0.000;27.86667
 826.54;  -68.600;  -75.267;    0.000; 6.66667
 826.79;  -67.933;  -74.800;    0.000; 6.86667
 827.04;  -58.267;  -78.333;    0.000;20.06667
 827.29;  -63.333;  -78.533;    0.000;15.20000
 827.54;  -60.667;  -55.733;    0.000;-4.93333
 827.79;  -67.733;  -70.267;    0.000; 2.53334
 828.04;  -54.000;  -61.200;    0.000; 7.20000
 828.29;  -76.067;  -78.400;    0.000; 2.33334
 828.55;  -59.333;  -82.733;    0.000;23.40000
 828.80;  -57.800;  -74.933;    0.000;17.13334
 829.05;  -48.667;  -80.667;    0.000;32.00000
 829.30;  -63.067;  -86.467;    0.000;23.40000
 829.55;  -64.067;  -78.200;    0.000;14.13333
 829.80;  -65.400;  -65.667;    0.000; 0.26666
 830.05;  -72.600;  -67.200;    0.000;-5.40000
 830.30;  -61.133;  -87.000;    0.000;25.86666
 830.55;  -72.200;  -69.200;    0.000;-3.00000
 830.80;  -67.933;  -71.600;    0.000; 3.66666
 831.05;  -79.333;  -64.467;    0.000;-14.86667
 831.30;  -53.600;  -76.267;    0.000;22.66667
 831.55;  -57.200;  -54.400;    0.000;-2.80000
 831.80;  -77.733;  -81.333;    0.000; 3.60001
 832.05;  -55.333;  -61.867;    0.000; 6.53333
 832.30;  -59.000;  -66.067;    0.000; 7.06667
 832.56;  -70.333;  -85.333;    0.000;15.00000
 832.81;  -52.267;  -74.067;    0.000;21.80000
 833.06;  -63.133;  -44.800;    0.000;-18.33334
 833.31;  -62.733;  -96.867;    0.000;34.13334
 833.56;  -60.267;  -66.133;    0.000; 5.86666
 833.81;  -71.600;  -64.267;    0.000;-7.33333
 834.06;  -59.200;  -66.333;    0.000; 7.13334
 834.31;  -77.333;  -78.667;    0.000; 1.33333
 834.56;  -54.867;  -70.933;    0.000;16.06667
 834.81;  -83.267;  -93.733;    0.000;10.46666
 835.06;  -67.333;  -86.200;    0.000;18.86666
 835.31;  -54.533;  -81.000;    0.000;26.46667
 835.56;  -61.400;  -32.200;    0.000;-29.20000
 835.81;  -74.200;  -81.067;    0.000; 6.86667
 836.06;  -58.267;  -61.667;    0.000; 3.40000
 836.31;  -62.467;  -86.133;    0.000;23.66666
 836.56;  -63.933;  -76.400;    0.000;12.46667
 836.81;  -63.733;  -73.467;    0.000; 9.73333
 837.06;  -54.333;  -82.400;    0.000;28.06667
 837.31;  -67.800;  -80.067;    0.000;12.26666
 837.56;  -91.600;  -78.000;    0.000;-13.60000
 837.81;  -89.333;  -66.867;    0.000;-22.46667
 838.06;  -68.733;  -72.000;    0.000; 3.26667
 838.31;  -66.600;  -68.200;    0.000; 1.60000
 838.56;  -79.333;  -88.067;    0.000; 8.73333
 838.80;  -81.533;  -80.333;    0.000;-1.20000
 839.05;  -70.400;  -62.067;    0.000;-8.33334
 839.30;  -55.600;  -89.200;    0.000;33.60000
 839.55;  -71.933;  -60.533;    0.000;-11.40000
 839.80;  -51.400;  -78.000;    0.000;26.60000
 840.05;  -91.933;  -86.533;    0.000;-5.40000
 840.30;  -61.467;  -73.133;    0.000;11.66666
 840.55;  -71.733;  -67.000;    0.000;-4.73333
 840.80;  -61.067;  -45.533;    0.000;-15.53333
 841.05;  -57.600;  -75.400;    0.000;17.80000
 841.30;  -60.133;  -69.133;    0.000; 9.00000
 841.55;  -60.533;  -81.333;    0.000;20.80000
 841.80;  -69.667;  -89.267;    0.000;19.60001
 842.05;  -64.667;  -80.800;    0.000;16.13334
 842.30;  -44.733;  -66.733;    0.000;22.00000
 842.55;  -49.467;  -70.000;    0.000;20.53333
 842.79;  -58.467;  -61.000;    0.000; 2.53333
 843.04;  -55.333;  -67.333;    0.000;12.00000
 843.29;  -53.867;  -59.933;    0.000; 6.06667
 843.54;  -55.067;  -69.533;    0.000;14.46667
 843.79;  -60.933;  -82.467;    0.000;21.53333
 844.04;  -56.400;  -56.000;    0.000;-0.40000
 844.29;  -73.533;  -91.133;    0.000;17.60000
 844.54;  -65.533;  -66.267;    0.000; 0.73334
 844.79;  -63.533;  -72.333;    0.000; 8.80000
 845.04;  -64.267;  -64.867;    0.000; 0.60000
 845.28;  -81.733;  -89.533;    0.000; 7.80000
 845.53;  -53.267;  -64.800;    0.000;11.53334
 845.78;  -44.800;  -78.467;    0.000;33.66667
 846.03;  -66.600;  -77.000;    0.000;10.40000
 846.28;  -53.467;  -70.200;    0.000;16.73333
 846.53;  -53.333;  -51.733;    0.000;-1.60000
 846.78;  -55.800;  -57.600;    0.000; 1.80000
 847.02;  -57.733;  -49.267;    0.000;-8.46667
 847.27;  -61.467;  -66.133;    0.000; 4.66666
 847.52;  -63.333;  -67.800;    0.000; 4.46667
 847.77;  -65.733;  -72.600;    0.000; 6.86667
 848.02;  -94.733;  -67.667;    0.000;-27.06667
 848.27;  -66.267;  -81.000;    0.000;14.73333
 848.52;  -76.867;  -65.267;    0.000;-11.60000
 848.76;  -52.867;  -79.133;    0.000;26.26667
 849.01;  -78.467;  -71.333;    0.000;-7.13333
 849.26;  -85.533;  -74.333;    0.000;-11.20000
 849.51;  -62.400;  -71.400;    0.000; 9.00000
 849.76;  -67.867;  -92.000;    0.000;24.13333
 850.01;  -61.400;  -82.467;    0.000;21.06667
 850.25;  -71.600;  -74.067;    0.000; 2.46667
 850.50;  -69.400;  -66.533;    0.000;-2.86667
 850.75;  -56.533;  -55.800;    0.000;-0.73333
 851.00;  -78.933;  -73.667;    0.000;-5.26667
 851.25;  -59.800;  -69.467;    0.000; 9.66667
 851.49;  -78.467;  -99.467;    0.000;21.00000
 851.74;  -73.200;  -79.533;    0.000; 6.33334
 851.99;  -72.800;  -73.267;    0.000; 0.46667
 852.24;  -71.133;  -62.067;    0.000;-9.06667
 852.49;  -71.733;  -74.800;    0.000; 3.06667
 852.73;  -69.667;  -76.667;    0.000; 7.00000
 852.98;  -50.733;  -74.733;    0.000;24.00000
 853.23;  -50.600;  -57.467;    0.000; 6.86667
 853.48;  -81.800;  -94.200;    0.000;12.39999
 853.73;  -72.067;  -64.400;    0.000;-7.66666
 853.97;  -93.667;  -65.867;    0.000;-27.80000
 854.22;  -69.667;  -72.667;    0.000; 3.00000
 854.47;  -62.333;  -81.400;    0.000;19.06667
 854.72;  -59.533;  -60.267;    0.000; 0.73333
 854.96;  -77.000;  -71.600;    0.000;-5.40000
 855.21;  -64.133;  -76.533;    0.000;12.40000
 855.46;  -70.000;  -61.333;    0.000;-8.66667
 855.71;  -75.933;  -89.467;    0.000;13.53333
 855.95;  -76.867;  -64.400;    0.000;-12.46667
 856.20;  -72.800;  -66.000;    0.000;-6.80000
 856.45;  -75.600;  -74.400;    0.000;-1.20000
 856.70;  -70.867;  -86.267;    0.000;15.40000
 856.94;  -63.933;  -65.533;    0.000; 1.60000
 857.19;  -63.267;  -78.267;    0.000;15.00000
 857.44;  -69.667;  -79.933;    0.000;10.26667
 857.69;  -44.733;  -83.267;    0.000;38.53334
 857.93;  -73.200;  -66.333;    0.000;-6.86666
 858.18;  -59.600;  -77.267;    0.000;17.66667
 858.43;  -68.400;  -57.333;    0.000;-11.06667
 858.67;  -40.933;  -53.067;    0.000;12.13333
 858.92;  -59.467;  -58.333;    0.000;-1.13334
 859.17;  -58.333;  -63.933;    0.000; 5.60000
 859.42;  -83.600;  -69.467;    0.000;-14.13333
 859.66;  -62.333;  -76.333;    0.000;14.00000
 859.91;  -70.133;  -59.133;    0.000;-11.00000
 860.16;  -78.733;  -93.600;    0.000;14.86667
 860.40;  -60.933;  -79.333;    0.000;18.40000
 860.65;  -72.400;  -94.733;    0.000;22.33333
 860.90;  -80.200;  -66.667;    0.000;-13.53333
 861.14;  -48.067;  -80.400;    0.000;32.33334
 861.39;  -88.733;  -68.000;    0.000;-20.73333
 861.64;  -59.800;  -53.733;    0.000;-6.06667
 861.88;  -77.800;  -76.000;    0.000;-1.80000
 862.13;  -43.533;  -52.933;    0.000; 9.40000
 862.38;  -77.800;  -67.933;    0.000;-9.86667
 862.62;  -57.467;  -56.400;    0.000;-1.06667
 862.87;  -76.000;  -81.933;    0.000; 5.93333
 863.12;  -53.533;  -72.000;    0.000;18.46667
 863.36;  -63.267;  -81.800;    0.000;18.53334
 863.61;  -62.933;  -63.200;    0.000; 0.26667
 863.86;  -83.667;  -87.533;    0.000; 3.86667
 864.10;  -74.467;  -69.400;    0.000;-5.06667
 864.35;  -88.533;  -63.200;    0.000;-25.33333
 864.60;  -71.333;  -79.667;    0.000; 8.33333
 864.84;  -77.067;  -68.933;    0.000;-8.13333
 865.09;  -81.067;  -72.000;    0.000;-9.06667
 865.33;  -77.133;  -56.800;    0.000;-20.33333
 865.58;  -59.467;  -82.800;    0.000;23.33334
 865.83;  -85.267;  -71.800;    0.000;-13.46667
 866.07;  -77.800;  -89.067;    0.000;11.26666
 866.32;  -48.800;  -52.667;    0.000; 3.86667
 866.57;  -72.667;  -66.800;    0.000;-5.86666
 866.81;  -74.067;  -66.067;    0.000;-8.00000
 867.06;  -76.600;  -87.733;    0.000;11.13333
 867.30;  -72.800;  -82.267;    0.000; 9.46667
 867.55;  -70.467;  -71.867;    0.000; 1.40000
 867.80;  -74.267;  -58.733;    0.000;-15.53334
 868.04;  -59.067;  -68.400;    0.000; 9.33334
 868.29;  -82.733;  -73.000;    0.000;-9.73333
 868.53;  -45.667;  -53.933;    0.000; 8.26667
 868.78;  -72.333;  -66.600;    0.000;-5.73334
 869.03;  -57.933;  -71.267;    0.000;13.33334
 869.27;  -85.867;  -83.533;    0.000;-2.33334
 869.52;  -94.333;  -80.267;    0.000;-14.06667
 869.76;  -67.067;  -68.667;    0.000; 1.60000
 870.01;  -65.200;  -74.000;    0.000; 8.80000
 870.25;  -73.933;  -65.267;    0.000;-8.66666
 870.50;  -66.333;  -57.200;    0.000;-9.13334
 870.75;  -61.667;  -61.533;    0.000;-0.13334
 870.99;  -61.800;  -65.467;    0.000; 3.66667
 871.24;  -71.667;  -65.133;    0.000;-6.53333
 871.48;  -73.267;  -64.800;    0.000;-8.46667
 871.73;  -63.333;  -78.267;    0.000;14.93334
 871.97;  -66.533;  -79.933;    0.000;13.40000
 872.22;  -71.333;  -52.467;    0.000;-18.86667
 872.46;  -69.600;  -63.200;    0.000;-6.40000
 872.71;  -81.067;  -93.600;    0.000;12.53333
 872.95;  -32.467;  -67.800;    0.000;35.33334
 873.20;  -68.733;  -65.533;    0.000;-3.20000
 873.44;  -57.400;  -60.000;    0.000; 2.60000
 873.69;  -72.667;  -81.800;    0.000; 9.13334
 873.94;  -59.200;  -71.733;    0.000;12.53333
 874.18;  -72.067;  -89.133;    0.000;17.06667
 874.43;  -70.733;  -63.067;    0.000;-7.66666
 874.67;  -78.200;  -59.733;    0.000;-18.46666
 874.92;  -49.267;  -62.200;    0.000;12.93333
 875.16;  -66.067;  -47.533;    0.000;-18.53333
 875.41;  -61.133;  -99.000;    0.000;37.86666
 875.65;  -56.533;  -50.333;    0.000;-6.20000
 875.90;  -60.400;  -64.400;    0.000; 4.00000
 876.14;  -80.200;  -79.000;    0.000;-1.20000
 876.39;  -57.133;  -64.067;    0.000; 6.93333
 876.63;  -70.400;  -55.800;    0.000;-14.60000
 876.88;  -63.533;  -60.867;    0.000;-2.66667
 877.12;  -85.267;  -65.733;    0.000;-19.53334
 877.36;  -76.267;  -85.867;    0.000; 9.60000
 877.61;  -81.267;  -77.667;    0.000;-3.60001
 877.85;  -65.667;  -52.667;    0.000;-13.00000
 878.10;  -74.533;  -73.000;    0.000;-1.53333
 878.34;  -63.067;  -51.733;    0.000;-11.33333
 878.59;  -82.867;  -68.200;    0.000;-14.66667
 878.83;  -44.133;  -84.667;    0.000;40.53333
 879.08;  -69.933;  -73.600;    0.000; 3.66666
 879.32;  -69.867;  -63.400;    0.000;-6.46667
 879.57;  -55.333;  -66.867;    0.000;11.53334
 879.81;  -49.600;  -80.867;    0.000;31.26667
 880.05;  -51.933;  -60.800;    0.000; 8.86666
 880.30;  -64.867;  -74.267;    0.000; 9.40000
 880.54;  -52.667;  -71.667;    0.000;19.00000
 880.79;  -71.800;  -74.600;    0.000; 2.80000
 881.03;  -62.467;  -63.867;    0.000; 1.40000
 881.28;  -62.133;  -48.467;    0.000;-13.66667
 881.52;  -72.933;  -76.533;    0.000; 3.60000
 881.76;  -57.867;  -62.533;    0.000; 4.66667
 882.01;  -68.933;  -65.267;    0.000;-3.66666
 882.25;  -47.267;  -75.200;    0.000;27.93333
 882.50;  -54.533;  -69.133;    0.000;14.60000
 882.74;  -50.867;  -74.200;    0.000;23.33333
 882.98;  -70.800;  -64.667;    0.000;-6.13334
 883.23;  -76.467;  -78.933;    0.000; 2.46667
 883.47;  -66.800;  -51.667;    0.000;-15.13334
 883.72;  -57.200;  -67.267;    0.000;10.06667
 883.96;  -68.000;  -53.133;    0.000;-14.86666
 884.20;  -50.600;  -82.467;    0.000;31.86667
 884.45;  -62.067;  -54.667;    0.000;-7.40000
 884.69;  -60.267;  -57.600;    0.000;-2.66667
 884.94;  -43.200;  -34.733;    0.000;-8.46667
 885.18;  -52.000;  -57.667;    0.000; 5.66667
 885.42;  -61.133;  -61.000;    0.000;-0.13334
 885.67;  -46.533;  -77.400;    0.000;30.86667
 885.91;  -70.533;  -67.733;    0.000;-2.80000
 886.15;  -49.667;  -37.933;    0.000;-11.73333
 886.40;  -61.200;  -71.733;    0.000;10.53333
 886.64;  -53.667;  -68.400;    0.000;14.73333
 886.88;  -74.867;  -59.533;    0.000;-15.33334
 887.13;  -56.000;  -47.333;    0.000;-8.66667
 887.37;  -56.800;  -74.533;    0.000;17.73333
 887.62;  -56.800;  -41.333;    0.000;-15.46667
 887.86;  -45.867;  -55.933;    0.000;10.06667
 888.10;  -36.133;  -69.867;    0.000;33.73333
 888.35;  -59.000;  -41.867;    0.000;-17.13334
 888.59;  -69.733;  -59.400;    0.000;-10.33333
 888.83;  -49.800;  -57.200;    0.000; 7.40000
 889.07;  -47.133;  -72.467;    0.000;25.33333
 889.32;  -68.733;  -65.800;    0.000;-2.93333
 889.56;  -63.600;  -62.800;    0.000;-0.80000
 889.80;  -51.133;  -45.000;    0.000;-6.13334
 890.05;  -57.000;  -57.533;    0.000; 0.53333
 890.29;  -65.000;  -49.333;    0.000;-15.66667
 890.53;  -72.800;  -41.667;    0.000;-31.13334
 890.78;  -48.600;  -56.067;    0.000; 7.46667
 891.02;  -41.933;  -58.400;    0.000;16.46667
 891.26;  -54.933;  -42.600;    0.000;-12.33334
 891.51;  -41.000;  -46.800;    0.000; 5.80000
 891.75;  -36.133;  -49.267;    0.000;13.13333
 891.99;  -42.667;  -39.467;    0.000;-3.20000
 892.23;  -77.333;  -61.867;    0.000;-15.46667
 892.48;  -24.867;  -46.800;    0.000;21.93333
 892.72;  -54.467;  -38.933;    0.000;-15.53333
 892.96;  -42.800;  -46.333;    0.000; 3.53333
 893.20;  -35.600;  -30.467;    0.000;-5.13333
 893.45;  -46.867;  -57.067;    0.000;10.20000
 893.69;  -68.733;  -46.933;    0.000;-21.80000
 893.93;  -34.733;  -52.800;    0.000;18.06667
 894.17;  -67.533;  -39.867;    0.000;-27.66667
 894.42;  -34.467;  -59.400;    0.000;24.93333
 894.66;  -46.333;  -48.000;    0.000; 1.66667
 894.90;  -34.267;  -30.267;    0.000;-4.00000
 895.14;  -66.000;  -21.867;    0.000;-44.13333
 895.39;  -39.667;  -49.600;    0.000; 9.93333
 895.63;  -44.600;  -24.133;    0.000;-20.46667
 895.87;  -47.867;  -44.800;    0.000;-3.06667
 896.11;  -31.600;  -13.333;    0.000;-18.26667
 896.36;   -8.333;  -25.200;    0.000;16.86667
 896.60;  -46.933;  -35.867;    0.000;-11.06667
 896.84;  -47.933;  -10.733;    0.000;-37.20000
 897.08;  -37.133;  -22.067;    0.000;-15.06667
 897.32;  -14.733;  -17.800;    0.000; 3.06667
 897.57;  -35.267;  -23.333;    0.000;-11.93333
 897.81;  -35.067;  -13.667;    0.000;-21.40000
 898.05;  -24.200;  -26.400;    0.000; 2.20000
 898.29;    0.600;   -7.933;    0.000; 8.53333
 898.53;    3.133;   -5.800;    0.000; 8.93333
 898.78;    0.733;   -4.000;    0.000; 4.73333
 899.02;  -17.533;   -9.000;    0.000;-8.53333
 899.26;   -0.933;   -9.133;    0.000; 8.20000
 899.50;   17.600;   19.867;    0.000;-2.26667
 899.74;    5.667;   15.400;    0.000;-9.73333
 899.99;    0.667;   14.267;    0.000;-13.60000
 900.23;   40.533;    9.867;    0.000;30.66667
 900.47;    2.067;   22.333;    0.000;-20.26667
 900.71;   37.933;   -3.200;    0.000;41.13333
 900.95;   18.200;   22.800;    0.000;-4.60000
 901.19;   57.400;   30.400;    0.000;27.00000
 901.44;   45.000;   57.733;    0.000;-12.73333
 901.68;   57.533;   80.267;    0.000;-22.73334
 901.92;   68.000;   84.533;    0.000;-16.53333
 902.16;   81.733;   82.333;    0.000;-0.60001
 902.40;   68.133;  100.200;    0.000;-32.06667
 902.64;  116.667;  141.400;    0.000;-24.73333
 902.88;  134.000;  166.867;    0.000;-32.86667
 903.13;  182.267;  166.800;    0.000;15.46666

