point4
Integration time [ms]:  30.000
Averaging Nr. [scans]: 15
Smoothing Nr. [pixels]: 0
Data measured with spectrometer [name]: 1307077U2
Wave   ;Sample   ;Dark     ;Reference;Scope Corrected for Dark
[nm]   ;[counts] ;[counts] ;[counts] 

 350.80;   17.867;   -8.467;    0.000;26.33333
 351.10;   -4.867;   -4.133;    0.000;-0.73333
 351.39;   39.267;   10.733;    0.000;28.53333
 351.69;   10.333;  -17.000;    0.000;27.33333
 351.99;  -12.533;  -22.067;    0.000; 9.53333
 352.28;  -26.733;   -1.733;    0.000;-25.00000
 352.58;  -19.133;  -16.200;    0.000;-2.93333
 352.88;   -8.733;    1.867;    0.000;-10.60000
 353.17;   12.800;    6.267;    0.000; 6.53333
 353.47;   -8.467;   -4.800;    0.000;-3.66667
 353.76;   -8.333;    8.667;    0.000;-17.00000
 354.06;   12.133;   -2.733;    0.000;14.86667
 354.36;    9.600;    6.200;    0.000; 3.40000
 354.65;   25.333;    1.200;    0.000;24.13333
 354.95;   -7.867;   -5.733;    0.000;-2.13333
 355.24;    7.000;   -3.467;    0.000;10.46667
 355.54;    8.133;   -9.867;    0.000;18.00000
 355.84;   11.400;    2.133;    0.000; 9.26667
 356.13;   38.333;   35.267;    0.000; 3.06667
 356.43;    3.600;   -2.000;    0.000; 5.60000
 356.72;   -3.200;  -24.733;    0.000;21.53333
 357.02;    0.267;    7.267;    0.000;-7.00000
 357.31;   10.333;    4.400;    0.000; 5.93333
 357.61;   12.933;   10.000;    0.000; 2.93333
 357.91;  -19.200;  -10.400;    0.000;-8.80000
 358.20;   -2.467;  -11.067;    0.000; 8.60000
 358.50;   -2.400;   -0.133;    0.000;-2.26667
 358.79;   16.267;   -5.667;    0.000;21.93333
 359.09;   20.467;   -7.000;    0.000;27.46667
 359.38;   15.533;  -11.800;    0.000;27.33333
 359.68;  -17.067;  -19.400;    0.000; 2.33333
 359.98;   18.267;  -12.067;    0.000;30.33333
 360.27;    2.467;  -20.467;    0.000;22.93333
 360.57;    3.467;  -24.467;    0.000;27.93333
 360.86;   16.133;  -13.467;    0.000;29.60000
 361.16;  -11.133;  -10.933;    0.000;-0.20000
 361.45;    1.267;    0.933;    0.000; 0.33333
 361.75;   -6.867;  -14.467;    0.000; 7.60000
 362.04;   36.867;   20.200;    0.000;16.66666
 362.34;    2.333;    7.200;    0.000;-4.86667
 362.64;    1.400;   -3.600;    0.000; 5.00000
 362.93;   -9.600;  -22.667;    0.000;13.06667
 363.23;   -9.467;  -26.267;    0.000;16.80000
 363.52;  -10.733;  -31.067;    0.000;20.33333
 363.82;   -1.333;  -15.667;    0.000;14.33333
 364.11;   18.533;    2.867;    0.000;15.66667
 364.41;  -10.867;  -19.200;    0.000; 8.33333
 364.70;   -2.133;  -11.067;    0.000; 8.93333
 365.00;    6.600;   -4.333;    0.000;10.93333
 365.29;  -11.067;   -9.133;    0.000;-1.93333
 365.59;   -7.267;   -4.267;    0.000;-3.00000
 365.88;    3.133;   -8.867;    0.000;12.00000
 366.18;   -5.133;   -2.200;    0.000;-2.93333
 366.47;   -4.733;    6.000;    0.000;-10.73333
 366.77;    1.667;   15.800;    0.000;-14.13333
 367.06;  -12.000;  -16.267;    0.000; 4.26667
 367.36;   12.867;   -4.267;    0.000;17.13333
 367.65;   -4.933;   -1.400;    0.000;-3.53333
 367.95;    7.467;   -3.333;    0.000;10.80000
 368.24;    3.267;   -7.667;    0.000;10.93333
 368.54;  -15.000;  -20.133;    0.000; 5.13333
 368.83;   11.200;    2.667;    0.000; 8.53333
 369.13;   12.200;   10.533;    0.000; 1.66667
 369.42;    6.067;   -4.867;    0.000;10.93333
 369.72;   -0.667;  -13.400;    0.000;12.73333
 370.01;    1.333;   -8.267;    0.000; 9.60000
 370.31;    1.800;    5.600;    0.000;-3.80000
 370.60;   34.800;   26.333;    0.000; 8.46667
 370.90;    4.200;  -20.200;    0.000;24.40000
 371.19;  -24.133;  -26.200;    0.000; 2.06667
 371.49;  -15.200;    3.400;    0.000;-18.60000
 371.78;  -10.200;    3.133;    0.000;-13.33333
 372.08;   -3.067;   -7.267;    0.000; 4.20000
 372.37;   -6.667;  -14.667;    0.000; 8.00000
 372.67;   -3.333;    6.067;    0.000;-9.40000
 372.96;  -14.133;    0.000;    0.000;-14.13333
 373.26;  -12.200;  -11.133;    0.000;-1.06667
 373.55;   -6.600;   -1.933;    0.000;-4.66667
 373.85;   -7.133;  -13.267;    0.000; 6.13333
 374.14;    1.933;    4.933;    0.000;-3.00000
 374.43;   -9.000;   -6.867;    0.000;-2.13333
 374.73;   -6.800;  -10.333;    0.000; 3.53333
 375.02;    8.800;    7.600;    0.000; 1.20000
 375.32;   -4.933;  -20.267;    0.000;15.33333
 375.61;   -5.000;  -15.067;    0.000;10.06667
 375.91;    0.933;  -30.467;    0.000;31.40000
 376.20;   -4.467;  -10.400;    0.000; 5.93333
 376.50;    0.867;  -20.133;    0.000;21.00000
 376.79;  -23.133;  -22.667;    0.000;-0.46667
 377.08;  -17.333;  -28.533;    0.000;11.20000
 377.38;  -12.800;  -18.667;    0.000; 5.86667
 377.67;   -9.400;   16.333;    0.000;-25.73333
 377.97;  -19.400;  -18.200;    0.000;-1.20000
 378.26;   14.000;  -10.133;    0.000;24.13333
 378.56;  -14.200;  -34.867;    0.000;20.66667
 378.85;   -6.667;   -6.600;    0.000;-0.06667
 379.14;  -29.333;  -29.133;    0.000;-0.20000
 379.44;   -9.733;  -13.533;    0.000; 3.80000
 379.73;   -9.600;  -14.267;    0.000; 4.66667
 380.03;    2.733;   14.000;    0.000;-11.26667
 380.32;  -17.733;   -6.133;    0.000;-11.60000
 380.62;  -26.267;   -9.267;    0.000;-17.00000
 380.91;    3.933;   -4.733;    0.000; 8.66667
 381.20;    6.200;    3.067;    0.000; 3.13333
 381.50;  -11.200;  -14.600;    0.000; 3.40000
 381.79;  -18.200;  -19.400;    0.000; 1.20000
 382.09;  -22.267;  -19.600;    0.000;-2.66667
 382.38;    6.400;  -23.667;    0.000;30.06667
 382.67;   -8.400;  -19.000;    0.000;10.60000
 382.97;  -10.133;  -16.267;    0.000; 6.13333
 383.26;   -2.133;  -24.533;    0.000;22.40000
 383.56;   -6.733;    7.333;    0.000;-14.06667
 383.85;  -11.067;  -13.667;    0.000; 2.60000
 384.14;   -6.533;    2.600;    0.000;-9.13333
 384.44;    1.867;  -26.267;    0.000;28.13333
 384.73;    2.667;    8.533;    0.000;-5.86667
 385.02;   -9.400;  -23.800;    0.000;14.40000
 385.32;   -1.133;   -4.933;    0.000; 3.80000
 385.61;  -28.733;  -17.333;    0.000;-11.40000
 385.91;    3.133;   -6.933;    0.000;10.06667
 386.20;   -4.733;  -30.267;    0.000;25.53333
 386.49;  -16.467;  -30.467;    0.000;14.00000
 386.79;   -3.800;    7.867;    0.000;-11.66667
 387.08;   -8.533;  -30.600;    0.000;22.06667
 387.37;   -8.067;  -20.267;    0.000;12.20000
 387.67;   -9.267;  -21.600;    0.000;12.33333
 387.96;  -19.400;  -13.133;    0.000;-6.26667
 388.25;   -8.133;   11.600;    0.000;-19.73333
 388.55;  -17.600;  -20.200;    0.000; 2.60000
 388.84;  -28.267;  -14.533;    0.000;-13.73333
 389.14;  -19.733;  -10.333;    0.000;-9.40000
 389.43;  -13.200;   -7.467;    0.000;-5.73333
 389.72;  -19.933;  -21.200;    0.000; 1.26667
 390.02;   -7.000;    8.333;    0.000;-15.33333
 390.31;  -27.533;  -17.333;    0.000;-10.20000
 390.60;  -14.800;  -17.933;    0.000; 3.13333
 390.90;  -20.800;  -15.533;    0.000;-5.26667
 391.19;   -9.733;  -21.133;    0.000;11.40000
 391.48;  -15.467;  -18.733;    0.000; 3.26667
 391.78;   -8.200;  -15.600;    0.000; 7.40000
 392.07;   49.600;   24.600;    0.000;25.00000
 392.36;   18.533;   -8.067;    0.000;26.60000
 392.66;  -17.533;   -9.933;    0.000;-7.60000
 392.95;  -19.600;  -23.400;    0.000; 3.80000
 393.24;  -32.733;   -7.667;    0.000;-25.06667
 393.53;  -19.800;  -25.267;    0.000; 5.46667
 393.83;  -21.133;  -30.133;    0.000; 9.00000
 394.12;  -11.067;   -2.133;    0.000;-8.93333
 394.41;  -26.267;   -0.733;    0.000;-25.53333
 394.71;    2.733;   -2.267;    0.000; 5.00000
 395.00;  -25.067;   -8.667;    0.000;-16.40000
 395.29;  -17.533;   -0.600;    0.000;-16.93333
 395.59;  -20.600;  -33.333;    0.000;12.73333
 395.88;   -5.333;   -9.800;    0.000; 4.46667
 396.17;  -38.533;  -29.400;    0.000;-9.13333
 396.46;   -9.400;   -1.467;    0.000;-7.93333
 396.76;  -22.800;  -26.867;    0.000; 4.06667
 397.05;   21.533;   31.267;    0.000;-9.73333
 397.34;    0.000;  -28.200;    0.000;28.20000
 397.64;  -11.000;  -27.000;    0.000;16.00000
 397.93;  -31.400;  -28.333;    0.000;-3.06667
 398.22;  -16.600;  -16.600;    0.000; 0.00000
 398.51;  -17.000;  -25.000;    0.000; 8.00000
 398.81;    2.667;  -11.467;    0.000;14.13333
 399.10;   -9.000;  -16.800;    0.000; 7.80000
 399.39;   -9.600;  -22.000;    0.000;12.40000
 399.69;  -14.000;  -21.933;    0.000; 7.93333
 399.98;   -6.000;    5.200;    0.000;-11.20000
 400.27;  -16.933;  -31.733;    0.000;14.80000
 400.56;   -3.400;  -13.400;    0.000;10.00000
 400.86;  -16.533;  -22.467;    0.000; 5.93333
 401.15;   -2.800;   -5.467;    0.000; 2.66667
 401.44;  -29.800;  -24.333;    0.000;-5.46667
 401.73;   -0.733;   -4.133;    0.000; 3.40000
 402.03;    1.667;  -29.533;    0.000;31.20000
 402.32;  -37.600;  -27.800;    0.000;-9.80000
 402.61;   -9.733;  -19.667;    0.000; 9.93333
 402.90;  -19.867;   -8.533;    0.000;-11.33333
 403.20;  -10.733;    3.667;    0.000;-14.40000
 403.49;    0.067;  -21.867;    0.000;21.93333
 403.78;  -10.667;  -23.600;    0.000;12.93333
 404.07;  -16.200;   -4.667;    0.000;-11.53333
 404.37;   -8.733;    1.400;    0.000;-10.13333
 404.66;   -8.600;  -18.667;    0.000;10.06667
 404.95;  -20.067;  -12.200;    0.000;-7.86667
 405.24;  -26.333;  -24.467;    0.000;-1.86667
 405.53;  -29.533;  -20.800;    0.000;-8.73333
 405.83;    7.533;   -9.933;    0.000;17.46667
 406.12;  -22.200;  -19.200;    0.000;-3.00000
 406.41;   -7.400;   -6.533;    0.000;-0.86667
 406.70;    7.133;  -20.600;    0.000;27.73333
 407.00;   -7.667;  -11.467;    0.000; 3.80000
 407.29;  -15.133;  -23.067;    0.000; 7.93333
 407.58;   -8.933;  -22.400;    0.000;13.46667
 407.87;  -19.133;  -29.133;    0.000;10.00000
 408.16;   -8.600;  -15.933;    0.000; 7.33333
 408.46;  -13.333;  -31.067;    0.000;17.73333
 408.75;   -9.667;  -17.733;    0.000; 8.06667
 409.04;  -25.600;   -7.733;    0.000;-17.86667
 409.33;   -7.267;  -25.133;    0.000;17.86667
 409.62;   15.867;  -19.000;    0.000;34.86667
 409.92;  -18.600;   -0.600;    0.000;-18.00000
 410.21;  -22.600;  -31.667;    0.000; 9.06667
 410.50;  -13.067;  -24.333;    0.000;11.26667
 410.79;   -3.000;   -1.333;    0.000;-1.66667
 411.08;  -10.467;  -10.533;    0.000; 0.06667
 411.37;  -36.067;  -37.067;    0.000; 1.00000
 411.67;  -14.800;  -34.533;    0.000;19.73333
 411.96;  -11.133;  -20.067;    0.000; 8.93333
 412.25;  -13.333;  -12.533;    0.000;-0.80000
 412.54;  -19.533;  -34.133;    0.000;14.60000
 412.83;  -12.667;  -17.867;    0.000; 5.20000
 413.13;  -15.800;  -10.600;    0.000;-5.20000
 413.42;  -11.867;  -21.867;    0.000;10.00000
 413.71;   -6.467;  -13.400;    0.000; 6.93333
 414.00;  -16.067;  -17.800;    0.000; 1.73333
 414.29;  -14.600;  -18.000;    0.000; 3.40000
 414.58;  -15.733;  -16.067;    0.000; 0.33333
 414.87;  -26.467;   -2.333;    0.000;-24.13333
 415.17;  -14.933;  -26.600;    0.000;11.66667
 415.46;  -29.467;  -40.267;    0.000;10.80000
 415.75;  -23.533;   -4.333;    0.000;-19.20000
 416.04;    1.067;  -18.800;    0.000;19.86667
 416.33;  -10.467;  -21.000;    0.000;10.53333
 416.62;  -15.533;  -31.400;    0.000;15.86667
 416.91;  -19.467;  -20.400;    0.000; 0.93333
 417.21;  -19.267;  -32.667;    0.000;13.40000
 417.50;  -17.600;  -23.400;    0.000; 5.80000
 417.79;   -8.933;  -29.200;    0.000;20.26667
 418.08;   -8.733;  -17.333;    0.000; 8.60000
 418.37;  -22.600;  -15.067;    0.000;-7.53333
 418.66;  -18.200;  -24.933;    0.000; 6.73333
 418.95;   12.267;  -13.667;    0.000;25.93333
 419.24;  -10.200;  -24.600;    0.000;14.40000
 419.54;  -14.933;  -27.733;    0.000;12.80000
 419.83;   -4.867;  -11.733;    0.000; 6.86667
 420.12;  -22.667;  -10.133;    0.000;-12.53333
 420.41;   17.200;    8.533;    0.000; 8.66667
 420.70;  -33.200;  -16.467;    0.000;-16.73333
 420.99;    4.733;  -15.600;    0.000;20.33333
 421.28;  -11.000;  -13.400;    0.000; 2.40000
 421.57;   -5.400;  -12.200;    0.000; 6.80000
 421.86;   -1.667;   -8.000;    0.000; 6.33333
 422.16;   -5.333;  -28.133;    0.000;22.80000
 422.45;  -21.400;  -26.267;    0.000; 4.86667
 422.74;  -26.600;  -17.267;    0.000;-9.33333
 423.03;  -17.667;  -17.800;    0.000; 0.13333
 423.32;  -20.933;  -12.400;    0.000;-8.53333
 423.61;  -10.733;  -15.867;    0.000; 5.13333
 423.90;    0.867;   -1.333;    0.000; 2.20000
 424.19;   40.733;   27.000;    0.000;13.73333
 424.48;   -4.533;  -16.267;    0.000;11.73333
 424.77;  -21.333;  -16.400;    0.000;-4.93333
 425.06;   -6.867;   -5.600;    0.000;-1.26667
 425.35;    5.600;   -0.667;    0.000; 6.26667
 425.65;   -8.533;  -20.067;    0.000;11.53333
 425.94;    3.467;  -24.600;    0.000;28.06667
 426.23;  -25.400;  -23.267;    0.000;-2.13333
 426.52;  -26.267;  -33.333;    0.000; 7.06667
 426.81;   21.333;    1.333;    0.000;20.00000
 427.10;  -17.733;  -28.000;    0.000;10.26667
 427.39;    6.867;    0.267;    0.000; 6.60000
 427.68;   -0.933;  -26.400;    0.000;25.46667
 427.97;   -5.533;   -6.400;    0.000; 0.86667
 428.26;  -15.133;  -35.667;    0.000;20.53333
 428.55;    9.267;   -5.933;    0.000;15.20000
 428.84;   -5.000;    2.400;    0.000;-7.40000
 429.13;   -0.533;  -11.667;    0.000;11.13333
 429.42;   -5.067;  -19.333;    0.000;14.26667
 429.71;   -4.467;    8.400;    0.000;-12.86667
 430.00;   -9.800;  -20.667;    0.000;10.86667
 430.29;  -24.000;  -17.267;    0.000;-6.73333
 430.58;  -16.800;  -14.267;    0.000;-2.53333
 430.87;  -18.733;  -32.800;    0.000;14.06667
 431.16;  -12.800;  -34.200;    0.000;21.40000
 431.46;    5.600;   -2.467;    0.000; 8.06667
 431.75;  -23.933;  -30.600;    0.000; 6.66667
 432.04;  -16.667;    2.467;    0.000;-19.13333
 432.33;  -18.533;  -26.667;    0.000; 8.13333
 432.62;   -8.600;  -24.600;    0.000;16.00000
 432.91;  -21.800;  -45.867;    0.000;24.06667
 433.20;  -17.333;  -12.467;    0.000;-4.86667
 433.49;   -7.333;  -23.333;    0.000;16.00000
 433.78;  -20.867;  -20.933;    0.000; 0.06667
 434.07;   -9.933;  -39.133;    0.000;29.20000
 434.36;  -19.400;  -26.800;    0.000; 7.40000
 434.65;  -27.933;  -33.333;    0.000; 5.40000
 434.94;  -18.733;  -18.200;    0.000;-0.53333
 435.23;    4.600;  -18.067;    0.000;22.66667
 435.52;   -1.800;    4.133;    0.000;-5.93333
 435.81;  -34.267;   -2.267;    0.000;-32.00000
 436.10;   -4.400;   -0.933;    0.000;-3.46667
 436.39;    1.867;   -8.000;    0.000; 9.86667
 436.68;   -0.933;  -10.067;    0.000; 9.13333
 436.97;  -27.067;  -30.733;    0.000; 3.66667
 437.26;  -17.600;  -12.267;    0.000;-5.33333
 437.55;  -10.333;  -19.000;    0.000; 8.66667
 437.83;  -16.400;  -35.933;    0.000;19.53333
 438.12;  -31.267;  -37.733;    0.000; 6.46667
 438.41;  -21.333;  -19.067;    0.000;-2.26667
 438.70;   14.067;   16.933;    0.000;-2.86667
 438.99;   12.800;   10.267;    0.000; 2.53333
 439.28;    2.667;  -18.533;    0.000;21.20000
 439.57;  -43.333;  -23.000;    0.000;-20.33333
 439.86;  -12.800;  -21.200;    0.000; 8.40000
 440.15;  -11.333;   -6.800;    0.000;-4.53333
 440.44;  -28.400;  -11.267;    0.000;-17.13333
 440.73;  -28.333;  -19.467;    0.000;-8.86667
 441.02;  -13.133;  -25.667;    0.000;12.53333
 441.31;   -6.400;  -13.200;    0.000; 6.80000
 441.60;  -11.267;  -18.400;    0.000; 7.13333
 441.89;  -10.533;  -31.067;    0.000;20.53333
 442.18;  -16.533;  -23.200;    0.000; 6.66667
 442.47;  -25.000;   -7.533;    0.000;-17.46667
 442.76;  -30.933;  -40.200;    0.000; 9.26667
 443.05;   -8.800;    2.467;    0.000;-11.26667
 443.34;    0.467;   -4.000;    0.000; 4.46667
 443.63;  -31.333;  -22.800;    0.000;-8.53333
 443.91;  -15.733;  -13.533;    0.000;-2.20000
 444.20;  -20.933;  -17.467;    0.000;-3.46667
 444.49;  -34.133;  -35.267;    0.000; 1.13333
 444.78;    4.600;  -13.933;    0.000;18.53333
 445.07;   -2.800;   -3.733;    0.000; 0.93333
 445.36;  -27.933;  -38.533;    0.000;10.60000
 445.65;   -3.000;  -19.400;    0.000;16.40000
 445.94;  -25.933;  -29.400;    0.000; 3.46667
 446.23;  -15.800;   -2.867;    0.000;-12.93333
 446.52;   -0.933;    1.733;    0.000;-2.66667
 446.81;   -9.133;  -30.733;    0.000;21.60000
 447.10;  -22.733;  -26.533;    0.000; 3.80000
 447.38;  -39.467;  -25.333;    0.000;-14.13333
 447.67;   -6.267;  -17.000;    0.000;10.73333
 447.96;  -23.267;  -17.800;    0.000;-5.46667
 448.25;  -18.600;   -3.267;    0.000;-15.33333
 448.54;   93.800;   67.267;    0.000;26.53333
 448.83;    7.600;    1.133;    0.000; 6.46667
 449.12;  -28.733;  -33.733;    0.000; 5.00000
 449.41;  -18.400;  -32.600;    0.000;14.20000
 449.70;   -7.800;  -31.067;    0.000;23.26667
 449.98;  -16.267;  -30.067;    0.000;13.80000
 450.27;  -12.200;  -25.400;    0.000;13.20000
 450.56;  -17.133;  -29.333;    0.000;12.20000
 450.85;  -24.733;  -20.933;    0.000;-3.80000
 451.14;  -21.133;  -24.267;    0.000; 3.13333
 451.43;  -14.867;  -29.933;    0.000;15.06667
 451.72;  -14.067;  -11.267;    0.000;-2.80000
 452.01;  -11.933;  -12.733;    0.000; 0.80000
 452.29;  -16.600;  -37.800;    0.000;21.20000
 452.58;  -42.333;  -28.000;    0.000;-14.33333
 452.87;  -21.933;  -25.400;    0.000; 3.46667
 453.16;  -22.200;  -34.200;    0.000;12.00000
 453.45;    4.000;   -9.667;    0.000;13.66667
 453.74;   -9.000;  -23.933;    0.000;14.93333
 454.03;   -6.200;  -20.400;    0.000;14.20000
 454.31;  -15.133;  -25.600;    0.000;10.46667
 454.60;  -13.000;  -19.400;    0.000; 6.40000
 454.89;  -14.400;  -10.333;    0.000;-4.06667
 455.18;  -14.600;  -23.733;    0.000; 9.13333
 455.47;  -17.400;  -25.600;    0.000; 8.20000
 455.76;  -23.800;   -6.133;    0.000;-17.66667
 456.04;   -9.467;  -14.800;    0.000; 5.33333
 456.33;  -12.867;  -23.800;    0.000;10.93333
 456.62;  -14.400;  -22.200;    0.000; 7.80000
 456.91;  -21.200;  -21.600;    0.000; 0.40000
 457.20;    7.067;  -15.600;    0.000;22.66667
 457.49;   -4.533;   -8.733;    0.000; 4.20000
 457.77;  -32.867;  -37.067;    0.000; 4.20000
 458.06;   -5.067;   -5.933;    0.000; 0.86667
 458.35;  -26.467;  -29.333;    0.000; 2.86667
 458.64;  -16.267;  -16.400;    0.000; 0.13333
 458.93;  -24.467;  -32.267;    0.000; 7.80000
 459.21;  -18.533;  -13.867;    0.000;-4.66667
 459.50;  -24.600;  -29.400;    0.000; 4.80000
 459.79;  -25.400;  -22.333;    0.000;-3.06667
 460.08;  -18.867;  -22.600;    0.000; 3.73333
 460.37;  -16.533;  -28.733;    0.000;12.20000
 460.65;  -23.067;  -21.467;    0.000;-1.60000
 460.94;   -8.000;  -12.933;    0.000; 4.93333
 461.23;  -20.400;  -17.200;    0.000;-3.20000
 461.52;   -8.667;   14.667;    0.000;-23.33333
 461.81;   -6.333;  -27.333;    0.000;21.00000
 462.09;   -6.333;   -8.067;    0.000; 1.73333
 462.38;  -34.667;  -30.333;    0.000;-4.33333
 462.67;  -17.200;  -11.400;    0.000;-5.80000
 462.96;  -18.267;  -35.867;    0.000;17.60000
 463.24;  -14.933;   -1.733;    0.000;-13.20000
 463.53;  -16.667;   -9.333;    0.000;-7.33333
 463.82;   -7.467;  -32.400;    0.000;24.93333
 464.11;  -25.867;  -17.400;    0.000;-8.46667
 464.40;  -22.000;  -25.933;    0.000; 3.93333
 464.68;  -32.533;  -30.267;    0.000;-2.26667
 464.97;  -24.600;  -20.000;    0.000;-4.60000
 465.26;    2.133;  -19.600;    0.000;21.73333
 465.55;  -22.067;   -7.600;    0.000;-14.46667
 465.83;  -23.867;  -34.933;    0.000;11.06667
 466.12;  -31.467;  -31.400;    0.000;-0.06667
 466.41;   -6.133;  -32.933;    0.000;26.80000
 466.70;  -19.667;  -36.000;    0.000;16.33333
 466.98;  -38.267;  -15.867;    0.000;-22.40000
 467.27;   13.667;   -6.467;    0.000;20.13333
 467.56;    9.933;  -19.733;    0.000;29.66667
 467.85;  -15.333;  -10.267;    0.000;-5.06667
 468.13;  -28.133;  -31.933;    0.000; 3.80000
 468.42;   -6.067;   -2.200;    0.000;-3.86667
 468.71;  -16.067;  -19.600;    0.000; 3.53333
 468.99;    0.600;  -30.600;    0.000;31.20000
 469.28;   -8.800;  -31.333;    0.000;22.53333
 469.57;  -26.400;  -22.067;    0.000;-4.33333
 469.86;  -15.933;   -7.733;    0.000;-8.20000
 470.14;  -27.867;  -28.533;    0.000; 0.66667
 470.43;    0.333;  -15.200;    0.000;15.53333
 470.72;  -30.667;  -20.733;    0.000;-9.93333
 471.00;  -38.733;  -30.200;    0.000;-8.53333
 471.29;    5.000;  -11.267;    0.000;16.26667
 471.58;    5.533;   -9.733;    0.000;15.26667
 471.87;  -17.933;  -10.800;    0.000;-7.13333
 472.15;  -20.933;  -20.600;    0.000;-0.33333
 472.44;   21.733;   -9.667;    0.000;31.40000
 472.73;  -19.600;  -17.267;    0.000;-2.33333
 473.01;  -16.600;  -10.133;    0.000;-6.46667
 473.30;  -12.733;  -23.200;    0.000;10.46667
 473.59;   -9.133;  -34.867;    0.000;25.73333
 473.87;   -9.533;  -32.067;    0.000;22.53333
 474.16;  -20.533;  -33.067;    0.000;12.53333
 474.45;  -21.733;  -29.400;    0.000; 7.66667
 474.74;  -22.400;  -32.333;    0.000; 9.93333
 475.02;    0.667;  -28.600;    0.000;29.26667
 475.31;   -6.333;  -19.733;    0.000;13.40000
 475.60;  -10.667;   -1.867;    0.000;-8.80000
 475.88;   -3.133;  -18.067;    0.000;14.93333
 476.17;   -7.533;  -14.800;    0.000; 7.26667
 476.46;  -26.933;  -30.267;    0.000; 3.33333
 476.74;  -23.600;  -31.333;    0.000; 7.73333
 477.03;  -27.933;  -32.333;    0.000; 4.40000
 477.32;   -7.733;  -22.800;    0.000;15.06667
 477.60;   -5.867;  -23.933;    0.000;18.06667
 477.89;   -1.733;  -16.267;    0.000;14.53333
 478.18;  -13.600;  -25.667;    0.000;12.06667
 478.46;  -22.400;  -22.200;    0.000;-0.20000
 478.75;   -2.733;  -21.667;    0.000;18.93333
 479.03;  -17.333;  -35.333;    0.000;18.00000
 479.32;   -5.933;   -5.800;    0.000;-0.13333
 479.61;  -18.533;  -18.133;    0.000;-0.40000
 479.89;  -13.267;  -50.133;    0.000;36.86667
 480.18;  -13.533;  -32.533;    0.000;19.00000
 480.47;    9.267;  -22.933;    0.000;32.20000
 480.75;  -13.333;  -25.800;    0.000;12.46667
 481.04;   -2.200;  -15.867;    0.000;13.66667
 481.33;   -8.467;  -23.733;    0.000;15.26667
 481.61;  -20.733;  -23.800;    0.000; 3.06667
 481.90;  -38.333;  -32.267;    0.000;-6.06667
 482.18;    7.533;    8.400;    0.000;-0.86667
 482.47;  -20.733;  -15.400;    0.000;-5.33333
 482.76;   -0.933;  -31.333;    0.000;30.40000
 483.04;  -20.533;  -28.267;    0.000; 7.73333
 483.33;  -20.533;  -37.133;    0.000;16.60000
 483.61;  -19.533;   -7.667;    0.000;-11.86667
 483.90;  -17.067;  -16.600;    0.000;-0.46667
 484.19;  -33.200;  -36.533;    0.000; 3.33333
 484.47;  -15.600;  -32.067;    0.000;16.46667
 484.76;   -4.067;  -45.267;    0.000;41.20000
 485.05;   -7.933;  -18.467;    0.000;10.53333
 485.33;   -5.800;  -24.933;    0.000;19.13333
 485.62;  -21.400;  -27.600;    0.000; 6.20000
 485.90;   -9.733;  -20.667;    0.000;10.93333
 486.19;  -23.933;  -22.000;    0.000;-1.93333
 486.47;   11.800;  -14.933;    0.000;26.73333
 486.76;   -1.267;  -24.933;    0.000;23.66667
 487.05;    3.600;   -3.200;    0.000; 6.80000
 487.33;   -3.067;   -4.667;    0.000; 1.60000
 487.62;   -9.667;  -40.867;    0.000;31.20000
 487.90;   -5.533;  -32.667;    0.000;27.13333
 488.19;   -0.867;   -9.933;    0.000; 9.06667
 488.47;   23.867;  -17.733;    0.000;41.60000
 488.76;   14.200;  -21.267;    0.000;35.46667
 489.05;   34.467;  -18.533;    0.000;53.00000
 489.33;   15.733;  -33.533;    0.000;49.26667
 489.62;   20.733;  -28.400;    0.000;49.13333
 489.90;   10.667;  -44.400;    0.000;55.06667
 490.19;   26.000;  -20.867;    0.000;46.86667
 490.47;   45.400;  -26.133;    0.000;71.53333
 490.76;   47.133;  -18.933;    0.000;66.06667
 491.05;   64.533;  -17.000;    0.000;81.53333
 491.33;   57.800;  -16.467;    0.000;74.26667
 491.62;   57.733;  -31.067;    0.000;88.80000
 491.90;   84.667;  -26.733;    0.000;111.40000
 492.19;   97.467;  -17.333;    0.000;114.80000
 492.47;   85.333;  -28.133;    0.000;113.46667
 492.76;  103.667;  -37.667;    0.000;141.33333
 493.04;  123.933;  -12.933;    0.000;136.86667
 493.33;  134.267;  -37.667;    0.000;171.93333
 493.61;  178.867;  -24.133;    0.000;203.00000
 493.90;  177.267;  -26.533;    0.000;203.80000
 494.18;  223.667;    3.467;    0.000;220.20001
 494.47;  195.867;   -8.000;    0.000;203.86667
 494.75;  238.867;  -29.667;    0.000;268.53333
 495.04;  260.067;  -43.067;    0.000;303.13335
 495.32;  313.333;  -17.400;    0.000;330.73334
 495.61;  343.933;  -35.467;    0.000;379.39999
 495.89;  348.400;  -34.733;    0.000;383.13333
 496.18;  361.200;  -32.600;    0.000;393.80001
 496.46;  439.867;  -32.400;    0.000;472.26667
 496.75;  468.200;  -29.933;    0.000;498.13334
 497.03;  502.200;  -26.667;    0.000;528.86668
 497.32;  530.467;  -15.000;    0.000;545.46667
 497.60;  552.800;  -22.467;    0.000;575.26665
 497.89;  608.933;  -17.533;    0.000;626.46668
 498.17;  643.600;  -24.800;    0.000;668.39997
 498.46;  695.867;  -48.133;    0.000;743.99997
 498.74;  787.467;   -5.200;    0.000;792.66667
 499.03;  807.333;  -17.000;    0.000;824.33331
 499.31;  832.067;  -20.400;    0.000;852.46665
 499.60;  929.400;  -14.667;    0.000;944.06669
 499.88;  995.600;    9.933;    0.000;985.66664
 500.17; 1041.667;  -35.267;    0.000;1076.93329
 500.45; 1087.667;  -20.600;    0.000;1108.26663
 500.74; 1158.133;  -31.000;    0.000;1189.13330
 501.02; 1220.933;  -37.267;    0.000;1258.20002
 501.31; 1305.533;  -32.600;    0.000;1338.13332
 501.59; 1355.867;  -35.533;    0.000;1391.40003
 501.88; 1441.667;  -27.200;    0.000;1468.86663
 502.16; 1514.067;  -20.733;    0.000;1534.79998
 502.45; 1579.267;  -19.667;    0.000;1598.93339
 502.73; 1633.133;  -10.000;    0.000;1643.13330
 503.01; 1771.867;  -29.133;    0.000;1801.00003
 503.30; 1869.800;  -48.200;    0.000;1918.00005
 503.58; 1916.533;  -34.133;    0.000;1950.66666
 503.87; 2002.467;  -23.333;    0.000;2025.80001
 504.15; 2064.267;  -31.200;    0.000;2095.46660
 504.44; 2155.667;  -12.333;    0.000;2168.00008
 504.72; 2311.000;   -0.267;    0.000;2311.26667
 505.00; 2346.400;  -18.200;    0.000;2364.59990
 505.29; 2517.267;  -24.533;    0.000;2541.79993
 505.57; 2517.667;  -18.400;    0.000;2536.06675
 505.86; 2654.933;  -30.200;    0.000;2685.13335
 506.14; 2738.400;  -42.933;    0.000;2781.33324
 506.43; 2885.667;  -12.800;    0.000;2898.46675
 506.71; 2944.533;  -41.267;    0.000;2985.80011
 506.99; 3058.733;  -35.133;    0.000;3093.86673
 507.28; 3208.467;  -11.467;    0.000;3219.93322
 507.56; 3285.400;  -17.667;    0.000;3303.06657
 507.85; 3380.533;  -14.667;    0.000;3395.20011
 508.13; 3488.800;  -27.200;    0.000;3516.00005
 508.41; 3629.600;   22.933;    0.000;3606.66677
 508.70; 3703.600;   -9.000;    0.000;3712.60010
 508.98; 3820.400;  -16.800;    0.000;3837.19990
 509.27; 3893.067;  -26.867;    0.000;3919.93332
 509.55; 4038.400;  -10.533;    0.000;4048.93324
 509.83; 4154.533;  -46.200;    0.000;4200.73320
 510.12; 4264.333;  -30.200;    0.000;4294.53350
 510.40; 4370.533;   -9.733;    0.000;4380.26654
 510.69; 4502.733;  -31.000;    0.000;4533.73340
 510.97; 4602.067;  -16.867;    0.000;4618.93356
 511.25; 4669.867;  -24.067;    0.000;4693.93337
 511.54; 4849.933;  -24.933;    0.000;4874.86644
 511.82; 4958.667;    1.067;    0.000;4957.59984
 512.11; 5026.733;  -21.000;    0.000;5047.73340
 512.39; 5141.400;  -21.200;    0.000;5162.59990
 512.67; 5219.933;   -6.200;    0.000;5226.13311
 512.96; 5385.867;  -37.733;    0.000;5423.60003
 513.24; 5481.867;  -26.800;    0.000;5508.66670
 513.52; 5556.267;   -2.933;    0.000;5559.19993
 513.81; 5668.933;   -4.600;    0.000;5673.53311
 514.09; 5818.067;  -21.400;    0.000;5839.46689
 514.37; 5826.533;  -10.600;    0.000;5837.13320
 514.66; 5971.800;   -7.800;    0.000;5979.59980
 514.94; 6068.733;  -32.133;    0.000;6100.86673
 515.22; 6179.333;  -20.000;    0.000;6199.33350
 515.51; 6265.933;  -29.600;    0.000;6295.53311
 515.79; 6330.533;  -25.267;    0.000;6355.79987
 516.07; 6509.400;  -25.867;    0.000;6535.26657
 516.36; 6575.133;  -37.067;    0.000;6612.19997
 516.64; 6726.200;  -34.600;    0.000;6760.80019
 516.92; 6758.333;  -23.733;    0.000;6782.06683
 517.21; 6949.800;  -28.067;    0.000;6977.86647
 517.49; 7005.467;  -31.800;    0.000;7037.26680
 517.77; 7190.733;   -5.200;    0.000;7195.93340
 518.06; 7316.600;  -25.933;    0.000;7342.53343
 518.34; 7362.933;  -33.800;    0.000;7396.73310
 518.62; 7532.267;   -4.533;    0.000;7536.79993
 518.91; 7680.133;  131.467;    0.000;7548.66664
 519.19; 7632.333;  -11.800;    0.000;7644.13350
 519.47; 7736.400;   -7.133;    0.000;7743.53324
 519.76; 7885.267;   -5.533;    0.000;7890.79993
 520.04; 7959.133;   -8.933;    0.000;7968.06663
 520.32; 8006.067;  -10.600;    0.000;8016.66689
 520.61; 8084.333;   10.667;    0.000;8073.66683
 520.89; 8216.467;  -14.000;    0.000;8230.46680
 521.17; 8270.866;  -29.867;    0.000;8300.73288
 521.45; 8411.600;  -16.067;    0.000;8427.66628
 521.74; 8450.733;  -17.200;    0.000;8467.93340
 522.02; 8576.600;  -21.267;    0.000;8597.86628
 522.30; 8700.934;  -20.200;    0.000;8721.13359
 522.59; 8751.333;    6.267;    0.000;8745.06634
 522.87; 8820.267;    3.800;    0.000;8816.46660
 523.15; 8881.733;    3.067;    0.000;8878.66673
 523.43; 8980.467;  -39.333;    0.000;9019.80013
 523.72; 9083.267;  -22.933;    0.000;9106.19993
 524.00; 9129.134;  -22.333;    0.000;9151.46712
 524.28; 9112.267;  -22.133;    0.000;9134.39993
 524.57; 9297.134;  -14.867;    0.000;9312.00046
 524.85; 9324.333;  -26.000;    0.000;9350.33301
 525.13; 9451.467;  -16.000;    0.000;9467.46680
 525.41; 9517.000;  -26.933;    0.000;9543.93333
 525.70; 9606.600;  -41.200;    0.000;9647.79961
 525.98; 9689.934;  -18.467;    0.000;9708.40026
 526.26; 9687.800;  -24.667;    0.000;9712.46647
 526.54; 9879.934;  -19.867;    0.000;9899.80026
 526.83; 9869.934;  -19.600;    0.000;9889.53359
 527.11; 9902.400;   -3.067;    0.000;9905.46706
 527.39; 9920.200;   -9.200;    0.000;9929.40020
 527.67;10155.533;  -15.000;    0.000;10170.53320
 527.96;10167.134;  -16.600;    0.000;10183.73379
 528.24;10190.134;  -30.867;    0.000;10221.00046
 528.52;10328.066;  -16.733;    0.000;10344.79974
 528.80;10466.200;   10.400;    0.000;10455.80020
 529.08;10394.934;  -21.133;    0.000;10416.06693
 529.37;10409.866;  -23.667;    0.000;10433.53288
 529.65;10574.533;   -2.867;    0.000;10577.39987
 529.93;10642.467;   -7.800;    0.000;10650.26680
 530.21;10646.667;  -29.867;    0.000;10676.53366
 530.50;10681.667;  -12.267;    0.000;10693.93366
 530.78;10678.733;  -23.333;    0.000;10702.06673
 531.06;10745.467;  -24.200;    0.000;10769.66680
 531.34;10912.066;  -18.733;    0.000;10930.79974
 531.62;10958.667;  -22.333;    0.000;10981.00033
 531.91;10952.467;  -32.067;    0.000;10984.53346
 532.19;11007.800;  -24.467;    0.000;11032.26647
 532.47;10981.267;  -14.600;    0.000;10995.86660
 532.75;11101.200;   -7.733;    0.000;11108.93353
 533.03;11162.733;   13.200;    0.000;11149.53340
 533.32;11189.400;   -6.533;    0.000;11195.93372
 533.60;11261.934;   -6.333;    0.000;11268.26693
 533.88;11265.866;   10.867;    0.000;11254.99954
 534.16;11330.400;  -34.533;    0.000;11364.93372
 534.44;11429.400;    5.133;    0.000;11424.26706
 534.72;11459.134;  -28.333;    0.000;11487.46712
 535.01;11479.467;  -34.333;    0.000;11513.80013
 535.29;11453.000;  -26.867;    0.000;11479.86667
 535.57;11501.267;  -25.333;    0.000;11526.59994
 535.85;11632.800;  -21.200;    0.000;11653.99981
 536.13;11731.267;  -14.533;    0.000;11745.79994
 536.42;11691.000;  -26.133;    0.000;11717.13333
 536.70;11774.200;  -21.267;    0.000;11795.46686
 536.98;11766.733;  -12.400;    0.000;11779.13340
 537.26;11845.600;  -10.067;    0.000;11855.66628
 537.54;11929.800;  -10.533;    0.000;11940.33314
 537.82;11915.934;    3.800;    0.000;11912.13359
 538.10;12003.200;  -15.667;    0.000;12018.86686
 538.39;11984.400;   -7.867;    0.000;11992.26706
 538.67;12096.400;   -9.667;    0.000;12106.06706
 538.95;12135.134;  -27.000;    0.000;12162.13379
 539.23;12130.866;  -35.600;    0.000;12166.46621
 539.51;12108.533;   -9.933;    0.000;12118.46654
 539.79;12134.800;  -34.533;    0.000;12169.33314
 540.07;12209.800;  -43.267;    0.000;12253.06647
 540.36;12223.600;  -42.867;    0.000;12266.46627
 540.64;12332.267;  -23.600;    0.000;12355.86660
 540.92;12376.533;  -21.667;    0.000;12398.19987
 541.20;12327.333;  -11.133;    0.000;12338.46634
 541.48;12530.600;    0.200;    0.000;12530.39961
 541.76;12435.866;  -12.067;    0.000;12447.93288
 542.04;12439.934;  -18.400;    0.000;12458.33359
 542.32;12545.467;  -27.000;    0.000;12572.46680
 542.61;12596.066;  -18.600;    0.000;12614.66641
 542.89;12637.267;    0.067;    0.000;12637.19993
 543.17;12505.934;  -37.133;    0.000;12543.06693
 543.45;12633.400;  -35.000;    0.000;12668.40039
 543.73;12697.934;  -23.467;    0.000;12721.40026
 544.01;12773.733;  -11.000;    0.000;12784.73340
 544.29;12769.533;  -20.733;    0.000;12790.26654
 544.57;12766.467;  -25.600;    0.000;12792.06680
 544.85;12727.733;  -20.733;    0.000;12748.46673
 545.13;12779.267;   -7.733;    0.000;12786.99993
 545.42;12736.533;   -8.600;    0.000;12745.13320
 545.70;12809.066;  -10.667;    0.000;12819.73307
 545.98;12826.533;  -30.667;    0.000;12857.19987
 546.26;12869.733;    2.867;    0.000;12866.86673
 546.54;12929.533;  -23.667;    0.000;12953.19987
 546.82;12935.733;  -17.600;    0.000;12953.33340
 547.10;13071.467;    5.533;    0.000;13065.93346
 547.38;12939.733;  -20.267;    0.000;12960.00006
 547.66;13082.533;  -15.600;    0.000;13098.13320
 547.94;13034.400;  -31.333;    0.000;13065.73372
 548.22;13012.400;  -27.600;    0.000;13040.00039
 548.50;13109.667;  -28.400;    0.000;13138.06699
 548.78;13059.600;  -19.533;    0.000;13079.13294
 549.06;12994.533;  -10.200;    0.000;13004.73320
 549.34;13029.200;  -26.867;    0.000;13056.06686
 549.63;13129.733;   17.867;    0.000;13111.86673
 549.91;13087.667;   -6.400;    0.000;13094.06699
 550.19;13129.667;  -18.400;    0.000;13148.06699
 550.47;13148.467;  -19.800;    0.000;13168.26680
 550.75;13131.200;  -22.800;    0.000;13154.00019
 551.03;13174.467;  -26.067;    0.000;13200.53346
 551.31;13132.934;   -8.600;    0.000;13141.53359
 551.59;13196.934;  -15.200;    0.000;13212.13359
 551.87;13131.200;   -8.333;    0.000;13139.53353
 552.15;13074.934;  -31.267;    0.000;13106.20026
 552.43;13163.066;   -4.533;    0.000;13167.59974
 552.71;13186.667;  -23.467;    0.000;13210.13366
 552.99;13265.866;  -20.533;    0.000;13286.39954
 553.27;13261.533;  -33.800;    0.000;13295.33320
 553.55;13131.134;  -17.667;    0.000;13148.80046
 553.83;13162.866;  -31.533;    0.000;13194.39954
 554.11;13237.333;  -13.267;    0.000;13250.59967
 554.39;13258.467;   -4.333;    0.000;13262.80013
 554.67;13173.533;  -21.467;    0.000;13194.99987
 554.95;13246.866;    6.667;    0.000;13240.19954
 555.23;13184.134;    3.533;    0.000;13180.60046
 555.51;13225.866;  -33.867;    0.000;13259.73288
 555.79;13251.333;  -16.067;    0.000;13267.39968
 556.07;13222.000;  -17.467;    0.000;13239.46667
 556.35;13202.866;  -18.600;    0.000;13221.46621
 556.63;13206.533;  -16.667;    0.000;13223.19987
 556.91;13106.066;   -5.867;    0.000;13111.93307
 557.19;13150.733;  -13.600;    0.000;13164.33340
 557.47;13210.866;   -8.267;    0.000;13219.13288
 557.75;13119.800;  -27.267;    0.000;13147.06647
 558.03;13125.400;    5.200;    0.000;13120.20039
 558.31;13239.134;  -33.533;    0.000;13272.66712
 558.59;13153.600;  -18.267;    0.000;13171.86628
 558.87;13132.066;  -21.467;    0.000;13153.53307
 559.15;13212.533;  -29.133;    0.000;13241.66654
 559.43;13147.600;   -9.467;    0.000;13157.06628
 559.71;13198.467;   -1.267;    0.000;13199.73346
 559.99;13229.733;  -21.067;    0.000;13250.80007
 560.27;13195.667;   -9.467;    0.000;13205.13366
 560.55;13176.200;   -7.400;    0.000;13183.60020
 560.82;13133.066;  -30.733;    0.000;13163.79974
 561.10;13070.400;  -22.667;    0.000;13093.06706
 561.38;13114.066;    3.733;    0.000;13110.33307
 561.66;13052.533;  -16.200;    0.000;13068.73320
 561.94;12970.733;  -25.267;    0.000;12996.00006
 562.22;13118.866;  -14.267;    0.000;13133.13288
 562.50;13043.400;   -4.733;    0.000;13048.13372
 562.78;13018.200;  -19.333;    0.000;13037.53353
 563.06;13087.134;  -12.400;    0.000;13099.53379
 563.34;13005.667;  -24.133;    0.000;13029.80033
 563.62;12965.533;   -9.867;    0.000;12975.39987
 563.90;12932.600;  -31.467;    0.000;12964.06628
 564.18;12952.134;  -19.867;    0.000;12972.00046
 564.46;12852.733;  -11.600;    0.000;12864.33340
 564.74;12860.467;  -16.467;    0.000;12876.93346
 565.01;12898.066;  -22.467;    0.000;12920.53307
 565.29;12892.200;   -8.933;    0.000;12901.13353
 565.57;12856.600;  -23.000;    0.000;12879.59961
 565.85;12764.667;   -3.267;    0.000;12767.93366
 566.13;12693.267;  -16.533;    0.000;12709.79993
 566.41;12763.134;   23.600;    0.000;12739.53379
 566.69;12709.134;  -21.133;    0.000;12730.26712
 566.97;12700.400;  -13.267;    0.000;12713.66706
 567.25;12684.800;   -6.867;    0.000;12691.66647
 567.53;12664.400;  -28.867;    0.000;12693.26706
 567.80;12564.866;   -2.600;    0.000;12567.46621
 568.08;12577.267;   -7.267;    0.000;12584.53327
 568.36;12581.533;  -24.600;    0.000;12606.13320
 568.64;12568.200;  -19.067;    0.000;12587.26686
 568.92;12454.467;    1.467;    0.000;12453.00013
 569.20;12494.000;  -12.667;    0.000;12506.66667
 569.48;12343.667;  -29.467;    0.000;12373.13366
 569.76;12417.066;  -36.933;    0.000;12453.99974
 570.03;12382.333;  -11.400;    0.000;12393.73301
 570.31;12281.134;   -9.600;    0.000;12290.73379
 570.59;12339.533;  -14.600;    0.000;12354.13320
 570.87;12336.934;  -11.267;    0.000;12348.20026
 571.15;12189.600;  -39.867;    0.000;12229.46627
 571.43;12243.866;  -28.933;    0.000;12272.79954
 571.71;12144.733;  -31.267;    0.000;12176.00006
 571.98;12147.533;  -11.600;    0.000;12159.13320
 572.26;12098.200;  -15.267;    0.000;12113.46686
 572.54;12083.467;  -12.333;    0.000;12095.80013
 572.82;12028.267;  -26.200;    0.000;12054.46660
 573.10;11973.000;   -9.933;    0.000;11982.93333
 573.38;11972.934;  -22.800;    0.000;11995.73359
 573.66;11953.667;  -18.133;    0.000;11971.80033
 573.93;11883.467;   -3.800;    0.000;11887.26680
 574.21;11871.533;  -28.933;    0.000;11900.46654
 574.49;11908.400;  -27.933;    0.000;11936.33372
 574.77;11762.800;   -7.667;    0.000;11770.46647
 575.05;11743.400;  -19.067;    0.000;11762.46706
 575.33;11708.066;  -24.600;    0.000;11732.66641
 575.60;11709.134;  -31.400;    0.000;11740.53379
 575.88;11691.267;  -17.467;    0.000;11708.73327
 576.16;11619.467;  -16.000;    0.000;11635.46680
 576.44;11523.333;   -9.867;    0.000;11533.19967
 576.72;11503.200;   -9.067;    0.000;11512.26686
 576.99;11453.934;  -19.867;    0.000;11473.80026
 577.27;11453.733;  -11.400;    0.000;11465.13340
 577.55;11391.000;    2.200;    0.000;11388.80000
 577.83;11342.800;  -25.000;    0.000;11367.79980
 578.11;11384.733;   -3.200;    0.000;11387.93340
 578.38;11309.600;  -26.133;    0.000;11335.73294
 578.66;11281.000;  -26.667;    0.000;11307.66667
 578.94;11200.000;  -41.867;    0.000;11241.86666
 579.22;11170.000;  -27.600;    0.000;11197.60000
 579.50;11143.400;    2.933;    0.000;11140.46706
 579.77;11026.200;  -10.067;    0.000;11036.26686
 580.05;11009.333;  -32.733;    0.000;11042.06634
 580.33;10927.000;  -14.533;    0.000;10941.53333
 580.61;10829.866;  -30.000;    0.000;10859.86621
 580.88;10916.667;  -11.733;    0.000;10928.40033
 581.16;10845.000;  -38.867;    0.000;10883.86666
 581.44;10903.800;  -13.200;    0.000;10916.99980
 581.72;10611.866;  -11.933;    0.000;10623.79954
 581.99;10615.200;   -4.933;    0.000;10620.13353
 582.27;10543.066;  -23.467;    0.000;10566.53307
 582.55;10567.134;  -32.733;    0.000;10599.86712
 582.83;10529.866;  -15.933;    0.000;10545.79954
 583.10;10456.066;   -8.533;    0.000;10464.59974
 583.38;10418.600;  -26.933;    0.000;10445.53294
 583.66;10376.866;   -3.267;    0.000;10380.13288
 583.94;10361.600;  -33.467;    0.000;10395.06628
 584.21;10266.066;  -18.600;    0.000;10284.66641
 584.49;10160.934;  -28.400;    0.000;10189.33359
 584.77;10108.733;  -38.067;    0.000;10146.80006
 585.05;10050.000;  -15.800;    0.000;10065.80000
 585.32;10056.800;  -10.533;    0.000;10067.33314
 585.60;10071.934;  -19.933;    0.000;10091.86693
 585.88; 9917.000;  -19.133;    0.000;9936.13333
 586.16; 9993.800;  -11.733;    0.000;10005.53314
 586.43; 9911.600;   -0.667;    0.000;9912.26628
 586.71; 9836.934;   -6.667;    0.000;9843.60026
 586.99; 9728.533;  -38.867;    0.000;9767.39987
 587.26; 9722.600;  -30.933;    0.000;9753.53294
 587.54; 9553.267;  -17.600;    0.000;9570.86660
 587.82; 9634.066;  -16.000;    0.000;9650.06641
 588.10; 9485.533;  -28.200;    0.000;9513.73320
 588.37; 9414.800;  -31.533;    0.000;9446.33314
 588.65; 9440.600;  -32.933;    0.000;9473.53294
 588.93; 9368.733;  -31.200;    0.000;9399.93340
 589.20; 9281.134;   -5.200;    0.000;9286.33379
 589.48; 9315.400;  -14.000;    0.000;9329.40039
 589.76; 9299.667;    9.733;    0.000;9289.93366
 590.03; 9152.533;   -8.467;    0.000;9160.99987
 590.31; 9144.934;  -14.333;    0.000;9159.26693
 590.59; 9020.400;  -10.933;    0.000;9031.33372
 590.86; 8999.934;  -23.533;    0.000;9023.46693
 591.14; 8931.200;  -40.867;    0.000;8972.06686
 591.42; 8942.400;  -25.467;    0.000;8967.86706
 591.70; 8875.667;   -2.467;    0.000;8878.13366
 591.97; 8745.134;  -32.800;    0.000;8777.93379
 592.25; 8669.733;  -21.400;    0.000;8691.13340
 592.53; 8681.667;  -12.200;    0.000;8693.86699
 592.80; 8660.533;  -42.000;    0.000;8702.53320
 593.08; 8500.733;   -9.667;    0.000;8510.40007
 593.36; 8475.733;    6.733;    0.000;8469.00007
 593.63; 8489.400;  -14.400;    0.000;8503.80039
 593.91; 8287.200;  -26.400;    0.000;8313.60019
 594.18; 8347.600;   -4.600;    0.000;8352.19961
 594.46; 8252.934;  -35.333;    0.000;8288.26693
 594.74; 8249.600;  -15.733;    0.000;8265.33294
 595.01; 8181.933;  -53.600;    0.000;8235.53310
 595.29; 8052.867;  -34.467;    0.000;8087.33337
 595.57; 8020.333;  -22.200;    0.000;8042.53350
 595.84; 8000.133;  -28.800;    0.000;8028.93330
 596.12; 7994.667;  -32.533;    0.000;8027.19984
 596.40; 7891.400;  -21.667;    0.000;7913.06657
 596.67; 7757.733;  -44.867;    0.000;7802.60006
 596.95; 7824.867;  -26.267;    0.000;7851.13337
 597.22; 7656.200;  -16.333;    0.000;7672.53353
 597.50; 7609.600;    2.800;    0.000;7606.80010
 597.78; 7583.133;  -19.133;    0.000;7602.26663
 598.05; 7588.067;  -25.933;    0.000;7614.00023
 598.33; 7447.400;  -38.000;    0.000;7485.39990
 598.61; 7410.933;  -25.867;    0.000;7436.79977
 598.88; 7383.200;  -26.067;    0.000;7409.26686
 599.16; 7263.400;  -17.067;    0.000;7280.46657
 599.43; 7188.267;  -42.200;    0.000;7230.46660
 599.71; 7140.333;  -23.067;    0.000;7163.40016
 599.99; 7150.267;  -28.533;    0.000;7178.79993
 600.26; 7120.000;  -30.933;    0.000;7150.93333
 600.54; 7094.933;  -12.867;    0.000;7107.79977
 600.81; 7044.533;  -10.800;    0.000;7055.33320
 601.09; 6963.200;  -35.067;    0.000;6998.26686
 601.36; 6968.200;  -22.067;    0.000;6990.26686
 601.64; 6872.133;   -9.333;    0.000;6881.46663
 601.92; 6788.733;  -14.667;    0.000;6803.40007
 602.19; 6800.933;  -31.867;    0.000;6832.79977
 602.47; 6690.133;  -30.667;    0.000;6720.79997
 602.74; 6626.467;  -13.067;    0.000;6639.53346
 603.02; 6703.933;  -37.067;    0.000;6740.99977
 603.29; 6542.867;  -30.733;    0.000;6573.60003
 603.57; 6464.667;  -23.133;    0.000;6487.79984
 603.85; 6351.667;  -32.000;    0.000;6383.66650
 604.12; 6530.133;   12.267;    0.000;6517.86663
 604.40; 6357.067;  -32.467;    0.000;6389.53356
 604.67; 6359.533;  -32.733;    0.000;6392.26654
 604.95; 6284.667;  -37.800;    0.000;6322.46650
 605.22; 6240.000;  -13.067;    0.000;6253.06667
 605.50; 6158.600;  -20.933;    0.000;6179.53343
 605.77; 6184.600;  -10.867;    0.000;6195.46676
 606.05; 6159.067;  -34.067;    0.000;6193.13356
 606.33; 6134.533;  -12.467;    0.000;6146.99987
 606.60; 6075.600;  -31.200;    0.000;6106.80010
 606.88; 5982.267;   -4.400;    0.000;5986.66660
 607.15; 5913.533;  -16.867;    0.000;5930.39987
 607.43; 5885.400;  -17.733;    0.000;5903.13324
 607.70; 5931.933;  -21.933;    0.000;5953.86644
 607.98; 5886.867;  -51.333;    0.000;5938.20003
 608.25; 5764.400;  -33.467;    0.000;5797.86657
 608.53; 5806.800;  -39.867;    0.000;5846.66647
 608.80; 5732.467;  -48.867;    0.000;5781.33346
 609.08; 5747.000;  -22.400;    0.000;5769.40000
 609.35; 5755.333;  -35.600;    0.000;5790.93349
 609.63; 5655.267;  -30.067;    0.000;5685.33327
 609.90; 5606.733;  -28.067;    0.000;5634.80007
 610.18; 5550.733;  -21.000;    0.000;5571.73340
 610.45; 5483.267;  -37.133;    0.000;5520.39994
 610.73; 5430.267;  -21.000;    0.000;5451.26660
 611.00; 5487.133;  -12.000;    0.000;5499.13330
 611.28; 5423.333;  -45.267;    0.000;5468.60016
 611.55; 5400.333;  -54.667;    0.000;5455.00016
 611.83; 5469.000;  -43.200;    0.000;5512.20000
 612.10; 5291.133;  -31.600;    0.000;5322.73330
 612.38; 5261.000;  -38.067;    0.000;5299.06667
 612.65; 5290.533;  -35.200;    0.000;5325.73320
 612.93; 5227.200;  -49.933;    0.000;5277.13353
 613.20; 5246.000;  -27.667;    0.000;5273.66667
 613.48; 5214.600;  -43.733;    0.000;5258.33343
 613.75; 5153.067;  -45.867;    0.000;5198.93356
 614.03; 5076.133;   -9.400;    0.000;5085.53330
 614.30; 5075.067;  -31.933;    0.000;5107.00023
 614.57; 5116.067;  -55.267;    0.000;5171.33356
 614.85; 5042.067;  -18.400;    0.000;5060.46689
 615.12; 5049.000;  -46.400;    0.000;5095.40000
 615.40; 4966.467;  -57.000;    0.000;5023.46680
 615.67; 4941.333;  -36.000;    0.000;4977.33350
 615.95; 4900.200;  -34.800;    0.000;4935.00019
 616.22; 4905.800;  -28.867;    0.000;4934.66647
 616.50; 4911.933;  -28.733;    0.000;4940.66644
 616.77; 4840.600;  -40.000;    0.000;4880.60010
 617.05; 4789.133;  -19.733;    0.000;4808.86663
 617.32; 4746.733;  -42.933;    0.000;4789.66673
 617.59; 4729.867;  -43.067;    0.000;4772.93336
 617.87; 4661.600;  -16.533;    0.000;4678.13343
 618.14; 4653.867;  -36.400;    0.000;4690.26670
 618.42; 4625.467;  -50.600;    0.000;4676.06680
 618.69; 4517.067;  -54.467;    0.000;4571.53356
 618.97; 4451.533;  -42.067;    0.000;4493.59987
 619.24; 4472.800;  -37.267;    0.000;4510.06647
 619.51; 4404.733;  -30.667;    0.000;4435.40006
 619.79; 4336.067;  -36.667;    0.000;4372.73356
 620.06; 4303.733;  -28.400;    0.000;4332.13340
 620.34; 4185.733;  -38.267;    0.000;4224.00006
 620.61; 4149.267;  -43.800;    0.000;4193.06660
 620.88; 4163.200;  -33.600;    0.000;4196.80019
 621.16; 4158.067;  -34.333;    0.000;4192.40023
 621.43; 4181.667;  -35.667;    0.000;4217.33317
 621.71; 4145.800;  -20.133;    0.000;4165.93314
 621.98; 4170.867;  -43.667;    0.000;4214.53337
 622.25; 4093.333;  -35.467;    0.000;4128.79992
 622.53; 4022.667;  -33.200;    0.000;4055.86675
 622.80; 4022.667;  -49.200;    0.000;4071.86675
 623.08; 3995.000;  -54.400;    0.000;4049.40000
 623.35; 3948.933;  -26.467;    0.000;3975.40002
 623.62; 3964.667;  -41.000;    0.000;4005.66675
 623.90; 3889.933;  -36.667;    0.000;3926.60002
 624.17; 3860.133;  -36.600;    0.000;3896.73330
 624.44; 3830.933;  -37.533;    0.000;3868.46668
 624.72; 3846.067;  -52.133;    0.000;3898.19999
 624.99; 3831.533;  -35.000;    0.000;3866.53345
 625.26; 3810.867;  -56.200;    0.000;3867.06670
 625.54; 3870.067;  -27.667;    0.000;3897.73332
 625.81; 3862.600;  -45.733;    0.000;3908.33343
 626.09; 3819.333;  -46.467;    0.000;3865.79992
 626.36; 3801.600;  -50.200;    0.000;3851.80010
 626.63; 3818.133;  -33.267;    0.000;3851.39997
 626.91; 3766.467;  -41.667;    0.000;3808.13322
 627.18; 3768.867;  -29.533;    0.000;3798.40003
 627.45; 3752.600;  -47.400;    0.000;3800.00010
 627.73; 3691.267;  -27.200;    0.000;3718.46660
 628.00; 3731.267;  -49.400;    0.000;3780.66660
 628.27; 3675.000;  -27.533;    0.000;3702.53333
 628.55; 3683.467;  -33.000;    0.000;3716.46655
 628.82; 3661.667;  -49.267;    0.000;3710.93341
 629.09; 3704.933;  -20.867;    0.000;3725.80002
 629.37; 3664.533;  -53.267;    0.000;3717.80011
 629.64; 3607.400;  -28.267;    0.000;3635.66657
 629.91; 3624.400;  -45.467;    0.000;3669.86657
 630.18; 3607.400;  -44.333;    0.000;3651.73323
 630.46; 3591.600;  -29.467;    0.000;3621.06676
 630.73; 3546.733;  -33.533;    0.000;3580.26673
 631.00; 3587.533;  -39.867;    0.000;3627.40011
 631.28; 3568.667;  -61.667;    0.000;3630.33342
 631.55; 3542.800;  -56.467;    0.000;3599.26672
 631.82; 3487.933;  -43.467;    0.000;3531.40002
 632.10; 3468.467;  -35.600;    0.000;3504.06655
 632.37; 3471.333;  -37.800;    0.000;3509.13325
 632.64; 3434.067;  -41.933;    0.000;3475.99998
 632.91; 3473.333;  -21.533;    0.000;3494.86658
 633.19; 3471.133;  -27.200;    0.000;3498.33330
 633.46; 3430.533;  -45.533;    0.000;3476.06678
 633.73; 3461.733;  -18.467;    0.000;3480.20007
 634.01; 3451.933;  -21.267;    0.000;3473.20002
 634.28; 3431.867;  -31.467;    0.000;3463.33337
 634.55; 3398.000;  -12.933;    0.000;3410.93333
 634.82; 3414.133;  -40.800;    0.000;3454.93330
 635.10; 3426.933;  -50.200;    0.000;3477.13335
 635.37; 3423.467;  -41.467;    0.000;3464.93322
 635.64; 3358.600;  -56.800;    0.000;3415.40010
 635.91; 3368.667;  -63.133;    0.000;3431.80008
 636.19; 3419.333;  -44.067;    0.000;3463.39992
 636.46; 3363.400;  -59.733;    0.000;3423.13324
 636.73; 3453.467;  -17.333;    0.000;3470.79989
 637.00; 3442.000;  -47.133;    0.000;3489.13334
 637.28; 3465.933;  -42.533;    0.000;3508.46668
 637.55; 3470.200;  -19.600;    0.000;3489.79995
 637.82; 3327.000;  -54.200;    0.000;3381.20000
 638.09; 3266.333;  -41.667;    0.000;3307.99992
 638.37; 3258.200;  -64.200;    0.000;3322.39995
 638.64; 3286.533;  -54.600;    0.000;3341.13345
 638.91; 3259.733;  -31.867;    0.000;3291.60007
 639.18; 3236.733;  -43.933;    0.000;3280.66673
 639.46; 3239.733;  -43.533;    0.000;3283.26673
 639.73; 3203.467;  -39.600;    0.000;3243.06655
 640.00; 3154.200;  -51.600;    0.000;3205.79995
 640.27; 3130.400;  -51.933;    0.000;3182.33324
 640.54; 3171.533;  -53.333;    0.000;3224.86678
 640.82; 3100.067;  -23.800;    0.000;3123.86665
 641.09; 3087.400;  -48.533;    0.000;3135.93324
 641.36; 3087.067;  -52.533;    0.000;3139.59998
 641.63; 2996.533;  -62.733;    0.000;3059.26678
 641.91; 2999.867;  -50.133;    0.000;3050.00003
 642.18; 2945.533;  -75.067;    0.000;3020.60011
 642.45; 2916.667;  -50.133;    0.000;2966.80008
 642.72; 2875.667;  -50.400;    0.000;2926.06675
 642.99; 2891.600;  -10.533;    0.000;2902.13343
 643.26; 2811.400;  -43.133;    0.000;2854.53324
 643.54; 2827.667;  -32.533;    0.000;2860.20008
 643.81; 2798.933;  -61.933;    0.000;2860.86668
 644.08; 2748.133;  -43.000;    0.000;2791.13330
 644.35; 2748.867;  -48.667;    0.000;2797.53337
 644.62; 2685.533;  -34.400;    0.000;2719.93345
 644.90; 2683.600;  -40.533;    0.000;2724.13343
 645.17; 2695.600;  -35.200;    0.000;2730.80010
 645.44; 2677.133;  -56.467;    0.000;2733.59997
 645.71; 2653.467;  -61.600;    0.000;2715.06655
 645.98; 2664.067;  -53.733;    0.000;2717.79998
 646.25; 2608.400;  -49.333;    0.000;2657.73323
 646.53; 2558.000;  -48.600;    0.000;2606.60000
 646.80; 2576.667;  -45.267;    0.000;2621.93341
 647.07; 2618.667;  -51.867;    0.000;2670.53341
 647.34; 2525.533;  -30.133;    0.000;2555.66678
 647.61; 2556.267;  -27.533;    0.000;2583.79993
 647.88; 2555.933;  -15.067;    0.000;2571.00002
 648.15; 2504.133;  -64.333;    0.000;2568.46664
 648.43; 2483.467;  -24.067;    0.000;2507.53322
 648.70; 2442.667;  -66.733;    0.000;2509.40008
 648.97; 2397.533;  -58.133;    0.000;2455.66678
 649.24; 2434.133;  -53.733;    0.000;2487.86663
 649.51; 2409.200;  -52.267;    0.000;2461.46662
 649.78; 2396.067;  -38.533;    0.000;2434.59998
 650.05; 2377.400;  -11.867;    0.000;2389.26657
 650.32; 2433.400;   15.800;    0.000;2417.59990
 650.60; 2373.667;  -46.733;    0.000;2420.40008
 650.87; 2339.267;  -44.000;    0.000;2383.26660
 651.14; 2353.533;  -48.933;    0.000;2402.46678
 651.41; 2275.933;  -47.333;    0.000;2323.26668
 651.68; 2298.533;  -53.200;    0.000;2351.73345
 651.95; 2352.933;  -38.733;    0.000;2391.66668
 652.22; 2262.333;  -43.133;    0.000;2305.46659
 652.49; 2226.467;  -53.867;    0.000;2280.33322
 652.76; 2247.533;  -46.200;    0.000;2293.73345
 653.03; 2229.267;  -64.867;    0.000;2294.13327
 653.31; 2201.400;  -35.133;    0.000;2236.53324
 653.58; 2246.067;  -57.267;    0.000;2303.33332
 653.85; 2196.067;  -50.800;    0.000;2246.86665
 654.12; 2198.533;  -57.600;    0.000;2256.13345
 654.39; 2182.133;  -25.333;    0.000;2207.46663
 654.66; 2146.800;  -42.533;    0.000;2189.33338
 654.93; 2173.800;   11.800;    0.000;2162.00005
 655.20; 2137.933;  -53.333;    0.000;2191.26668
 655.47; 2084.267;  -57.267;    0.000;2141.53327
 655.74; 2120.733;  -29.800;    0.000;2150.53340
 656.01; 2065.000;  -65.733;    0.000;2130.73333
 656.28; 2011.467;  -52.000;    0.000;2063.46667
 656.55; 2054.133;  -33.000;    0.000;2087.13330
 656.83; 2011.933;  -47.267;    0.000;2059.20002
 657.10; 2006.267;  -60.733;    0.000;2067.00006
 657.37; 1991.133;  -45.067;    0.000;2036.19997
 657.64; 2009.133;  -50.000;    0.000;2059.13330
 657.91; 1936.533;  -53.867;    0.000;1990.39999
 658.18; 1961.600;  -48.067;    0.000;2009.66664
 658.45; 1947.467;  -42.467;    0.000;1989.93334
 658.72; 1918.467;  -42.267;    0.000;1960.73334
 658.99; 1884.867;  -39.000;    0.000;1923.86670
 659.26; 1936.400;  -19.000;    0.000;1955.40002
 659.53; 1871.800;  -53.800;    0.000;1925.60005
 659.80; 1878.267;  -43.133;    0.000;1921.40006
 660.07; 1864.267;  -41.733;    0.000;1906.00006
 660.34; 1911.667;  -43.133;    0.000;1954.79996
 660.61; 1828.933;  -67.800;    0.000;1896.73335
 660.88; 1813.400;  -76.600;    0.000;1890.00002
 661.15; 1838.933;  -54.733;    0.000;1893.66668
 661.42; 1826.933;  -59.533;    0.000;1886.46668
 661.69; 1777.667;  -54.333;    0.000;1831.99996
 661.96; 1762.133;  -60.800;    0.000;1822.93330
 662.23; 1740.867;  -68.133;    0.000;1809.00003
 662.50; 1714.733;  -51.867;    0.000;1766.59994
 662.77; 1707.533;  -57.733;    0.000;1765.26666
 663.04; 1722.000;  -67.133;    0.000;1789.13333
 663.31; 1724.533;  -82.933;    0.000;1807.46666
 663.58; 1730.933;  -38.067;    0.000;1769.00002
 663.85; 1695.533;  -58.800;    0.000;1754.33332
 664.12; 1697.533;  -53.667;    0.000;1751.19999
 664.39; 1623.600;  -61.600;    0.000;1685.19997
 664.66; 1643.000;  -71.067;    0.000;1714.06667
 664.93; 1646.267;  -66.333;    0.000;1712.60006
 665.20; 1640.667;  -38.133;    0.000;1678.79996
 665.47; 1622.600;  -44.933;    0.000;1667.53331
 665.74; 1559.267;  -64.400;    0.000;1623.66673
 666.01; 1619.533;  -57.733;    0.000;1677.26666
 666.28; 1597.867;  -54.400;    0.000;1652.26670
 666.55; 1588.200;  -49.667;    0.000;1637.86662
 666.82; 1548.867;  -48.467;    0.000;1597.33337
 667.09; 1558.667;  -49.667;    0.000;1608.33329
 667.36; 1502.933;  -65.467;    0.000;1568.40002
 667.63; 1539.267;  -59.533;    0.000;1598.80006
 667.90; 1522.133;  -53.133;    0.000;1575.26664
 668.16; 1508.933;  -56.267;    0.000;1565.20002
 668.43; 1477.200;  -51.400;    0.000;1528.59995
 668.70; 1430.933;  -30.067;    0.000;1461.00002
 668.97; 1459.133;  -71.133;    0.000;1530.26663
 669.24; 1471.467;  -55.533;    0.000;1527.00001
 669.51; 1464.600;  -56.733;    0.000;1521.33331
 669.78; 1439.200;  -53.067;    0.000;1492.26662
 670.05; 1422.867;  -62.467;    0.000;1485.33337
 670.32; 1424.067;  -46.533;    0.000;1470.59998
 670.59; 1393.867;  -59.733;    0.000;1453.60003
 670.86; 1371.333;  -68.867;    0.000;1440.20004
 671.13; 1452.133;  -32.933;    0.000;1485.06664
 671.40; 1349.000;  -70.600;    0.000;1419.60000
 671.67; 1393.933;  -31.667;    0.000;1425.60002
 671.93; 1373.867;  -85.533;    0.000;1459.40003
 672.20; 1332.867;  -58.667;    0.000;1391.53337
 672.47; 1334.600;  -54.000;    0.000;1388.59998
 672.74; 1347.867;  -73.800;    0.000;1421.66670
 673.01; 1293.133;  -72.400;    0.000;1365.53330
 673.28; 1293.800;  -39.400;    0.000;1333.20005
 673.55; 1272.867;  -52.467;    0.000;1325.33337
 673.82; 1277.333;  -58.933;    0.000;1336.26671
 674.09; 1283.267;  -55.133;    0.000;1338.40006
 674.35; 1237.000;  -64.800;    0.000;1301.80000
 674.62; 1236.733;  -69.000;    0.000;1305.73328
 674.89; 1241.400;  -66.467;    0.000;1307.86669
 675.16; 1225.000;  -66.200;    0.000;1291.20000
 675.43; 1221.933;  -63.200;    0.000;1285.13335
 675.70; 1246.533;  -44.533;    0.000;1291.06666
 675.97; 1236.733;  -48.933;    0.000;1285.66661
 676.24; 1202.467;  -73.733;    0.000;1276.20000
 676.50; 1214.533;  -74.267;    0.000;1288.80000
 676.77; 1178.400;  -65.267;    0.000;1243.66669
 677.04; 1170.333;  -63.200;    0.000;1233.53337
 677.31; 1141.333;  -78.133;    0.000;1219.46671
 677.58; 1144.067;  -51.467;    0.000;1195.53332
 677.85; 1151.400;  -67.067;    0.000;1218.46669
 678.12; 1112.533;  -47.133;    0.000;1159.66666
 678.38; 1132.467;  -44.267;    0.000;1176.73334
 678.65; 1088.400;  -52.933;    0.000;1141.33336
 678.92; 1123.800;  -70.067;    0.000;1193.86671
 679.19; 1131.333;  -33.933;    0.000;1165.26671
 679.46; 1100.800;  -58.600;    0.000;1159.40005
 679.73; 1096.467;  -54.800;    0.000;1151.26667
 679.99; 1046.600;  -81.533;    0.000;1128.13331
 680.26; 1033.067;  -64.067;    0.000;1097.13332
 680.53; 1051.067;  -74.267;    0.000;1125.33332
 680.80; 1019.600;  -68.533;    0.000;1088.13331
 681.07; 1058.733;  -59.733;    0.000;1118.46661
 681.33; 1030.533;  -61.933;    0.000;1092.46666
 681.60;  995.200;  -61.867;    0.000;1057.06668
 681.87; 1004.267;  -67.267;    0.000;1071.53333
 682.14;  999.133;  -55.800;    0.000;1054.93336
 682.41;  986.667;  -67.200;    0.000;1053.86668
 682.67;  958.800;  -53.067;    0.000;1011.86665
 682.94;  983.733;  -61.067;    0.000;1044.80000
 683.21;  953.533;  -72.733;    0.000;1026.26665
 683.48;  962.067;  -63.133;    0.000;1025.19999
 683.75;  964.733;  -64.200;    0.000;1028.93333
 684.01;  952.000;  -35.800;    0.000;987.80000
 684.28;  917.000;  -82.733;    0.000;999.73333
 684.55;  946.467;  -48.533;    0.000;995.00001
 684.82;  904.000;  -62.600;    0.000;966.60000
 685.09;  917.267;  -22.467;    0.000;939.73333
 685.35;  920.200;  -44.667;    0.000;964.86668
 685.62;  907.333;  -58.067;    0.000;965.39998
 685.89;  899.600;  -50.467;    0.000;950.06664
 686.16;  873.467;  -64.667;    0.000;938.13334
 686.42;  875.200;  -73.533;    0.000;948.73335
 686.69;  873.267;  -45.400;    0.000;918.66666
 686.96;  811.733;  -79.067;    0.000;890.80000
 687.23;  867.067;  -32.600;    0.000;899.66665
 687.49;  865.400;  -57.000;    0.000;922.40002
 687.76;  829.400;  -60.067;    0.000;889.46669
 688.03;  835.333;  -84.467;    0.000;919.79998
 688.30;  821.333;  -64.267;    0.000;885.59998
 688.56;  828.467;  -64.133;    0.000;892.60001
 688.83;  788.200;  -60.600;    0.000;848.80001
 689.10;  778.267;  -66.000;    0.000;844.26666
 689.37;  793.400;  -81.400;    0.000;874.80003
 689.63;  784.267;  -62.000;    0.000;846.26666
 689.90;  782.200;  -60.133;    0.000;842.33335
 690.17;  752.733;  -63.933;    0.000;816.66667
 690.44;  757.333;  -71.267;    0.000;828.59998
 690.70;  719.400;  -85.667;    0.000;805.06669
 690.97;  778.533;  -45.067;    0.000;823.59999
 691.24;  777.133;  -44.067;    0.000;821.20003
 691.50;  712.800;  -64.933;    0.000;777.73332
 691.77;  729.600;  -59.000;    0.000;788.59998
 692.04;  715.933;  -61.333;    0.000;777.26668
 692.30;  682.600;  -61.533;    0.000;744.13331
 692.57;  711.400;  -67.867;    0.000;779.26669
 692.84;  675.933;  -85.000;    0.000;760.93335
 693.11;  698.133;  -47.333;    0.000;745.46669
 693.37;  667.533;  -61.800;    0.000;729.33332
 693.64;  653.933;  -57.267;    0.000;711.20002
 693.91;  683.667;  -68.733;    0.000;752.40002
 694.17;  686.600;  -48.333;    0.000;734.93331
 694.44;  659.400;  -63.200;    0.000;722.60003
 694.71;  641.267;  -71.333;    0.000;712.60000
 694.97;  662.333;  -65.667;    0.000;727.99998
 695.24;  654.800;  -68.600;    0.000;723.39999
 695.51;  593.067;  -89.600;    0.000;682.66665
 695.77;  609.667;  -64.933;    0.000;674.60002
 696.04;  618.733;  -80.333;    0.000;699.06667
 696.31;  578.133;  -59.667;    0.000;637.80003
 696.57;  601.000;  -44.533;    0.000;645.53333
 696.84;  595.000;  -57.000;    0.000;652.00000
 697.11;  565.200;  -66.200;    0.000;631.40001
 697.37;  594.467;  -44.733;    0.000;639.20001
 697.64;  546.067;  -60.800;    0.000;606.86665
 697.91;  559.333;  -68.733;    0.000;628.06664
 698.17;  557.333;  -78.400;    0.000;635.73331
 698.44;  526.867;  -52.467;    0.000;579.33331
 698.71;  557.000;  -62.667;    0.000;619.66667
 698.97;  531.667;  -59.667;    0.000;591.33335
 699.24;  535.800;  -63.067;    0.000;598.86665
 699.50;  513.200;  -50.267;    0.000;563.46668
 699.77;  537.733;  -43.067;    0.000;580.80000
 700.04;  508.400;  -56.533;    0.000;564.93333
 700.30;  493.267;  -78.933;    0.000;572.20000
 700.57;  504.400;  -75.533;    0.000;579.93333
 700.84;  469.533;  -49.933;    0.000;519.46666
 701.10;  444.733;  -77.133;    0.000;521.86667
 701.37;  488.267;  -50.867;    0.000;539.13333
 701.63;  478.133;  -59.667;    0.000;537.80000
 701.90;  478.400;  -64.333;    0.000;542.73333
 702.17;  476.267;  -50.067;    0.000;526.33333
 702.43;  444.867;  -71.533;    0.000;516.40000
 702.70;  448.667;  -42.533;    0.000;491.19999
 702.96;  418.333;  -78.200;    0.000;496.53334
 703.23;  413.733;  -67.400;    0.000;481.13334
 703.50;  389.000;  -72.667;    0.000;461.66666
 703.76;  428.667;  -55.200;    0.000;483.86666
 704.03;  384.533;  -61.333;    0.000;445.86666
 704.29;  376.533;  -79.267;    0.000;455.80000
 704.56;  352.133;  -73.333;    0.000;425.46667
 704.82;  357.933;  -65.267;    0.000;423.19999
 705.09;  362.733;  -70.800;    0.000;433.53334
 705.36;  354.733;  -78.267;    0.000;433.00001
 705.62;  397.467;  -45.200;    0.000;442.66668
 705.89;  353.667;  -77.867;    0.000;431.53333
 706.15;  323.467;  -78.733;    0.000;402.20000
 706.42;  356.800;  -38.333;    0.000;395.13332
 706.68;  321.600;  -78.400;    0.000;400.00001
 706.95;  326.800;  -54.067;    0.000;380.86665
 707.21;  313.933;  -88.067;    0.000;401.99998
 707.48;  310.733;  -62.533;    0.000;373.26667
 707.75;  305.200;  -75.533;    0.000;380.73335
 708.01;  280.400;  -76.400;    0.000;356.80000
 708.28;  288.800;  -57.667;    0.000;346.46666
 708.54;  300.000;  -59.267;    0.000;359.26667
 708.81;  302.800;  -68.600;    0.000;371.39999
 709.07;  293.267;  -67.600;    0.000;360.86666
 709.34;  247.333;  -81.933;    0.000;329.26666
 709.60;  266.067;  -75.667;    0.000;341.73335
 709.87;  286.733;  -49.200;    0.000;335.93334
 710.13;  243.800;  -74.200;    0.000;318.00000
 710.40;  249.933;  -83.667;    0.000;333.60000
 710.66;  253.533;  -78.200;    0.000;331.73334
 710.93;  227.067;  -71.333;    0.000;298.40000
 711.19;  255.800;  -66.133;    0.000;321.93333
 711.46;  246.533;  -62.667;    0.000;309.20001
 711.72;  240.133;  -47.600;    0.000;287.73333
 711.99;  254.933;  -73.733;    0.000;328.66666
 712.25;  223.467;  -52.067;    0.000;275.53333
 712.52;  230.267;  -54.867;    0.000;285.13333
 712.78;  228.267;  -71.867;    0.000;300.13333
 713.05;  200.400;  -81.667;    0.000;282.06666
 713.31;  212.467;  -70.133;    0.000;282.59999
 713.58;  200.867;  -54.333;    0.000;255.20000
 713.84;  205.933;  -66.600;    0.000;272.53333
 714.11;  221.867;  -68.533;    0.000;290.40000
 714.37;  244.667;  -46.133;    0.000;290.80001
 714.64;  202.200;  -95.067;    0.000;297.26666
 714.90;  213.400;  -52.333;    0.000;265.73333
 715.17;  196.733;  -59.933;    0.000;256.66667
 715.43;  201.933;  -56.667;    0.000;258.60000
 715.70;  203.400;  -78.467;    0.000;281.86666
 715.96;  176.467;  -61.067;    0.000;237.53333
 716.22;  172.867;  -78.200;    0.000;251.06667
 716.49;  187.067;  -65.933;    0.000;253.00000
 716.75;  187.867;  -87.733;    0.000;275.60000
 717.02;  197.733;  -63.267;    0.000;261.00000
 717.28;  221.067;  -83.200;    0.000;304.26666
 717.55;  192.000;  -90.133;    0.000;282.13333
 717.81;  200.667;  -56.467;    0.000;257.13334
 718.08;  193.867;  -68.200;    0.000;262.06667
 718.34;  182.467;  -83.600;    0.000;266.06666
 718.60;  190.933;  -61.200;    0.000;252.13334
 718.87;  205.267;  -65.800;    0.000;271.06667
 719.13;  179.933;  -67.267;    0.000;247.20000
 719.40;  183.200;  -70.800;    0.000;254.00000
 719.66;  193.133;  -79.067;    0.000;272.20000
 719.93;  180.800;  -70.867;    0.000;251.66667
 720.19;  167.667;  -67.800;    0.000;235.46667
 720.45;  169.133;  -78.533;    0.000;247.66666
 720.72;  193.933;  -45.533;    0.000;239.46667
 720.98;  196.133;  -72.000;    0.000;268.13333
 721.25;  170.267;  -82.000;    0.000;252.26666
 721.51;  167.000;  -64.733;    0.000;231.73333
 721.77;  184.267;  -66.867;    0.000;251.13333
 722.04;  196.067;  -51.200;    0.000;247.26667
 722.30;  189.533;  -42.133;    0.000;231.66668
 722.57;  164.133;  -67.400;    0.000;231.53333
 722.83;  161.400;  -64.533;    0.000;225.93333
 723.09;  164.867;  -73.600;    0.000;238.46667
 723.36;  168.400;  -96.667;    0.000;265.06666
 723.62;  175.133;  -71.800;    0.000;246.93333
 723.88;  191.067;  -71.133;    0.000;262.20000
 724.15;  174.800;  -66.067;    0.000;240.86667
 724.41;  154.400;  -72.067;    0.000;226.46666
 724.68;  163.467;  -74.867;    0.000;238.33333
 724.94;  172.800;  -39.533;    0.000;212.33334
 725.20;  170.467;  -65.000;    0.000;235.46666
 725.47;  165.467;  -76.600;    0.000;242.06666
 725.73;  186.933;  -85.667;    0.000;272.60000
 725.99;  164.067;  -53.533;    0.000;217.60000
 726.26;  169.800;  -64.867;    0.000;234.66667
 726.52;  176.067;  -50.933;    0.000;227.00000
 726.78;  173.200;  -79.467;    0.000;252.66666
 727.05;  166.200;  -49.067;    0.000;215.26666
 727.31;  144.200;  -73.133;    0.000;217.33333
 727.57;  157.333;  -66.733;    0.000;224.06666
 727.84;  168.000;  -62.333;    0.000;230.33333
 728.10;  160.267;  -64.733;    0.000;224.99999
 728.36;  158.467;  -64.333;    0.000;222.80000
 728.63;  134.933;  -82.800;    0.000;217.73334
 728.89;  143.533;  -80.600;    0.000;224.13334
 729.15;  158.800;  -72.600;    0.000;231.40000
 729.42;  138.733;  -74.933;    0.000;213.66667
 729.68;  176.867;  -66.200;    0.000;243.06667
 729.94;  152.333;  -72.667;    0.000;224.99999
 730.21;  143.000;  -88.800;    0.000;231.80000
 730.47;  147.933;  -88.867;    0.000;236.80000
 730.73;  159.200;  -74.533;    0.000;233.73333
 731.00;  152.400;  -81.533;    0.000;233.93333
 731.26;  151.600;  -74.400;    0.000;226.00001
 731.52;  136.333;  -92.733;    0.000;229.06666
 731.78;  118.667;  -94.133;    0.000;212.80000
 732.05;  136.000;  -90.867;    0.000;226.86667
 732.31;  147.933;  -59.533;    0.000;207.46667
 732.57;  116.800;  -69.867;    0.000;186.66667
 732.84;  149.600;  -75.800;    0.000;225.40001
 733.10;  139.800;  -92.000;    0.000;231.80000
 733.36;  134.133;  -65.933;    0.000;200.06667
 733.62;  116.267;  -82.800;    0.000;199.06667
 733.89;  127.133;  -77.067;    0.000;204.20000
 734.15;  126.533;  -91.000;    0.000;217.53333
 734.41;  124.400;  -65.267;    0.000;189.66667
 734.67;  137.733;  -63.533;    0.000;201.26667
 734.94;  115.133;  -70.800;    0.000;185.93333
 735.20;  122.133;  -78.867;    0.000;201.00000
 735.46;  125.200;  -51.600;    0.000;176.80000
 735.73;  100.800;  -79.333;    0.000;180.13334
 735.99;  104.000;  -65.200;    0.000;169.20000
 736.25;  119.267;  -68.067;    0.000;187.33334
 736.51;  130.067;  -76.933;    0.000;207.00000
 736.77;  122.000;  -79.200;    0.000;201.20000
 737.04;  115.800;  -56.600;    0.000;172.40000
 737.30;  120.000;  -87.867;    0.000;207.86667
 737.56;  133.200;  -61.800;    0.000;195.00000
 737.82;   85.133;  -88.533;    0.000;173.66666
 738.09;   99.067;  -71.867;    0.000;170.93333
 738.35;   91.800;  -79.267;    0.000;171.06667
 738.61;  106.400;  -62.667;    0.000;169.06667
 738.87;   95.533;  -58.533;    0.000;154.06667
 739.14;   88.667;  -73.933;    0.000;162.60000
 739.40;   96.333;  -91.333;    0.000;187.66667
 739.66;  101.467;  -77.600;    0.000;179.06667
 739.92;   90.067;  -89.533;    0.000;179.60000
 740.18;  115.600;  -82.600;    0.000;198.20000
 740.45;   90.533;  -88.400;    0.000;178.93333
 740.71;  107.000;  -55.400;    0.000;162.40000
 740.97;   73.933;  -51.533;    0.000;125.46667
 741.23;   82.000;  -66.200;    0.000;148.20000
 741.49;   87.333;  -74.600;    0.000;161.93333
 741.76;   66.533;  -89.000;    0.000;155.53333
 742.02;   89.600;  -74.533;    0.000;164.13333
 742.28;   89.667;  -65.600;    0.000;155.26666
 742.54;   88.067;  -87.800;    0.000;175.86667
 742.80;   78.133;  -73.600;    0.000;151.73333
 743.06;   86.000;  -74.733;    0.000;160.73333
 743.33;   69.867;  -82.867;    0.000;152.73334
 743.59;   61.667;  -90.533;    0.000;152.20000
 743.85;   70.267;  -87.467;    0.000;157.73334
 744.11;   76.400;  -90.467;    0.000;166.86667
 744.37;   80.867;  -55.467;    0.000;136.33334
 744.63;   57.467;  -81.800;    0.000;139.26667
 744.90;   83.667;  -82.133;    0.000;165.80000
 745.16;   69.333;  -76.867;    0.000;146.20000
 745.42;   64.867;  -68.667;    0.000;133.53333
 745.68;   71.333;  -76.067;    0.000;147.40000
 745.94;   94.733;  -51.800;    0.000;146.53333
 746.20;   59.533;  -80.067;    0.000;139.60000
 746.46;   93.200;  -62.133;    0.000;155.33333
 746.72;   81.867;  -64.333;    0.000;146.20000
 746.99;   64.400;  -61.267;    0.000;125.66667
 747.25;   61.733;  -47.533;    0.000;109.26667
 747.51;   64.200;  -74.133;    0.000;138.33333
 747.77;   65.400;  -73.067;    0.000;138.46667
 748.03;   59.533;  -89.267;    0.000;148.80000
 748.29;   68.267;  -93.133;    0.000;161.40000
 748.55;   57.467;  -59.733;    0.000;117.20000
 748.81;   50.933;  -84.400;    0.000;135.33334
 749.08;   63.267;  -67.200;    0.000;130.46666
 749.34;   52.133;  -68.067;    0.000;120.20000
 749.60;   52.000;  -68.067;    0.000;120.06667
 749.86;   50.600;  -76.467;    0.000;127.06667
 750.12;   36.267;  -75.600;    0.000;111.86666
 750.38;   63.000;  -76.533;    0.000;139.53333
 750.64;   31.933;  -79.667;    0.000;111.60000
 750.90;   54.533;  -62.133;    0.000;116.66667
 751.16;   27.533;  -85.133;    0.000;112.66666
 751.42;   24.533;  -67.067;    0.000;91.60000
 751.68;   56.467;  -59.067;    0.000;115.53333
 751.95;   27.933;  -89.200;    0.000;117.13333
 752.21;   29.733;  -81.933;    0.000;111.66667
 752.47;   25.067;  -83.667;    0.000;108.73333
 752.73;   23.267;  -73.733;    0.000;97.00000
 752.99;   26.867;  -84.400;    0.000;111.26667
 753.25;   15.800;  -80.200;    0.000;96.00000
 753.51;   25.600;  -78.133;    0.000;103.73333
 753.77;   33.000;  -71.067;    0.000;104.06667
 754.03;   26.133;  -70.133;    0.000;96.26666
 754.29;   18.867;  -77.733;    0.000;96.60000
 754.55;   31.600;  -77.733;    0.000;109.33333
 754.81;   21.667;  -65.800;    0.000;87.46667
 755.07;   23.000;  -84.667;    0.000;107.66666
 755.33;   22.400;  -60.467;    0.000;82.86667
 755.59;   32.067;  -81.067;    0.000;113.13333
 755.85;   10.267;  -95.667;    0.000;105.93333
 756.11;   28.400;  -89.333;    0.000;117.73334
 756.37;   19.867;  -70.000;    0.000;89.86667
 756.63;   39.933;  -62.067;    0.000;102.00000
 756.89;   14.533;  -90.600;    0.000;105.13333
 757.15;   16.667;  -79.067;    0.000;95.73333
 757.41;   59.400;  -43.333;    0.000;102.73333
 757.68;   27.000;  -95.067;    0.000;122.06667
 757.94;   30.533;  -60.733;    0.000;91.26667
 758.20;   30.800;  -65.333;    0.000;96.13334
 758.46;   13.733;  -71.733;    0.000;85.46666
 758.72;   12.000;  -87.200;    0.000;99.20000
 758.98;   -1.267;  -61.200;    0.000;59.93333
 759.24;   15.867;  -83.800;    0.000;99.66667
 759.50;   33.333;  -68.800;    0.000;102.13334
 759.76;   31.200;  -81.333;    0.000;112.53334
 760.02;   27.000;  -78.400;    0.000;105.40000
 760.27;   18.000;  -61.400;    0.000;79.40000
 760.53;    6.333;  -72.733;    0.000;79.06666
 760.79;   18.333;  -78.733;    0.000;97.06666
 761.05;  -13.733;  -56.067;    0.000;42.33333
 761.31;   20.600;  -59.333;    0.000;79.93333
 761.57;   17.267;  -67.533;    0.000;84.80000
 761.83;    2.467;  -76.800;    0.000;79.26667
 762.09;    8.600;  -88.667;    0.000;97.26666
 762.35;  -11.200;  -90.733;    0.000;79.53333
 762.61;  -10.267;  -71.800;    0.000;61.53334
 762.87;    9.667;  -72.333;    0.000;82.00000
 763.13;    0.667;  -90.067;    0.000;90.73333
 763.39;   12.933;  -65.067;    0.000;78.00000
 763.65;   -7.733;  -68.467;    0.000;60.73333
 763.91;   -2.133;  -71.933;    0.000;69.80000
 764.17;   29.133;  -66.667;    0.000;95.80000
 764.43;    3.133;  -59.600;    0.000;62.73333
 764.69;    8.200;  -83.600;    0.000;91.80000
 764.95;    8.067;  -96.267;    0.000;104.33334
 765.21;    4.400;  -87.867;    0.000;92.26667
 765.47;   16.667;  -69.533;    0.000;86.20000
 765.73;   10.333;  -67.400;    0.000;77.73333
 765.98;    8.067;  -50.133;    0.000;58.20000
 766.24;    2.733;  -76.333;    0.000;79.06667
 766.50;    1.400;  -88.133;    0.000;89.53333
 766.76;   26.133;  -70.267;    0.000;96.40000
 767.02;    1.800;  -88.933;    0.000;90.73333
 767.28;   -3.467;  -71.467;    0.000;68.00000
 767.54;  -36.267;  -61.467;    0.000;25.20000
 767.80;   -9.467;  -70.133;    0.000;60.66667
 768.06;   19.600;  -73.933;    0.000;93.53333
 768.32;    5.133;  -73.933;    0.000;79.06667
 768.58;    1.267;  -78.267;    0.000;79.53334
 768.83;  -21.333;  -61.333;    0.000;40.00000
 769.09;   -5.000;  -70.400;    0.000;65.40000
 769.35;   -2.733;  -57.200;    0.000;54.46667
 769.61;  -17.533;  -79.533;    0.000;62.00000
 769.87;  -16.067;  -72.133;    0.000;56.06666
 770.13;   -5.200;  -84.533;    0.000;79.33333
 770.39;  -20.867;  -84.067;    0.000;63.20000
 770.65;  -19.533;  -73.533;    0.000;54.00000
 770.90;  -24.733;  -78.133;    0.000;53.40000
 771.16;  -32.133;  -82.667;    0.000;50.53333
 771.42;   -9.200;  -71.800;    0.000;62.60000
 771.68;  -25.733;  -82.867;    0.000;57.13334
 771.94;   -0.600;  -74.933;    0.000;74.33333
 772.20;  -24.067;  -67.733;    0.000;43.66666
 772.46;  -33.533;  -94.267;    0.000;60.73334
 772.71;  -17.667;  -77.733;    0.000;60.06666
 772.97;   13.000;  -58.933;    0.000;71.93333
 773.23;  -18.067;  -77.400;    0.000;59.33333
 773.49;   15.533;  -58.800;    0.000;74.33333
 773.75;  -28.600;  -76.800;    0.000;48.20000
 774.01;  -19.267;  -79.267;    0.000;60.00000
 774.26;  -32.667;  -90.467;    0.000;57.80000
 774.52;   18.933;  -64.067;    0.000;83.00000
 774.78;  -31.533;  -82.400;    0.000;50.86667
 775.04;  -11.067;  -46.800;    0.000;35.73333
 775.30;  -22.667;  -60.800;    0.000;38.13333
 775.56;  -18.267;  -75.200;    0.000;56.93333
 775.81;  -12.667;  -65.000;    0.000;52.33333
 776.07;  -22.800;  -82.667;    0.000;59.86666
 776.33;  -25.400;  -91.333;    0.000;65.93334
 776.59;  -11.667;  -71.867;    0.000;60.20000
 776.85;  -27.600;  -82.000;    0.000;54.40000
 777.10;  -12.067;  -66.800;    0.000;54.73334
 777.36;  -28.000;  -75.867;    0.000;47.86667
 777.62;    2.067;  -75.733;    0.000;77.80000
 777.88;  -32.533;  -80.800;    0.000;48.26667
 778.14;  -26.467;  -74.333;    0.000;47.86667
 778.39;  -27.400;  -83.533;    0.000;56.13333
 778.65;  -15.200;  -67.067;    0.000;51.86667
 778.91;  -36.733;  -82.400;    0.000;45.66667
 779.17;  -25.733;  -57.333;    0.000;31.60000
 779.42;  -41.267;  -84.867;    0.000;43.60000
 779.68;  -43.067;  -86.000;    0.000;42.93333
 779.94;  -16.000;  -83.733;    0.000;67.73333
 780.20;  -41.667;  -86.600;    0.000;44.93333
 780.46;  -38.867;  -77.733;    0.000;38.86666
 780.71;   -5.600;  -69.933;    0.000;64.33333
 780.97;  -21.533;  -76.933;    0.000;55.40000
 781.23;  -41.933;  -60.800;    0.000;18.86666
 781.49;  -18.867;  -68.133;    0.000;49.26666
 781.74;  -31.867;  -76.667;    0.000;44.80000
 782.00;  -37.333;  -71.533;    0.000;34.20000
 782.26;   -9.667;  -68.733;    0.000;59.06666
 782.52;  -31.000;  -81.533;    0.000;50.53333
 782.77;  -31.733;  -74.267;    0.000;42.53334
 783.03;  -40.933;  -96.333;    0.000;55.40000
 783.29;  -36.333;  -84.267;    0.000;47.93334
 783.54;  -26.533;  -78.200;    0.000;51.66666
 783.80;    3.000;  -60.200;    0.000;63.20000
 784.06;  -26.867;  -72.133;    0.000;45.26666
 784.32;  -42.133;  -78.133;    0.000;36.00000
 784.57;  -14.067;  -62.933;    0.000;48.86667
 784.83;  -59.800;  -86.200;    0.000;26.40000
 785.09;  -59.333;  -88.533;    0.000;29.20000
 785.34;  -33.000;  -84.000;    0.000;51.00000
 785.60;  -16.600;  -57.667;    0.000;41.06667
 785.86;  -39.600;  -90.933;    0.000;51.33334
 786.12;  -23.467;  -68.733;    0.000;45.26666
 786.37;  -10.800;  -53.933;    0.000;43.13333
 786.63;  -40.600; -104.800;    0.000;64.20000
 786.89;  -34.533;  -71.867;    0.000;37.33334
 787.14;  -26.800;  -66.933;    0.000;40.13334
 787.40;  -41.667;  -79.467;    0.000;37.80000
 787.66;  -49.067;  -85.867;    0.000;36.80000
 787.91;  -11.733;  -60.600;    0.000;48.86666
 788.17;  -40.800;  -76.400;    0.000;35.60000
 788.43;  -67.733;  -84.200;    0.000;16.46667
 788.68;  -45.733;  -82.333;    0.000;36.60000
 788.94;  -43.467;  -70.067;    0.000;26.60000
 789.20;  -34.333;  -85.867;    0.000;51.53334
 789.45;  -52.867;  -85.067;    0.000;32.20000
 789.71;  -65.800;  -92.600;    0.000;26.80000
 789.97;  -14.667;  -45.933;    0.000;31.26667
 790.22;  -44.067;  -71.600;    0.000;27.53333
 790.48;  -37.733;  -83.267;    0.000;45.53334
 790.74;  -47.133;  -43.667;    0.000;-3.46667
 790.99;  -40.000;  -83.867;    0.000;43.86667
 791.25;  -35.133;  -83.133;    0.000;48.00000
 791.51;  -43.067;  -76.400;    0.000;33.33334
 791.76;  -25.600;  -56.933;    0.000;31.33333
 792.02;  -48.067;  -72.400;    0.000;24.33334
 792.27;  -29.067;  -75.400;    0.000;46.33333
 792.53;  -33.467;  -89.667;    0.000;56.20000
 792.79;  -39.933;  -86.133;    0.000;46.20000
 793.04;  -47.467;  -73.333;    0.000;25.86667
 793.30;  -32.067;  -85.800;    0.000;53.73334
 793.56;  -28.667;  -76.600;    0.000;47.93333
 793.81;  -19.733;  -65.267;    0.000;45.53334
 794.07;  -46.133;  -91.933;    0.000;45.80000
 794.32;  -40.467;  -76.067;    0.000;35.60000
 794.58;  -40.933;  -76.867;    0.000;35.93333
 794.84;  -41.867;  -64.533;    0.000;22.66667
 795.09;  -29.800;  -44.333;    0.000;14.53333
 795.35;  -20.267;  -64.333;    0.000;44.06667
 795.60;  -14.867;  -76.867;    0.000;62.00000
 795.86;  -25.267;  -73.400;    0.000;48.13334
 796.12;  -39.133;  -98.000;    0.000;58.86666
 796.37;  -50.667;  -79.533;    0.000;28.86666
 796.63;  -34.867;  -66.533;    0.000;31.66667
 796.88;  -49.600;  -75.800;    0.000;26.20000
 797.14;  -25.800;  -68.200;    0.000;42.40000
 797.39;  -27.000;  -63.800;    0.000;36.80000
 797.65;  -46.533;  -89.800;    0.000;43.26667
 797.91;  -42.867;  -80.267;    0.000;37.40001
 798.16;  -51.200;  -90.733;    0.000;39.53333
 798.42;  -59.267;  -79.000;    0.000;19.73333
 798.67;  -59.733;  -79.667;    0.000;19.93333
 798.93;  -50.133;  -84.733;    0.000;34.59999
 799.18;  -55.533;  -73.667;    0.000;18.13333
 799.44;  -52.600;  -87.200;    0.000;34.60000
 799.69;  -45.667;  -70.133;    0.000;24.46666
 799.95;  -70.267;  -81.400;    0.000;11.13333
 800.21;  -35.467;  -92.000;    0.000;56.53333
 800.46;  -27.667;  -72.667;    0.000;45.00000
 800.72;  -67.600;  -94.800;    0.000;27.20000
 800.97;  -43.800;  -80.600;    0.000;36.80000
 801.23;  -47.267;  -96.733;    0.000;49.46666
 801.48;  -60.467; -101.800;    0.000;41.33334
 801.74;  -65.933;  -95.800;    0.000;29.86667
 801.99;  -37.600;  -68.333;    0.000;30.73334
 802.25;  -44.533;  -88.867;    0.000;44.33334
 802.50;  -51.733;  -66.400;    0.000;14.66667
 802.76;  -27.667;  -49.467;    0.000;21.80000
 803.01;  -67.400;  -88.133;    0.000;20.73333
 803.27;  -39.467;  -63.200;    0.000;23.73333
 803.52;  -46.200;  -79.067;    0.000;32.86666
 803.78;  -47.533;  -72.933;    0.000;25.40000
 804.03;  -50.933;  -80.333;    0.000;29.40000
 804.29;  -60.467;  -77.933;    0.000;17.46667
 804.54;  -57.000;  -83.667;    0.000;26.66666
 804.80;  -55.467;  -91.333;    0.000;35.86667
 805.05;  -52.667;  -89.200;    0.000;36.53333
 805.31;  -18.733;  -55.133;    0.000;36.40000
 805.56;  -46.000;  -62.733;    0.000;16.73333
 805.82;  -59.800;  -81.467;    0.000;21.66667
 806.07;  -31.933;  -57.933;    0.000;26.00000
 806.33;  -51.333;  -53.267;    0.000; 1.93333
 806.58;  -59.200;  -92.133;    0.000;32.93333
 806.84;  -62.400;  -74.600;    0.000;12.20000
 807.09;  -57.733;  -81.733;    0.000;24.00000
 807.34;  -59.867;  -78.533;    0.000;18.66667
 807.60;  -51.467;  -85.800;    0.000;34.33334
 807.85;  -33.267;  -53.200;    0.000;19.93333
 808.11;  -77.867;  -83.467;    0.000; 5.60000
 808.36;  -15.000;  -54.467;    0.000;39.46667
 808.62;  -57.333;  -82.933;    0.000;25.60000
 808.87;  -54.267;  -80.800;    0.000;26.53334
 809.13;  -63.400;  -79.667;    0.000;16.26666
 809.38;  -41.733;  -63.467;    0.000;21.73333
 809.63;  -65.133;  -77.867;    0.000;12.73334
 809.89;  -26.933;  -70.467;    0.000;43.53333
 810.14;  -57.133;  -76.267;    0.000;19.13334
 810.40;  -55.600;  -58.200;    0.000; 2.60000
 810.65;  -45.467;  -80.133;    0.000;34.66666
 810.91;  -56.667;  -97.200;    0.000;40.53333
 811.16;  -47.133;  -85.733;    0.000;38.59999
 811.41;  -52.467;  -79.067;    0.000;26.60000
 811.67;  -49.533;  -96.600;    0.000;47.06667
 811.92;  -55.067;  -75.333;    0.000;20.26667
 812.18;  -51.600;  -82.333;    0.000;30.73334
 812.43;  -39.800;  -66.800;    0.000;27.00000
 812.68;  -55.800;  -89.200;    0.000;33.40000
 812.94;  -61.600;  -81.467;    0.000;19.86667
 813.19;  -58.733;  -76.067;    0.000;17.33333
 813.45;  -10.067;  -50.667;    0.000;40.60000
 813.70;  -46.067;  -94.467;    0.000;48.40000
 813.95;  -46.200;  -77.867;    0.000;31.66667
 814.21;  -57.733;  -87.000;    0.000;29.26667
 814.46;  -64.400;  -68.400;    0.000; 4.00000
 814.71;  -55.267;  -83.800;    0.000;28.53334
 814.97;  -46.533;  -81.467;    0.000;34.93333
 815.22;  -59.600;  -92.333;    0.000;32.73334
 815.48;  -45.400;  -88.133;    0.000;42.73333
 815.73;    1.600;  -23.800;    0.000;25.40000
 815.98;  -52.467;  -83.267;    0.000;30.80000
 816.24;  -59.133;  -76.133;    0.000;17.00000
 816.49;  -42.200;  -65.733;    0.000;23.53333
 816.74;  -63.467;  -83.067;    0.000;19.60000
 817.00;   -9.800;  -54.667;    0.000;44.86667
 817.25;  -43.200;  -65.600;    0.000;22.40000
 817.50;  -56.733;  -81.200;    0.000;24.46666
 817.76;  -70.400;  -80.000;    0.000; 9.60000
 818.01;  -63.733;  -79.267;    0.000;15.53334
 818.26;  -58.133;  -92.867;    0.000;34.73333
 818.52;  -46.800;  -93.133;    0.000;46.33333
 818.77;  -56.867;  -87.467;    0.000;30.60000
 819.02;  139.867;  -43.200;    0.000;183.06667
 819.28;  -68.933;  -80.267;    0.000;11.33334
 819.53;  -37.467;  -66.467;    0.000;29.00000
 819.78;  -45.467;  -76.533;    0.000;31.06667
 820.04;  -47.933;  -64.600;    0.000;16.66666
 820.29;  -45.933;  -85.733;    0.000;39.80000
 820.54;  -34.400;  -54.867;    0.000;20.46666
 820.79;  -66.733;  -63.867;    0.000;-2.86666
 821.05;  -75.200;  -89.800;    0.000;14.60001
 821.30;  -45.800;  -71.200;    0.000;25.40000
 821.55;  -30.467;  -61.333;    0.000;30.86666
 821.81;  -67.133;  -73.800;    0.000; 6.66667
 822.06;  -64.333;  -67.533;    0.000; 3.20000
 822.31;  -29.333;  -61.867;    0.000;32.53333
 822.56;  -52.267;  -84.533;    0.000;32.26667
 822.82;  -73.067;  -95.533;    0.000;22.46667
 823.07;  -40.333;  -64.267;    0.000;23.93334
 823.32;  -57.067;  -90.067;    0.000;33.00000
 823.58;  -39.200;  -71.667;    0.000;32.46666
 823.83;  -58.133;  -79.600;    0.000;21.46666
 824.08;  -59.867;  -79.800;    0.000;19.93334
 824.33;  -69.467;  -86.000;    0.000;16.53333
 824.59;  -80.267;  -79.667;    0.000;-0.60001
 824.84;  -75.133;  -78.400;    0.000; 3.26667
 825.09;  -72.333;  -79.400;    0.000; 7.06667
 825.34;  -60.733;  -82.067;    0.000;21.33333
 825.60;  -77.400;  -83.800;    0.000; 6.40000
 825.85;  -76.800;  -82.667;    0.000; 5.86666
 826.10;  -70.267;  -86.600;    0.000;16.33333
 826.35;  -47.933;  -70.933;    0.000;23.00000
 826.61;  -71.533;  -69.133;    0.000;-2.40000
 826.86;  -60.533;  -95.867;    0.000;35.33334
 827.11;  -56.267;  -79.067;    0.000;22.80000
 827.36;  -62.267;  -90.333;    0.000;28.06667
 827.61;  -73.333;  -96.067;    0.000;22.73333
 827.87;  -49.067;  -92.067;    0.000;43.00000
 828.12;  -51.267;  -73.533;    0.000;22.26667
 828.37;  -46.800;  -80.867;    0.000;34.06667
 828.62;  -53.667;  -94.400;    0.000;40.73333
 828.88;  -57.667;  -92.800;    0.000;35.13334
 829.13;  -65.867;  -86.400;    0.000;20.53333
 829.38;  -74.800;  -82.733;    0.000; 7.93333
 829.63;  -71.333;  -81.467;    0.000;10.13333
 829.88;  -58.867;  -70.800;    0.000;11.93334
 830.14;  -51.067;  -92.600;    0.000;41.53333
 830.39;  -64.000;  -65.867;    0.000; 1.86667
 830.64;  -61.800;  -86.867;    0.000;25.06667
 830.89;  -57.600;  -72.333;    0.000;14.73334
 831.14;  -54.267;  -71.667;    0.000;17.40000
 831.39;  -70.267;  -87.867;    0.000;17.60000
 831.65;  -89.400;  -88.267;    0.000;-1.13333
 831.90;  -62.200;  -91.733;    0.000;29.53333
 832.15;  -49.267;  -81.267;    0.000;32.00000
 832.40;  -45.000;  -66.533;    0.000;21.53333
 832.65;  -84.333;  -77.733;    0.000;-6.60001
 832.90;  -84.933;  -97.933;    0.000;13.00000
 833.16;  -64.933;  -75.400;    0.000;10.46667
 833.41;  -72.200;  -72.800;    0.000; 0.60001
 833.66;  -75.133;  -86.533;    0.000;11.40000
 833.91;  -66.200;  -85.667;    0.000;19.46667
 834.16;  -79.400;  -87.267;    0.000; 7.86667
 834.41;  -54.067;  -84.800;    0.000;30.73334
 834.66;  -48.533;  -62.600;    0.000;14.06667
 834.92;  -73.600;  -78.933;    0.000; 5.33334
 835.17;  -72.600;  -94.267;    0.000;21.66667
 835.42;  -58.667;  -66.067;    0.000; 7.40000
 835.67;  -45.067;  -67.467;    0.000;22.40000
 835.92;  -80.200;  -68.333;    0.000;-11.86666
 836.17;  -81.333;  -91.667;    0.000;10.33333
 836.42;  -93.267;  -91.400;    0.000;-1.86667
 836.67;  -76.267;  -82.200;    0.000; 5.93333
 836.93;  -74.000; -102.267;    0.000;28.26667
 837.18;  -61.267;  -63.800;    0.000; 2.53333
 837.43;  -79.200;  -82.667;    0.000; 3.46667
 837.68;  -63.133;  -70.200;    0.000; 7.06666
 837.93;  -88.067;  -81.667;    0.000;-6.40000
 838.18;  -74.133; -103.200;    0.000;29.06667
 838.43;  -88.000; -100.600;    0.000;12.60000
 838.68;  -59.800;  -82.200;    0.000;22.40000
 838.93;  -91.400;  -79.533;    0.000;-11.86667
 839.18;  -52.467;  -82.600;    0.000;30.13333
 839.43;  -63.067;  -67.000;    0.000; 3.93333
 839.69;  -78.267;  -80.200;    0.000; 1.93333
 839.94;  -69.667;  -93.667;    0.000;24.00000
 840.19;  -52.467;  -92.267;    0.000;39.80000
 840.44;  -63.200; -100.933;    0.000;37.73333
 840.69;  -70.533;  -60.933;    0.000;-9.60000
 840.94;  -64.733;  -78.467;    0.000;13.73334
 841.19;  -50.800;  -51.467;    0.000; 0.66667
 841.44;  -72.867;  -72.667;    0.000;-0.20000
 841.69;  -38.267;  -60.533;    0.000;22.26667
 841.94;  -82.667;  -85.200;    0.000; 2.53333
 842.19;  -85.000;  -64.267;    0.000;-20.73333
 842.44;  -71.400;  -94.800;    0.000;23.40000
 842.69;  -43.600;  -88.400;    0.000;44.80000
 842.94;  -48.200;  -80.400;    0.000;32.20000
 843.19;  -66.467;  -79.267;    0.000;12.80000
 843.44;  -67.133;  -82.067;    0.000;14.93333
 843.69;  -62.400;  -88.533;    0.000;26.13333
 843.94;  -16.533;  -36.333;    0.000;19.80000
 844.19;  -78.400;  -87.067;    0.000; 8.66666
 844.44;  -52.933;  -78.800;    0.000;25.86667
 844.69;  -68.467;  -79.867;    0.000;11.40000
 844.95;  -73.467;  -94.067;    0.000;20.60000
 845.20;  -84.200;  -83.733;    0.000;-0.46667
 845.45;  -45.400;  -74.200;    0.000;28.80000
 845.70;  -51.933;  -73.400;    0.000;21.46667
 845.95;  -85.133;  -87.600;    0.000; 2.46667
 846.20;  -62.200;  -67.133;    0.000; 4.93333
 846.45;  -59.533;  -83.467;    0.000;23.93333
 846.70;  -75.200;  -72.400;    0.000;-2.80000
 846.95;  -67.867;  -84.333;    0.000;16.46667
 847.20;  -78.467;  -82.067;    0.000; 3.60000
 847.44;  -51.133;  -51.400;    0.000; 0.26667
 847.69;  -76.533;  -81.067;    0.000; 4.53333
 847.94;  -69.067;  -67.533;    0.000;-1.53333
 848.19;  -62.133;  -81.067;    0.000;18.93333
 848.44;  -62.067;  -74.867;    0.000;12.80000
 848.69;  -70.267;  -81.267;    0.000;11.00000
 848.94;  -62.267;  -76.267;    0.000;14.00000
 849.19;  -82.467;  -82.667;    0.000; 0.20000
 849.44;  -76.133;  -88.733;    0.000;12.60000
 849.69;  -67.800;  -50.067;    0.000;-17.73334
 849.94;  -67.533; -100.067;    0.000;32.53333
 850.19;  -65.267;  -66.067;    0.000; 0.80000
 850.44;  -63.667;  -72.000;    0.000; 8.33333
 850.69;  -68.467;  -77.733;    0.000; 9.26666
 850.94;  -72.067;  -89.600;    0.000;17.53333
 851.19;  -69.533;  -80.133;    0.000;10.60000
 851.44;  -73.533;  -87.667;    0.000;14.13333
 851.69;  -79.733;  -82.667;    0.000; 2.93333
 851.94;  -74.467;  -72.533;    0.000;-1.93333
 852.19;  -49.800;  -83.067;    0.000;33.26667
 852.44;  -67.200;  -98.333;    0.000;31.13334
 852.68;  -83.200;  -80.467;    0.000;-2.73333
 852.93;  -65.600;  -80.000;    0.000;14.40000
 853.18;  -76.933;  -89.400;    0.000;12.46667
 853.43;  -72.400;  -83.133;    0.000;10.73333
 853.68;  -58.733;  -77.933;    0.000;19.20000
 853.93;  -42.400;  -78.667;    0.000;36.26666
 854.18;  -61.067;  -72.267;    0.000;11.20000
 854.43;  -54.867;  -84.733;    0.000;29.86666
 854.68;  -84.800;  -70.467;    0.000;-14.33334
 854.93;  -56.067;  -69.933;    0.000;13.86667
 855.18;  -57.400;  -76.600;    0.000;19.20000
 855.42;  -59.933;  -77.600;    0.000;17.66666
 855.67;  -77.800;  -67.600;    0.000;-10.20000
 855.92;  -89.267;  -87.067;    0.000;-2.20000
 856.17;  -63.867;  -65.800;    0.000; 1.93334
 856.42;  -82.333;  -92.533;    0.000;10.20000
 856.67;  -68.000;  -73.600;    0.000; 5.60000
 856.92;  -78.333;  -76.133;    0.000;-2.20000
 857.17;  -70.467;  -81.733;    0.000;11.26666
 857.41;  -54.467;  -77.800;    0.000;23.33334
 857.66;  -52.000;  -66.333;    0.000;14.33334
 857.91;  -52.200;  -58.000;    0.000; 5.80000
 858.16;  -60.733;  -78.867;    0.000;18.13334
 858.41;  -73.333;  -79.267;    0.000; 5.93333
 858.66;  -55.867;  -80.000;    0.000;24.13334
 858.91;  -63.800;  -61.133;    0.000;-2.66666
 859.15;  -64.067;  -79.533;    0.000;15.46667
 859.40;  -44.867;  -68.533;    0.000;23.66667
 859.65;  -69.467;  -91.000;    0.000;21.53333
 859.90;  -69.267;  -87.133;    0.000;17.86666
 860.15;  -60.667;  -74.200;    0.000;13.53333
 860.40;  -71.733;  -64.000;    0.000;-7.73333
 860.64;  -51.467;  -57.867;    0.000; 6.40000
 860.89;  -80.000;  -91.867;    0.000;11.86667
 861.14;  -58.800;  -73.667;    0.000;14.86666
 861.39;  -55.267;  -68.933;    0.000;13.66667
 861.64;  -70.200;  -73.667;    0.000; 3.46667
 861.88;  -55.133;  -73.933;    0.000;18.80000
 862.13;  -56.333;  -77.467;    0.000;21.13334
 862.38;  -71.600;  -78.800;    0.000; 7.20000
 862.63;  -66.800;  -87.067;    0.000;20.26666
 862.88;  -64.533;  -81.067;    0.000;16.53333
 863.12;  -59.933;  -62.067;    0.000; 2.13333
 863.37;  -54.733;  -85.267;    0.000;30.53334
 863.62;  -70.000;  -86.000;    0.000;16.00000
 863.87;  -77.667;  -80.067;    0.000; 2.40000
 864.12;  -51.267;  -79.600;    0.000;28.33333
 864.36;  -76.200;  -79.933;    0.000; 3.73334
 864.61;  -77.133;  -70.133;    0.000;-7.00000
 864.86;  -55.200;  -92.467;    0.000;37.26667
 865.11;  -54.733;  -53.067;    0.000;-1.66667
 865.35;  -61.800;  -58.867;    0.000;-2.93333
 865.60;  -70.333;  -73.000;    0.000; 2.66666
 865.85;  -58.733;  -60.800;    0.000; 2.06667
 866.10;  -69.533;  -80.467;    0.000;10.93333
 866.34;  -70.200;  -78.133;    0.000; 7.93333
 866.59;  -65.467;  -46.200;    0.000;-19.26667
 866.84;  -72.933;  -86.467;    0.000;13.53333
 867.09;  -47.667;  -71.000;    0.000;23.33333
 867.33;  -63.600;  -98.600;    0.000;35.00000
 867.58;  -76.800;  -60.400;    0.000;-16.40000
 867.83;  -62.400;  -82.533;    0.000;20.13333
 868.08;  -64.467;  -60.733;    0.000;-3.73333
 868.32;  -62.667;  -82.067;    0.000;19.40000
 868.57;  -55.933;  -69.667;    0.000;13.73333
 868.82;  -44.400;  -62.533;    0.000;18.13333
 869.07;  -64.267;  -86.800;    0.000;22.53333
 869.31;  -66.733;  -74.067;    0.000; 7.33334
 869.56;  -46.800;  -80.867;    0.000;34.06667
 869.81;  -62.400;  -90.933;    0.000;28.53333
 870.05;  -93.467;  -86.067;    0.000;-7.40000
 870.30;  -53.067;  -63.600;    0.000;10.53333
 870.55;  -55.067;  -62.600;    0.000; 7.53333
 870.80;  -64.067;  -58.000;    0.000;-6.06667
 871.04;  -62.333;  -54.933;    0.000;-7.40000
 871.29;  -71.000;  -87.000;    0.000;16.00000
 871.54;  -71.867;  -79.733;    0.000; 7.86666
 871.78;  -94.200;  -82.267;    0.000;-11.93333
 872.03;  -57.933;  -57.667;    0.000;-0.26667
 872.28;  -70.933;  -72.333;    0.000; 1.40000
 872.52;  -52.933;  -81.533;    0.000;28.60000
 872.77;  -65.667;  -95.400;    0.000;29.73334
 873.02;  -84.400;  -87.533;    0.000; 3.13333
 873.26;  -57.467;  -88.267;    0.000;30.80000
 873.51;  -58.333;  -64.400;    0.000; 6.06667
 873.76;  -66.200;  -66.533;    0.000; 0.33334
 874.00;  -53.933;  -61.267;    0.000; 7.33333
 874.25;  -71.333;  -98.000;    0.000;26.66666
 874.50;  -55.867;  -72.733;    0.000;16.86666
 874.74;  -68.733;  -71.533;    0.000; 2.80000
 874.99;  -62.267;  -62.333;    0.000; 0.06667
 875.24;  -60.867;  -39.667;    0.000;-21.20000
 875.48;  -63.133;  -65.200;    0.000; 2.06666
 875.73;  -62.867;  -71.733;    0.000; 8.86666
 875.98;  -78.933;  -78.067;    0.000;-0.86667
 876.22;  -59.867;  -78.533;    0.000;18.66667
 876.47;  -47.133;  -48.267;    0.000; 1.13333
 876.71;  -45.333;  -64.200;    0.000;18.86666
 876.96;  -61.533;  -29.200;    0.000;-32.33333
 877.21;  -72.867;  -74.867;    0.000; 2.00000
 877.45;  -73.067;  -79.200;    0.000; 6.13333
 877.70;  -49.400;  -56.933;    0.000; 7.53333
 877.95;  -52.867;  -38.600;    0.000;-14.26667
 878.19;  -44.600;  -50.600;    0.000; 6.00000
 878.44;  -86.667;  -66.267;    0.000;-20.39999
 878.68;  -21.267;  -39.333;    0.000;18.06667
 878.93;  -44.000;  -64.867;    0.000;20.86667
 879.18;  -66.933;  -76.933;    0.000;10.00000
 879.42;  -43.400;  -62.067;    0.000;18.66666
 879.67;  -68.133;  -71.933;    0.000; 3.80000
 879.91;  -51.800;  -48.067;    0.000;-3.73333
 880.16;  -55.400;  -52.467;    0.000;-2.93333
 880.40;  -63.600;  -58.200;    0.000;-5.40000
 880.65;  -49.600;  -50.600;    0.000; 1.00000
 880.90;  -40.000;  -48.333;    0.000; 8.33333
 881.14;  -58.000;  -53.200;    0.000;-4.80000
 881.39;  -55.800;  -59.867;    0.000; 4.06667
 881.63;  -33.200;  -75.133;    0.000;41.93333
 881.88;  -51.333;  -81.467;    0.000;30.13334
 882.12;  -52.333;  -63.667;    0.000;11.33334
 882.37;  -39.533;  -47.333;    0.000; 7.80000
 882.62;  -54.067;  -64.667;    0.000;10.60000
 882.86;  -47.600;  -67.533;    0.000;19.93333
 883.11;  -56.467;  -61.400;    0.000; 4.93333
 883.35;  -67.067;  -52.667;    0.000;-14.40000
 883.60;  -37.200;  -31.067;    0.000;-6.13333
 883.84;  -55.933;  -62.400;    0.000; 6.46667
 884.09;  -49.267;  -52.000;    0.000; 2.73333
 884.33;  -54.733;  -51.600;    0.000;-3.13334
 884.58;  -48.733;  -59.533;    0.000;10.80000
 884.82;  -56.933;  -59.667;    0.000; 2.73333
 885.07;  -54.467;  -68.067;    0.000;13.60000
 885.31;  -57.800;  -39.533;    0.000;-18.26667
 885.56;  -41.000;  -58.067;    0.000;17.06667
 885.80;  -52.267;  -72.133;    0.000;19.86666
 886.05;  -50.133;  -65.533;    0.000;15.40000
 886.29;  -39.933;  -44.400;    0.000; 4.46667
 886.54;  -36.333;  -63.333;    0.000;27.00000
 886.78;  -31.267;  -55.533;    0.000;24.26667
 887.03;  -47.533;  -63.667;    0.000;16.13334
 887.27;  -16.667;  -25.200;    0.000; 8.53333
 887.52;  -45.000;  -46.933;    0.000; 1.93333
 887.76;  -25.400;  -55.133;    0.000;29.73334
 888.01;  -46.133;  -59.267;    0.000;13.13333
 888.25;  -24.467;  -59.200;    0.000;34.73333
 888.50;  -34.200;  -40.667;    0.000; 6.46667
 888.74;  -48.067;  -43.467;    0.000;-4.60000
 888.99;  -34.733;  -50.267;    0.000;15.53333
 889.23;  -54.000;  -47.667;    0.000;-6.33333
 889.48;  -52.667;  -54.600;    0.000; 1.93333
 889.72;  -36.733;  -39.733;    0.000; 3.00000
 889.97;  -28.733;  -46.267;    0.000;17.53333
 890.21;  -35.800;  -31.267;    0.000;-4.53333
 890.46;  -37.000;  -38.800;    0.000; 1.80000
 890.70;  -16.933;  -54.933;    0.000;38.00000
 890.94;  -36.267;  -51.533;    0.000;15.26667
 891.19;  -24.600;  -44.067;    0.000;19.46667
 891.43;  -31.467;  -44.200;    0.000;12.73333
 891.68;  -25.200;  -36.867;    0.000;11.66666
 891.92;  -30.267;  -59.800;    0.000;29.53333
 892.17;  -41.133;  -51.333;    0.000;10.20000
 892.41;  -20.333;  -53.200;    0.000;32.86667
 892.66;  -52.200;  -42.400;    0.000;-9.80000
 892.90;   25.000;  -26.933;    0.000;51.93333
 893.14;  -32.800;  -28.000;    0.000;-4.80000
 893.39;   -1.533;  -29.600;    0.000;28.06667
 893.63;  -32.800;  -46.800;    0.000;14.00000
 893.88;  -26.600;  -47.333;    0.000;20.73333
 894.12;  -18.600;  -31.533;    0.000;12.93333
 894.36;   -4.733;  -43.800;    0.000;39.06667
 894.61;  -26.333;  -41.000;    0.000;14.66667
 894.85;  -17.867;  -24.667;    0.000; 6.80000
 895.10;  -20.933;  -24.267;    0.000; 3.33333
 895.34;  -28.267;  -39.333;    0.000;11.06667
 895.58;  -13.267;  -28.000;    0.000;14.73333
 895.83;  -31.533;  -29.267;    0.000;-2.26667
 896.07;  -13.800;  -37.333;    0.000;23.53333
 896.32;  -12.533;  -41.800;    0.000;29.26667
 896.56;  -32.133;  -28.467;    0.000;-3.66667
 896.80;  -10.067;  -32.933;    0.000;22.86667
 897.05;   -2.533;  -27.733;    0.000;25.20000
 897.29;   13.067;  -14.200;    0.000;27.26667
 897.53;    1.133;  -10.067;    0.000;11.20000
 897.78;   -0.933;  -15.333;    0.000;14.40000
 898.02;   30.067;    7.400;    0.000;22.66667
 898.26;    0.600;   -7.933;    0.000; 8.53333
 898.51;   -1.267;    0.533;    0.000;-1.80000
 898.75;  -24.867;   -7.133;    0.000;-17.73333
 898.99;   12.467;    9.600;    0.000; 2.86667
 899.24;   10.400;  -18.067;    0.000;28.46667
 899.48;  -15.867;   11.267;    0.000;-27.13333
 899.73;   -0.667;  -25.333;    0.000;24.66667
 899.97;   15.733;    6.467;    0.000; 9.26667
 900.21;   47.600;   10.533;    0.000;37.06666
 900.46;   25.400;   25.933;    0.000;-0.53333
 900.70;   43.867;   19.600;    0.000;24.26666
 900.94;   18.200;  -12.400;    0.000;30.60000
 901.18;   48.400;   41.067;    0.000; 7.33334
 901.43;   44.867;   44.133;    0.000; 0.73333
 901.67;   38.267;   40.000;    0.000;-1.73333
 901.91;   41.133;   30.800;    0.000;10.33334
 902.16;   56.333;   32.733;    0.000;23.60000
 902.40;   90.533;   68.067;    0.000;22.46667
 902.64;   60.067;   43.267;    0.000;16.80000
 902.89;   69.867;   63.400;    0.000; 6.46667
 903.13;   92.733;   87.933;    0.000; 4.80000
 903.37;  130.733;  118.667;    0.000;12.06667
 903.61;  135.667;  126.733;    0.000; 8.93334
 903.86;  136.067;  117.467;    0.000;18.60000
 904.10;  133.400;  131.933;    0.000; 1.46666
 904.34;  163.067;  167.667;    0.000;-4.60001
 904.59;  186.800;  192.933;    0.000;-6.13333
 904.83;  227.400;  198.667;    0.000;28.73332
 905.07;  261.867;  244.067;    0.000;17.80000
 905.31;  266.667;  300.133;    0.000;-33.46667
 905.56;  325.400;  270.800;    0.000;54.60001
 905.80;  383.267;  346.467;    0.000;36.79999

