point4
Integration time [ms]:  15.000
Averaging Nr. [scans]: 15
Smoothing Nr. [pixels]: 0
Data measured with spectrometer [name]: 1307078U2
Wave   ;Sample   ;Dark     ;Reference;Scope Corrected for Dark
[nm]   ;[counts] ;[counts] ;[counts] 

 351.07;   27.800;   23.733;    0.000; 4.06667
 351.37;   18.400;   -4.467;    0.000;22.86667
 351.66;    6.800;    3.333;    0.000; 3.46667
 351.95;   14.333;  -13.467;    0.000;27.80000
 352.24;    7.133;   -8.067;    0.000;15.20000
 352.54;   -2.533;  -24.200;    0.000;21.66667
 352.83;    4.000;    0.267;    0.000; 3.73333
 353.12;    2.333;   -2.733;    0.000; 5.06667
 353.42;   13.333;  -10.267;    0.000;23.60000
 353.71;   -8.133;   -6.533;    0.000;-1.60000
 354.00;   18.933;    1.600;    0.000;17.33333
 354.30;   26.933;  -21.333;    0.000;48.26667
 354.59;   -4.133;  -15.133;    0.000;11.00000
 354.88;    3.867;    2.333;    0.000; 1.53333
 355.17;    3.533;   -5.867;    0.000; 9.40000
 355.47;    7.867;  -19.600;    0.000;27.46667
 355.76;    7.400;    0.867;    0.000; 6.53333
 356.05;    7.333;  -12.333;    0.000;19.66667
 356.35;  -10.533;   -0.533;    0.000;-10.00000
 356.64;   31.067;   13.200;    0.000;17.86667
 356.93;   -2.267;   -4.933;    0.000; 2.66667
 357.22;   22.467;   -8.133;    0.000;30.60000
 357.52;    2.533;   -2.867;    0.000; 5.40000
 357.81;   15.667;  -14.600;    0.000;30.26667
 358.10;   -4.000;  -13.533;    0.000; 9.53333
 358.39;    3.600;  -12.400;    0.000;16.00000
 358.69;   14.333;   -6.000;    0.000;20.33333
 358.98;    2.000;  -19.267;    0.000;21.26667
 359.27;   22.467;    6.000;    0.000;16.46667
 359.57;    5.200;   15.333;    0.000;-10.13333
 359.86;    7.733;  -22.333;    0.000;30.06667
 360.15;   27.333;   10.667;    0.000;16.66667
 360.44;    3.800;  -15.000;    0.000;18.80000
 360.74;   10.000;   -6.000;    0.000;16.00000
 361.03;   11.867;    4.867;    0.000; 7.00000
 361.32;   19.867;   -6.333;    0.000;26.20000
 361.61;   -8.867;   -5.067;    0.000;-3.80000
 361.91;   33.733;   -3.533;    0.000;37.26667
 362.20;    4.867;  -19.200;    0.000;24.06667
 362.49;    6.067;  -10.067;    0.000;16.13333
 362.78;   29.200;    3.733;    0.000;25.46667
 363.08;   -0.867;  -33.667;    0.000;32.80000
 363.37;  -20.667;   -8.200;    0.000;-12.46667
 363.66;   23.533;   14.267;    0.000; 9.26667
 363.95;   -1.467;    1.400;    0.000;-2.86667
 364.24;    0.200;   -9.667;    0.000; 9.86667
 364.54;    5.933;   -8.333;    0.000;14.26667
 364.83;   -7.467;   -9.533;    0.000; 2.06667
 365.12;  -11.067;  -10.600;    0.000;-0.46667
 365.41;    3.067;   -6.533;    0.000; 9.60000
 365.71;    1.933;  -12.133;    0.000;14.06667
 366.00;    4.733;  -10.667;    0.000;15.40000
 366.29;   10.667;    0.933;    0.000; 9.73333
 366.58;   21.000;   -8.133;    0.000;29.13333
 366.87;    1.933;  -14.333;    0.000;16.26667
 367.17;    9.200;   -6.467;    0.000;15.66667
 367.46;   -6.400;  -11.133;    0.000; 4.73333
 367.75;  -16.867;  -16.000;    0.000;-0.86667
 368.04;  -10.333;  -20.533;    0.000;10.20000
 368.34;   -8.267;  -21.467;    0.000;13.20000
 368.63;    8.867;    3.133;    0.000; 5.73333
 368.92;   33.867;    7.000;    0.000;26.86666
 369.21;   11.867;   -1.933;    0.000;13.80000
 369.50;   26.800;  -17.667;    0.000;44.46667
 369.80;    9.667;    5.467;    0.000; 4.20000
 370.09;   13.667;   -1.067;    0.000;14.73333
 370.38;    3.400;  -19.733;    0.000;23.13333
 370.67;   -3.667;   -4.800;    0.000; 1.13333
 370.96;   12.000;   -1.533;    0.000;13.53333
 371.26;   10.400;   -6.267;    0.000;16.66667
 371.55;    0.733;   -8.933;    0.000; 9.66667
 371.84;  -13.533;  -14.600;    0.000; 1.06667
 372.13;   11.000;  -14.067;    0.000;25.06667
 372.42;   15.267;  -10.600;    0.000;25.86667
 372.71;    0.267;    2.800;    0.000;-2.53333
 373.01;   -1.867;  -12.133;    0.000;10.26667
 373.30;    1.200;   -0.067;    0.000; 1.26667
 373.59;   28.000;  -20.200;    0.000;48.20000
 373.88;   -8.200;  -15.133;    0.000; 6.93333
 374.17;   20.667;   -1.800;    0.000;22.46667
 374.46;   10.867;  -18.200;    0.000;29.06667
 374.76;    0.133;    7.667;    0.000;-7.53333
 375.05;   17.467;   29.000;    0.000;-11.53333
 375.34;    3.267;   -8.467;    0.000;11.73333
 375.63;  -13.600;    0.467;    0.000;-14.06667
 375.92;   10.867;   -0.533;    0.000;11.40000
 376.21;  -20.067;   -4.600;    0.000;-15.46667
 376.51;   -2.600;  -11.000;    0.000; 8.40000
 376.80;   -9.800;  -11.800;    0.000; 2.00000
 377.09;   -4.267;  -11.600;    0.000; 7.33333
 377.38;   19.667;    0.067;    0.000;19.60000
 377.67;   13.800;  -11.067;    0.000;24.86667
 377.96;   -4.133;  -10.933;    0.000; 6.80000
 378.25;   24.733;    1.467;    0.000;23.26667
 378.55;   -8.733;  -17.800;    0.000; 9.06667
 378.84;   -1.867;  -23.933;    0.000;22.06667
 379.13;   21.000;   -1.000;    0.000;22.00000
 379.42;   -9.800;  -29.667;    0.000;19.86667
 379.71;   -6.467;  -16.400;    0.000; 9.93333
 380.00;   24.267;   -1.400;    0.000;25.66667
 380.29;   -1.933;    7.000;    0.000;-8.93333
 380.59;    7.733;   -4.800;    0.000;12.53333
 380.88;  -11.000;  -16.400;    0.000; 5.40000
 381.17;   -6.333;  -15.867;    0.000; 9.53333
 381.46;   15.867;    2.800;    0.000;13.06667
 381.75;  -16.267;   -2.533;    0.000;-13.73333
 382.04;   12.533;   -7.067;    0.000;19.60000
 382.33;   10.200;  -27.667;    0.000;37.86667
 382.62;  -10.000;  -12.533;    0.000; 2.53333
 382.91;   -2.733;   -2.667;    0.000;-0.06667
 383.21;   -0.133;   -2.067;    0.000; 1.93333
 383.50;    1.933;  -13.133;    0.000;15.06667
 383.79;   16.000;  -19.600;    0.000;35.60000
 384.08;    7.733;  -20.467;    0.000;28.20000
 384.37;   20.133;  -20.000;    0.000;40.13333
 384.66;    8.133;  -16.867;    0.000;25.00000
 384.95;  -28.267;   -5.000;    0.000;-23.26667
 385.24;   26.533;  -13.133;    0.000;39.66667
 385.53;   -7.067;  -11.800;    0.000; 4.73333
 385.83;  -18.667;   -2.400;    0.000;-16.26667
 386.12;   -4.867;  -12.467;    0.000; 7.60000
 386.41;   -3.667;  -16.933;    0.000;13.26667
 386.70;   -3.867;  -12.933;    0.000; 9.06667
 386.99;   18.600;  -20.533;    0.000;39.13333
 387.28;   11.000;    1.800;    0.000; 9.20000
 387.57;   10.800;   -9.267;    0.000;20.06667
 387.86;   -9.600;   -3.333;    0.000;-6.26667
 388.15;   -4.733;  -25.200;    0.000;20.46667
 388.44;  -15.400;   -7.200;    0.000;-8.20000
 388.73;    0.333;  -13.400;    0.000;13.73333
 389.02;  -11.600;    3.467;    0.000;-15.06667
 389.31;    2.467;  -10.667;    0.000;13.13333
 389.61;   -8.867;  -10.667;    0.000; 1.80000
 389.90;   -2.733;  -24.733;    0.000;22.00000
 390.19;  -11.667;   -9.733;    0.000;-1.93333
 390.48;   10.800;  -27.600;    0.000;38.40000
 390.77;    3.933;    6.467;    0.000;-2.53333
 391.06;    2.000;   -7.800;    0.000; 9.80000
 391.35;  -13.733;  -22.800;    0.000; 9.06667
 391.64;   15.467;    1.133;    0.000;14.33333
 391.93;  -21.467;    0.000;    0.000;-21.46667
 392.22;   10.267;  -13.533;    0.000;23.80000
 392.51;   -2.867;  -10.933;    0.000; 8.06667
 392.80;   10.867;   -6.733;    0.000;17.60000
 393.09;  -32.667;  -27.333;    0.000;-5.33333
 393.38;   -8.133;  -14.467;    0.000; 6.33333
 393.67;   -6.667;  -32.867;    0.000;26.20000
 393.96;   17.733;  -11.133;    0.000;28.86667
 394.25;   12.067;  -28.800;    0.000;40.86667
 394.54;   -0.667;  -18.867;    0.000;18.20000
 394.83;   -8.333;  -16.333;    0.000; 8.00000
 395.13;   -7.267;  -12.333;    0.000; 5.06667
 395.42;   -2.600;  -11.733;    0.000; 9.13333
 395.71;   14.933;  -31.733;    0.000;46.66667
 396.00;   -0.933;  -13.667;    0.000;12.73333
 396.29;   -5.000;   -4.733;    0.000;-0.26667
 396.58;   -5.867;   -9.467;    0.000; 3.60000
 396.87;   15.000;    1.200;    0.000;13.80000
 397.16;   -8.667;  -10.133;    0.000; 1.46667
 397.45;   -2.067;  -20.333;    0.000;18.26667
 397.74;  -10.000;  -15.200;    0.000; 5.20000
 398.03;    1.267;  -30.000;    0.000;31.26667
 398.32;   -1.733;  -18.733;    0.000;17.00000
 398.61;   -6.400;  -19.667;    0.000;13.26667
 398.90;   -3.667;  -10.733;    0.000; 7.06667
 399.19;    7.267;  -27.000;    0.000;34.26667
 399.48;   10.400;  -15.533;    0.000;25.93333
 399.77;    8.733;  -12.733;    0.000;21.46667
 400.06;    9.933;  -10.667;    0.000;20.60000
 400.35;    8.533;   -8.200;    0.000;16.73333
 400.64;  -13.667;    6.733;    0.000;-20.40000
 400.93;    9.200;  -24.533;    0.000;33.73333
 401.22;   -2.067;   -5.467;    0.000; 3.40000
 401.51;    9.067;  -10.600;    0.000;19.66667
 401.80;  -19.000;  -23.667;    0.000; 4.66667
 402.09;    6.733;  -12.067;    0.000;18.80000
 402.38;   -0.333;  -16.667;    0.000;16.33333
 402.67;    9.067;    6.600;    0.000; 2.46667
 402.96;   -5.467;  -22.933;    0.000;17.46667
 403.25;   17.000;  -26.200;    0.000;43.20000
 403.54;    4.600;  -16.467;    0.000;21.06667
 403.83;   10.467;   -0.200;    0.000;10.66667
 404.12;    6.333;  -10.000;    0.000;16.33333
 404.41;   -9.000;  -15.067;    0.000; 6.06667
 404.70;   -5.400;    0.533;    0.000;-5.93333
 404.98;   -6.667;   -0.333;    0.000;-6.33333
 405.27;   15.600;  -23.267;    0.000;38.86667
 405.56;   21.800;   -3.867;    0.000;25.66667
 405.85;  -11.467;  -32.400;    0.000;20.93334
 406.14;    6.267;  -28.400;    0.000;34.66667
 406.43;  -23.333;  -25.933;    0.000; 2.60000
 406.72;    5.200;   -6.400;    0.000;11.60000
 407.01;  -11.867;  -17.733;    0.000; 5.86667
 407.30;  -16.867;  -23.733;    0.000; 6.86667
 407.59;   -6.867;  -14.200;    0.000; 7.33333
 407.88;   -5.267;  -23.067;    0.000;17.80000
 408.17;    5.133;   -4.600;    0.000; 9.73333
 408.46;    8.267;   -9.933;    0.000;18.20000
 408.75;    5.933;   -1.533;    0.000; 7.46667
 409.04;  -12.867;  -16.533;    0.000; 3.66667
 409.33;  -11.800;  -28.200;    0.000;16.40000
 409.62;   30.400;  -19.267;    0.000;49.66667
 409.91;   -1.667;  -12.400;    0.000;10.73333
 410.20;   11.133;  -31.000;    0.000;42.13333
 410.48;   -3.200;   -4.467;    0.000; 1.26667
 410.77;   -7.467;  -27.000;    0.000;19.53333
 411.06;    8.800;  -23.000;    0.000;31.80000
 411.35;   11.667;    5.667;    0.000; 6.00000
 411.64;   21.000;   -7.933;    0.000;28.93333
 411.93;    3.200;  -26.000;    0.000;29.20000
 412.22;  -17.200;  -21.533;    0.000; 4.33333
 412.51;    7.867;   -4.467;    0.000;12.33333
 412.80;  -14.600;    2.467;    0.000;-17.06667
 413.09;   -5.867;  -26.667;    0.000;20.80000
 413.38;    5.467;    3.067;    0.000; 2.40000
 413.67;   11.400;  -30.467;    0.000;41.86667
 413.96;  -25.800;  -31.400;    0.000; 5.60000
 414.24;   -5.267;   -9.733;    0.000; 4.46667
 414.53;   -0.133;    5.933;    0.000;-6.06667
 414.82;   11.000;    2.000;    0.000; 9.00000
 415.11;   -6.933;   11.667;    0.000;-18.60000
 415.40;   12.000;  -18.067;    0.000;30.06667
 415.69;  -17.800;   -9.733;    0.000;-8.06667
 415.98;  -11.533;   -1.600;    0.000;-9.93333
 416.27;  -25.200;  -16.267;    0.000;-8.93333
 416.56;    5.733;  -38.667;    0.000;44.40000
 416.84;  -13.467;   -7.600;    0.000;-5.86667
 417.13;   -0.200;  -12.867;    0.000;12.66667
 417.42;    6.467;   -7.067;    0.000;13.53333
 417.71;    4.067;  -20.667;    0.000;24.73333
 418.00;  -11.800;  -17.733;    0.000; 5.93333
 418.29;   -3.067;  -14.600;    0.000;11.53333
 418.58;    6.467;  -36.267;    0.000;42.73333
 418.87;  -12.600;  -16.000;    0.000; 3.40000
 419.15;  -15.933;  -19.800;    0.000; 3.86667
 419.44;    6.133;  -11.533;    0.000;17.66667
 419.73;  -13.600;  -24.200;    0.000;10.60000
 420.02;   11.733;  -34.533;    0.000;46.26667
 420.31;  -15.933;   -7.800;    0.000;-8.13333
 420.60;    4.200;   -0.667;    0.000; 4.86667
 420.89;   -4.867;  -25.200;    0.000;20.33333
 421.18;   11.067;  -17.533;    0.000;28.60000
 421.46;    9.267;  -29.267;    0.000;38.53333
 421.75;   14.933;  -25.333;    0.000;40.26667
 422.04;   -3.467;  -29.333;    0.000;25.86667
 422.33;   13.133;   -3.800;    0.000;16.93333
 422.62;   -7.600;  -12.867;    0.000; 5.26667
 422.91;   10.067;  -28.933;    0.000;39.00000
 423.19;  -23.267;  -30.533;    0.000; 7.26667
 423.48;    1.267;   -8.200;    0.000; 9.46667
 423.77;    4.067;  -16.533;    0.000;20.60000
 424.06;   -0.733;  -32.667;    0.000;31.93333
 424.35;    6.800;  -29.533;    0.000;36.33333
 424.64;   23.267;  -11.667;    0.000;34.93333
 424.93;    0.133;  -10.267;    0.000;10.40000
 425.21;    2.933;  -34.267;    0.000;37.20000
 425.50;   -1.533;  -15.733;    0.000;14.20000
 425.79;    0.200;  -21.533;    0.000;21.73333
 426.08;  -13.667;  -24.467;    0.000;10.80000
 426.37;    2.467;   -5.533;    0.000; 8.00000
 426.65;  -11.933;   -9.733;    0.000;-2.20000
 426.94;   -3.800;  -21.000;    0.000;17.20000
 427.23;    4.200;  -24.133;    0.000;28.33333
 427.52;   -5.267;  -27.333;    0.000;22.06667
 427.81;  -12.800;  -22.067;    0.000; 9.26667
 428.10;   19.533;   -2.667;    0.000;22.20000
 428.38;  -10.400;  -44.067;    0.000;33.66667
 428.67;   -8.933;  -13.733;    0.000; 4.80000
 428.96;  -36.533;  -38.867;    0.000; 2.33333
 429.25;    7.533;   -4.400;    0.000;11.93333
 429.54;  -20.000;  -29.933;    0.000; 9.93333
 429.82;   -1.800;   -8.533;    0.000; 6.73333
 430.11;  -22.133;    5.867;    0.000;-28.00000
 430.40;   14.800;   -2.400;    0.000;17.20000
 430.69;    4.600;  -11.200;    0.000;15.80000
 430.98;    8.933;  -23.667;    0.000;32.60000
 431.26;  -11.933;  -13.867;    0.000; 1.93333
 431.55;    7.333;   -3.400;    0.000;10.73333
 431.84;   -8.133;  -21.000;    0.000;12.86667
 432.13;   -9.933;  -11.267;    0.000; 1.33333
 432.41;    5.400;  -24.200;    0.000;29.60000
 432.70;    2.800;  -20.200;    0.000;23.00000
 432.99;   -9.067;  -17.533;    0.000; 8.46667
 433.28;   -4.667;  -16.933;    0.000;12.26667
 433.57;    6.933;  -16.867;    0.000;23.80000
 433.85;   17.867;  -10.267;    0.000;28.13333
 434.14;  -16.333;   -4.267;    0.000;-12.06667
 434.43;   23.067;  -14.400;    0.000;37.46667
 434.72;  -18.200;  -18.600;    0.000; 0.40000
 435.00;  -19.333;   -6.200;    0.000;-13.13333
 435.29;   -3.400;  -15.933;    0.000;12.53333
 435.58;   -3.933;   -0.067;    0.000;-3.86667
 435.87;  -20.000;   -7.533;    0.000;-12.46667
 436.15;   15.800;  -29.000;    0.000;44.80000
 436.44;    9.800;  -13.200;    0.000;23.00000
 436.73;    2.667;  -17.133;    0.000;19.80000
 437.02;   -7.733;  -12.267;    0.000; 4.53333
 437.30;    4.000;  -12.200;    0.000;16.20000
 437.59;   -0.200;  -14.933;    0.000;14.73333
 437.88;   10.067;  -27.667;    0.000;37.73333
 438.17;  -24.800;  -28.000;    0.000; 3.20000
 438.45;  -19.867;  -13.267;    0.000;-6.60000
 438.74;   -1.933;  -10.533;    0.000; 8.60000
 439.03;  -10.933;  -16.933;    0.000; 6.00000
 439.32;   -7.400;   -0.133;    0.000;-7.26667
 439.60;  -13.000;  -37.000;    0.000;24.00000
 439.89;  -15.733;  -11.200;    0.000;-4.53333
 440.18;   -5.733;   -8.200;    0.000; 2.46667
 440.46;   -8.867;  -26.800;    0.000;17.93333
 440.75;    1.067;  -19.133;    0.000;20.20000
 441.04;    7.533;  -17.400;    0.000;24.93333
 441.33;   21.133;  -25.000;    0.000;46.13333
 441.61;  -24.067;  -16.467;    0.000;-7.60000
 441.90;    1.333;  -10.267;    0.000;11.60000
 442.19;  -20.267;  -40.133;    0.000;19.86667
 442.47;   -4.933;  -10.667;    0.000; 5.73333
 442.76;   -4.400;  -27.267;    0.000;22.86667
 443.05;    1.067;  -13.467;    0.000;14.53333
 443.34;  -13.667;  -29.267;    0.000;15.60000
 443.62;   -1.000;  -16.333;    0.000;15.33333
 443.91;  -16.733;  -30.600;    0.000;13.86667
 444.20;   25.133;   -2.067;    0.000;27.20000
 444.48;  -28.000;  -20.600;    0.000;-7.40000
 444.77;   11.000;  -12.200;    0.000;23.20000
 445.06;  -36.400;  -28.733;    0.000;-7.66667
 445.34;   -4.000;  -19.200;    0.000;15.20000
 445.63;  -13.533;  -32.333;    0.000;18.80000
 445.92;   15.200;    6.733;    0.000; 8.46667
 446.21;   -5.333;   -4.533;    0.000;-0.80000
 446.49;   -0.733;  -22.600;    0.000;21.86667
 446.78;    2.000;   -2.867;    0.000; 4.86667
 447.07;    8.133;  -26.067;    0.000;34.20000
 447.35;   -7.933;  -17.200;    0.000; 9.26667
 447.64;    0.400;  -19.267;    0.000;19.66667
 447.93;   -6.333;  -10.133;    0.000; 3.80000
 448.21;   -6.067;  -11.400;    0.000; 5.33333
 448.50;  -14.467;    1.933;    0.000;-16.40000
 448.79;    3.133;   -7.267;    0.000;10.40000
 449.07;   -2.667;  -19.667;    0.000;17.00000
 449.36;  -15.467;  -32.133;    0.000;16.66667
 449.65;  -21.933;  -27.000;    0.000; 5.06667
 449.93;   15.267;  -13.200;    0.000;28.46667
 450.22;  -13.800;  -10.067;    0.000;-3.73333
 450.51;   -6.933;  -36.933;    0.000;30.00000
 450.79;    8.600;  -24.267;    0.000;32.86667
 451.08;  -11.067;  -18.000;    0.000; 6.93333
 451.36;   -4.867;  -16.533;    0.000;11.66667
 451.65;    0.000;  -11.267;    0.000;11.26667
 451.94;  -15.200;  -22.400;    0.000; 7.20000
 452.22;  -17.867;  -16.533;    0.000;-1.33333
 452.51;    2.800;   -6.400;    0.000; 9.20000
 452.80;  -11.467;  -17.333;    0.000; 5.86667
 453.08;  -21.867;  -30.000;    0.000; 8.13333
 453.37;   13.467;   -1.267;    0.000;14.73333
 453.66;  -13.333;  -25.933;    0.000;12.60000
 453.94;  -16.533;  -22.667;    0.000; 6.13333
 454.23;  -27.267;  -12.867;    0.000;-14.40000
 454.51;    9.867;    6.200;    0.000; 3.66667
 454.80;  -30.600;   -8.933;    0.000;-21.66667
 455.09;   -5.600;  -27.800;    0.000;22.20000
 455.37;    6.067;    3.867;    0.000; 2.20000
 455.66;   -0.200;  -26.733;    0.000;26.53333
 455.95;   -6.400;  -10.000;    0.000; 3.60000
 456.23;   27.000;   -9.800;    0.000;36.80000
 456.52;  -18.467;  -28.867;    0.000;10.40000
 456.80;   -2.867;  -19.933;    0.000;17.06667
 457.09;  -20.267;  -14.933;    0.000;-5.33333
 457.38;   -1.000;  -15.400;    0.000;14.40000
 457.66;   -3.000;  -12.000;    0.000; 9.00000
 457.95;  -17.533;  -26.867;    0.000; 9.33333
 458.23;  -34.400;  -16.133;    0.000;-18.26667
 458.52;   -3.800;  -23.467;    0.000;19.66667
 458.81;  -24.000;  -14.733;    0.000;-9.26667
 459.09;  -10.000;   -9.200;    0.000;-0.80000
 459.38;  -19.333;  -16.133;    0.000;-3.20000
 459.66;   18.000;  -27.267;    0.000;45.26667
 459.95;  -17.067;  -29.133;    0.000;12.06667
 460.23;    4.533;   -0.267;    0.000; 4.80000
 460.52;   -9.267;  -27.733;    0.000;18.46667
 460.81;  -14.400;  -15.067;    0.000; 0.66667
 461.09;    4.867;  -25.600;    0.000;30.46667
 461.38;    2.867;  -19.333;    0.000;22.20000
 461.66;  -15.533;  -25.000;    0.000; 9.46667
 461.95;   -4.933;  -13.400;    0.000; 8.46667
 462.23;    2.667;  -27.133;    0.000;29.80000
 462.52;   -6.133;  -35.933;    0.000;29.80000
 462.81;  -21.067;  -28.667;    0.000; 7.60000
 463.09;   -3.800;  -41.667;    0.000;37.86667
 463.38;  -17.267;   -7.533;    0.000;-9.73333
 463.66;   -7.467;  -18.933;    0.000;11.46667
 463.95;  -12.133;  -17.133;    0.000; 5.00000
 464.23;   -4.467;  -19.400;    0.000;14.93333
 464.52;  -15.000;   -7.133;    0.000;-7.86667
 464.80;   -9.600;  -33.333;    0.000;23.73333
 465.09;    1.667;  -11.733;    0.000;13.40000
 465.38;   17.600;  -27.067;    0.000;44.66667
 465.66;   -6.333;  -25.733;    0.000;19.40000
 465.95;   -9.067;  -32.133;    0.000;23.06667
 466.23;  -14.933;   -8.467;    0.000;-6.46667
 466.52;  -22.800;  -31.200;    0.000; 8.40000
 466.80;  -10.600;   -1.533;    0.000;-9.06667
 467.09;    3.067;  -19.267;    0.000;22.33333
 467.37;   -0.200;  -20.667;    0.000;20.46667
 467.66;  -17.067;  -14.933;    0.000;-2.13333
 467.94;  -16.067;  -17.933;    0.000; 1.86666
 468.23;   -2.067;   -7.000;    0.000; 4.93333
 468.51;   -8.333;    6.867;    0.000;-15.20000
 468.80;  -20.333;  -37.867;    0.000;17.53333
 469.08;  -24.000;   -5.400;    0.000;-18.60000
 469.37;   14.600;  -31.733;    0.000;46.33333
 469.66;   -2.467;  -10.933;    0.000; 8.46667
 469.94;   -7.600;  -26.933;    0.000;19.33333
 470.23;   -7.400;  -12.267;    0.000; 4.86667
 470.51;   -1.600;  -24.800;    0.000;23.20000
 470.80;  -16.200;   -1.000;    0.000;-15.20000
 471.08;   -0.267;  -32.600;    0.000;32.33333
 471.37;   -4.400;  -23.133;    0.000;18.73333
 471.65;   21.267;  -20.067;    0.000;41.33333
 471.94;  -32.333;  -35.333;    0.000; 3.00000
 472.22;    8.200;  -27.333;    0.000;35.53333
 472.51;   -0.933;  -18.733;    0.000;17.80000
 472.79;  -13.667;  -22.667;    0.000; 9.00000
 473.08;    5.000;  -10.600;    0.000;15.60000
 473.36;    9.867;  -13.333;    0.000;23.20000
 473.64;   -3.133;  -12.667;    0.000; 9.53333
 473.93;   -0.333;  -45.933;    0.000;45.60000
 474.21;  -17.667;  -34.267;    0.000;16.60000
 474.50;    0.267;  -14.200;    0.000;14.46667
 474.78;    7.133;    2.867;    0.000; 4.26667
 475.07;   -6.667;  -25.133;    0.000;18.46667
 475.35;  -18.333;  -12.400;    0.000;-5.93333
 475.64;   -1.600;  -35.800;    0.000;34.20000
 475.92;   -9.067;  -18.267;    0.000; 9.20000
 476.21;   11.733;  -48.467;    0.000;60.20000
 476.49;   -4.667;  -20.267;    0.000;15.60000
 476.78;  -14.467;  -10.400;    0.000;-4.06667
 477.06;   -0.467;  -14.067;    0.000;13.60000
 477.35;   15.933;  -21.667;    0.000;37.60000
 477.63;    7.200;  -24.067;    0.000;31.26667
 477.91;  -11.467;  -36.000;    0.000;24.53333
 478.20;   -3.267;  -21.667;    0.000;18.40000
 478.48;   36.467;    1.667;    0.000;34.80000
 478.77;   -1.667;  -30.667;    0.000;29.00000
 479.05;   20.933;  -41.600;    0.000;62.53333
 479.34;  -13.200;  -23.267;    0.000;10.06667
 479.62;   23.600;  -38.733;    0.000;62.33333
 479.91;    5.067;  -13.333;    0.000;18.40000
 480.19;   19.333;   -9.467;    0.000;28.80000
 480.47;  -10.333;  -29.733;    0.000;19.40000
 480.76;   12.067;  -50.333;    0.000;62.40000
 481.04;    9.200;  -16.933;    0.000;26.13333
 481.33;    7.400;   -1.133;    0.000; 8.53333
 481.61;   14.467;  -12.067;    0.000;26.53333
 481.90;   10.867;  -21.333;    0.000;32.20000
 482.18;   -3.733;  -26.600;    0.000;22.86667
 482.46;   26.333;  -22.867;    0.000;49.20000
 482.75;   49.733;  -25.400;    0.000;75.13333
 483.03;   37.933;  -30.267;    0.000;68.20000
 483.32;   27.267;  -45.200;    0.000;72.46667
 483.60;   61.000;  -27.000;    0.000;88.00000
 483.88;   65.267;  -24.200;    0.000;89.46667
 484.17;   58.467;  -13.533;    0.000;72.00000
 484.45;   66.267;  -28.267;    0.000;94.53334
 484.74;   87.000;  -40.400;    0.000;127.40000
 485.02;   94.333;   -2.800;    0.000;97.13334
 485.30;  106.867;  -25.533;    0.000;132.40000
 485.59;  113.133;  -57.333;    0.000;170.46666
 485.87;  140.467;  -13.667;    0.000;154.13333
 486.16;  154.000;  -24.000;    0.000;178.00000
 486.44;  172.400;  -33.533;    0.000;205.93333
 486.72;  134.867;  -23.267;    0.000;158.13334
 487.01;  202.867;  -40.867;    0.000;243.73333
 487.29;  215.733;  -10.400;    0.000;226.13334
 487.58;  242.400;  -12.467;    0.000;254.86666
 487.86;  271.333;  -26.000;    0.000;297.33334
 488.14;  287.933;  -25.067;    0.000;312.99999
 488.43;  309.533;  -20.133;    0.000;329.66666
 488.71;  338.800;  -11.467;    0.000;350.26665
 488.99;  384.733;   -9.400;    0.000;394.13334
 489.28;  391.800;  -34.467;    0.000;426.26665
 489.56;  423.067;  -15.267;    0.000;438.33335
 489.85;  461.133;  -31.600;    0.000;492.73333
 490.13;  502.933;  -28.600;    0.000;531.53332
 490.41;  541.867;  -14.733;    0.000;556.59997
 490.70;  555.533;  -21.400;    0.000;576.93332
 490.98;  635.467;  -39.400;    0.000;674.86668
 491.26;  689.200;  -27.133;    0.000;716.33335
 491.55;  682.867;  -28.067;    0.000;710.93331
 491.83;  811.200;  -30.133;    0.000;841.33335
 492.11;  852.133;  -30.467;    0.000;882.60003
 492.40;  876.200;  -14.600;    0.000;890.80001
 492.68;  923.400;  -22.333;    0.000;945.73336
 492.96; 1010.267;  -32.133;    0.000;1042.40000
 493.25; 1064.333;  -23.267;    0.000;1087.60004
 493.53; 1085.467;  -17.667;    0.000;1103.13334
 493.81; 1202.067;  -42.667;    0.000;1244.73332
 494.10; 1237.267;  -42.467;    0.000;1279.73339
 494.38; 1369.267;  -37.733;    0.000;1407.00006
 494.66; 1424.200;  -12.867;    0.000;1437.06662
 494.95; 1500.667;  -26.000;    0.000;1526.66663
 495.23; 1583.733;   -7.933;    0.000;1591.66661
 495.51; 1614.133;  -10.867;    0.000;1624.99997
 495.80; 1746.800;  -34.067;    0.000;1780.86671
 496.08; 1802.800;    3.400;    0.000;1799.40005
 496.36; 1933.000;   -5.867;    0.000;1938.86667
 496.65; 1967.067;  -15.067;    0.000;1982.13332
 496.93; 2067.200;   -8.467;    0.000;2075.66662
 497.21; 2195.600;  -46.667;    0.000;2242.26677
 497.50; 2311.733;   -9.600;    0.000;2321.33340
 497.78; 2396.933;  -32.000;    0.000;2428.93335
 498.06; 2482.267;  -32.733;    0.000;2514.99994
 498.34; 2622.000;  -25.067;    0.000;2647.06667
 498.63; 2694.800;  -34.667;    0.000;2729.46672
 498.91; 2820.200;  -20.067;    0.000;2840.26662
 499.19; 2926.533;  -33.800;    0.000;2960.33345
 499.48; 3051.467;  -31.467;    0.000;3082.93322
 499.76; 3170.867;   -4.533;    0.000;3175.40003
 500.04; 3237.667;  -35.867;    0.000;3273.53341
 500.32; 3368.533;  -14.000;    0.000;3382.53345
 500.61; 3498.200;  -29.133;    0.000;3527.33328
 500.89; 3611.600;  -24.733;    0.000;3636.33343
 501.17; 3761.933;  -13.533;    0.000;3775.46668
 501.46; 3904.733;  -10.867;    0.000;3915.60007
 501.74; 3994.200;  -28.533;    0.000;4022.73328
 502.02; 4114.667;    0.867;    0.000;4113.79984
 502.30; 4334.800;  -20.800;    0.000;4355.59980
 502.59; 4376.333;  -19.533;    0.000;4395.86683
 502.87; 4525.867;  -38.067;    0.000;4563.93336
 503.15; 4649.867;  -39.733;    0.000;4689.60003
 503.43; 4807.267;  -29.867;    0.000;4837.13327
 503.72; 4944.667;  -33.867;    0.000;4978.53317
 504.00; 5111.200;  -34.067;    0.000;5145.26686
 504.28; 5308.800;  -26.733;    0.000;5335.53314
 504.56; 5395.067;  -31.600;    0.000;5426.66689
 504.85; 5513.467;  -20.533;    0.000;5534.00013
 505.13; 5641.800;  -27.333;    0.000;5669.13314
 505.41; 5854.667;  -26.333;    0.000;5880.99984
 505.69; 5952.533;  -13.467;    0.000;5965.99987
 505.98; 6122.400;  -13.267;    0.000;6135.66657
 506.26; 6241.400;  -33.133;    0.000;6274.53324
 506.54; 6378.533;  -28.000;    0.000;6406.53320
 506.82; 6598.133;  -24.600;    0.000;6622.73330
 507.11; 6718.467;   -3.800;    0.000;6722.26680
 507.39; 6835.267;  -29.533;    0.000;6864.79993
 507.67; 7071.200;  -25.733;    0.000;7096.93353
 507.95; 7170.733;  -31.000;    0.000;7201.73340
 508.23; 7302.733;  -38.400;    0.000;7341.13340
 508.52; 7499.133;  -20.067;    0.000;7519.19997
 508.80; 7599.867;  -18.467;    0.000;7618.33337
 509.08; 7753.067;  -27.067;    0.000;7780.13356
 509.36; 7986.800;   -8.667;    0.000;7995.46647
 509.65; 8127.067;  -20.333;    0.000;8147.40023
 509.93; 8206.533;  -28.067;    0.000;8234.59987
 510.21; 8307.467;  -12.467;    0.000;8319.93346
 510.49; 8454.200;  -18.067;    0.000;8472.26686
 510.77; 8651.467;  -32.933;    0.000;8684.40013
 511.06; 8788.800;  -41.400;    0.000;8830.19981
 511.34; 8958.200;   -9.267;    0.000;8967.46686
 511.62; 9020.934;   -9.533;    0.000;9030.46693
 511.90; 9225.066;  -30.133;    0.000;9255.19974
 512.18; 9374.733;   -8.333;    0.000;9383.06673
 512.47; 9479.934;  -28.133;    0.000;9508.06693
 512.75; 9595.066;  -11.067;    0.000;9606.13307
 513.03; 9725.333;  -10.267;    0.000;9735.59967
 513.31; 9996.533;  -43.867;    0.000;10040.39987
 513.59;10104.733;  -23.000;    0.000;10127.73340
 513.87;10195.467;  -11.000;    0.000;10206.46680
 514.16;10385.866;  -27.333;    0.000;10413.19954
 514.44;10520.000;  -23.400;    0.000;10543.40000
 514.72;10578.066;  -40.333;    0.000;10618.39974
 515.00;10672.333;   -5.467;    0.000;10677.79967
 515.28;10798.200;  -30.933;    0.000;10829.13353
 515.56;11000.200;  -17.133;    0.000;11017.33353
 515.85;11226.533;  -21.200;    0.000;11247.73320
 516.13;11244.134;  -16.200;    0.000;11260.33379
 516.41;11423.333;  -50.467;    0.000;11473.79967
 516.69;11433.800;  -20.533;    0.000;11454.33314
 516.97;11671.333;   -2.733;    0.000;11674.06634
 517.25;11717.600;  -22.267;    0.000;11739.86628
 517.54;11953.066;  -30.000;    0.000;11983.06641
 517.82;12049.333;  -31.000;    0.000;12080.33301
 518.10;12144.667;  -10.600;    0.000;12155.26699
 518.38;12196.800;  -16.400;    0.000;12213.19980
 518.66;12404.600;   -7.933;    0.000;12412.53294
 518.94;12577.733;  -20.133;    0.000;12597.86673
 519.22;12632.600;  -13.000;    0.000;12645.59961
 519.51;12560.066;   10.000;    0.000;12550.06641
 519.79;12829.400;  -17.533;    0.000;12846.93372
 520.07;12941.066;  -16.067;    0.000;12957.13307
 520.35;13127.600;  -29.467;    0.000;13157.06628
 520.63;13112.200;  -20.000;    0.000;13132.20020
 520.91;13270.333;  -27.867;    0.000;13298.19967
 521.19;13384.866;  -34.400;    0.000;13419.26621
 521.47;13458.467;  -16.867;    0.000;13475.33346
 521.75;13507.066;  -26.133;    0.000;13533.19974
 522.04;13784.467;  -21.333;    0.000;13805.80013
 522.32;13891.934;  -36.867;    0.000;13928.80026
 522.60;13935.667;  -30.933;    0.000;13966.60032
 522.88;13986.733;  -24.267;    0.000;14011.00006
 523.16;14120.800;  -42.667;    0.000;14163.46647
 523.44;14168.533;  -20.867;    0.000;14189.39987
 523.72;14294.066;  -24.400;    0.000;14318.46641
 524.00;14376.800;  -13.733;    0.000;14390.53314
 524.28;14510.400;  -11.667;    0.000;14522.06706
 524.57;14560.267;  -14.000;    0.000;14574.26660
 524.85;14721.533;  -31.600;    0.000;14753.13320
 525.13;14747.467;   -3.933;    0.000;14751.40013
 525.41;14784.600;  -35.533;    0.000;14820.13294
 525.69;14828.667;  -23.133;    0.000;14851.80033
 525.97;15003.800;  -10.467;    0.000;15014.26647
 526.25;15061.400;  -24.800;    0.000;15086.20039
 526.53;15161.134;  -41.467;    0.000;15202.60046
 526.81;15177.467;  -43.667;    0.000;15221.13346
 527.09;15348.200;    1.000;    0.000;15347.20020
 527.37;15339.533;  -13.333;    0.000;15352.86654
 527.65;15583.467;  -28.200;    0.000;15611.66680
 527.93;15449.267;  -33.067;    0.000;15482.33327
 528.22;15536.134;  -25.733;    0.000;15561.86712
 528.50;15609.066;  -23.067;    0.000;15632.13307
 528.78;15838.066;  -35.733;    0.000;15873.79974
 529.06;15755.733;  -14.800;    0.000;15770.53340
 529.34;15940.467;  -35.133;    0.000;15975.60013
 529.62;16032.866;  -19.933;    0.000;16052.79954
 529.90;16084.000;  -17.200;    0.000;16101.20000
 530.18;16183.200;    8.533;    0.000;16174.66686
 530.46;16328.000;  -13.333;    0.000;16341.33333
 530.74;16273.667;   -3.333;    0.000;16277.00033
 531.02;16414.199;  -20.133;    0.000;16434.33255
 531.30;16500.000;  -11.467;    0.000;16511.46667
 531.58;16467.000;  -21.933;    0.000;16488.93333
 531.86;16540.867;   -6.467;    0.000;16547.33385
 532.14;16608.199;  -28.667;    0.000;16636.86588
 532.42;16619.600;  -19.800;    0.000;16639.39961
 532.70;16820.600;  -16.733;    0.000;16837.33294
 532.98;16781.666;   -9.867;    0.000;16791.53268
 533.26;16927.732;  -23.533;    0.000;16951.26575
 533.54;16812.133;   -9.067;    0.000;16821.19948
 533.82;16978.934;  -39.467;    0.000;17018.40026
 534.10;17118.000;  -23.533;    0.000;17141.53333
 534.38;17155.400;  -44.267;    0.000;17199.66706
 534.66;17122.934;  -21.267;    0.000;17144.20026
 534.94;17199.732;  -11.467;    0.000;17211.19909
 535.22;17215.467;  -18.267;    0.000;17233.73346
 535.50;17263.934;  -22.600;    0.000;17286.53359
 535.78;17309.467;  -21.933;    0.000;17331.40013
 536.06;17436.400;  -16.533;    0.000;17452.93372
 536.34;17381.801;  -14.600;    0.000;17396.40078
 536.62;17458.066;  -26.733;    0.000;17484.79974
 536.90;17647.400;  -11.867;    0.000;17659.26706
 537.18;17677.801;  -16.667;    0.000;17694.46745
 537.46;17712.000;  -27.867;    0.000;17739.86667
 537.74;17798.400;  -36.200;    0.000;17834.60039
 538.02;17822.934;  -19.800;    0.000;17842.73359
 538.30;18111.400;  -10.533;    0.000;18121.93372
 538.58;17884.867;  -33.733;    0.000;17918.60052
 538.86;17948.133;   -2.267;    0.000;17950.39948
 539.14;17969.066;  -26.667;    0.000;17995.73307
 539.42;18124.934;   -6.000;    0.000;18130.93359
 539.70;18093.934;  -13.933;    0.000;18107.86693
 539.98;18071.801;  -11.067;    0.000;18082.86745
 540.26;18156.268;  -38.400;    0.000;18194.66758
 540.54;18243.666;  -39.333;    0.000;18282.99935
 540.82;18262.000;  -21.133;    0.000;18283.13333
 541.10;18480.133;  -28.733;    0.000;18508.86615
 541.38;18318.732;   -5.867;    0.000;18324.59909
 541.66;18435.400;  -23.200;    0.000;18458.60039
 541.94;18324.666;  -26.200;    0.000;18350.86602
 542.22;18529.199;  -32.267;    0.000;18561.46589
 542.50;18563.199;  -34.133;    0.000;18597.33255
 542.78;18580.066;  -28.000;    0.000;18608.06641
 543.06;18675.000;  -27.867;    0.000;18702.86667
 543.34;18728.934;  -34.333;    0.000;18763.26693
 543.62;18650.732;  -18.867;    0.000;18669.59909
 543.90;18775.533;  -16.733;    0.000;18792.26654
 544.17;18744.199;  -32.067;    0.000;18776.26588
 544.45;18687.268;  -34.933;    0.000;18722.20091
 544.73;18861.934;    3.533;    0.000;18858.40026
 545.01;18741.334;  -33.000;    0.000;18774.33398
 545.29;18969.934;  -26.667;    0.000;18996.60026
 545.57;19003.133;  -20.000;    0.000;19023.13281
 545.85;18955.533;  -18.467;    0.000;18973.99987
 546.13;19001.400;  -32.667;    0.000;19034.06706
 546.41;18930.000;  -30.400;    0.000;18960.40000
 546.69;19154.934;  -21.400;    0.000;19176.33359
 546.97;19110.600;  -38.467;    0.000;19149.06628
 547.25;19047.732;  -31.667;    0.000;19079.39909
 547.52;19082.666;  -20.933;    0.000;19103.59935
 547.80;19080.467;  -19.800;    0.000;19100.26680
 548.08;19323.732;  -16.533;    0.000;19340.26575
 548.36;19159.268;  -24.133;    0.000;19183.40091
 548.64;19149.934;  -14.133;    0.000;19164.06693
 548.92;19206.600;  -20.867;    0.000;19227.46628
 549.20;19301.133;   -5.067;    0.000;19306.19948
 549.48;19205.467;   -7.667;    0.000;19213.13346
 549.76;19292.934;   -8.867;    0.000;19301.80026
 550.04;19386.268;  -31.133;    0.000;19417.40091
 550.31;19244.600;  -20.133;    0.000;19264.73294
 550.59;19264.400;  -35.533;    0.000;19299.93372
 550.87;19477.867;  -23.067;    0.000;19500.93386
 551.15;19381.666;   -9.733;    0.000;19391.39935
 551.43;19247.600;  -14.667;    0.000;19262.26628
 551.71;19484.801;  -29.667;    0.000;19514.46745
 551.99;19330.732;   -8.400;    0.000;19339.13242
 552.27;19452.801;  -38.267;    0.000;19491.06745
 552.54;19277.801;   -6.667;    0.000;19284.46745
 552.82;19503.934;  -19.200;    0.000;19523.13359
 553.10;19502.268;  -25.533;    0.000;19527.80091
 553.38;19486.000;   -9.933;    0.000;19495.93333
 553.66;19572.934;  -42.867;    0.000;19615.80026
 553.94;19409.066;  -23.200;    0.000;19432.26641
 554.22;19354.268;  -16.733;    0.000;19371.00091
 554.49;19511.268;  -28.533;    0.000;19539.80091
 554.77;19447.600;  -23.933;    0.000;19471.53294
 555.05;19326.334;   -9.133;    0.000;19335.46732
 555.33;19440.268;  -13.867;    0.000;19454.13424
 555.61;19383.934;  -11.267;    0.000;19395.20026
 555.89;19503.666;  -21.200;    0.000;19524.86602
 556.16;19508.199;  -23.400;    0.000;19531.59922
 556.44;19573.133;   -7.267;    0.000;19580.39948
 556.72;19459.334;  -11.200;    0.000;19470.53398
 557.00;19414.666;  -13.933;    0.000;19428.59935
 557.28;19526.268;   -9.867;    0.000;19536.13424
 557.56;19582.934;  -15.533;    0.000;19598.46693
 557.83;19571.732;  -11.267;    0.000;19582.99909
 558.11;19539.467;    1.067;    0.000;19538.40013
 558.39;19424.934;  -28.400;    0.000;19453.33359
 558.67;19467.268;   -8.333;    0.000;19475.60091
 558.95;19390.934;  -33.200;    0.000;19424.13359
 559.23;19330.400;  -15.000;    0.000;19345.40039
 559.50;19265.400;  -15.533;    0.000;19280.93372
 559.78;19300.600;    8.733;    0.000;19291.86628
 560.06;19277.199;  -13.133;    0.000;19290.33255
 560.34;19306.133;  -12.800;    0.000;19318.93281
 560.62;19359.801;  -28.733;    0.000;19388.53411
 560.89;19355.600;   -4.867;    0.000;19360.46628
 561.17;19309.268;  -27.600;    0.000;19336.86758
 561.45;19156.867;   -0.533;    0.000;19157.40052
 561.73;19276.334;  -26.267;    0.000;19302.60065
 562.00;19095.066;  -23.667;    0.000;19118.73307
 562.28;19236.334;  -24.867;    0.000;19261.20065
 562.56;19213.867;  -25.333;    0.000;19239.20052
 562.84;19173.268;  -18.533;    0.000;19191.80091
 563.12;19175.533;  -18.000;    0.000;19193.53320
 563.39;19117.133;  -25.533;    0.000;19142.66615
 563.67;19041.867;  -11.933;    0.000;19053.80052
 563.95;19041.732;  -12.400;    0.000;19054.13242
 564.23;18957.867;   13.067;    0.000;18944.80052
 564.50;18909.867;  -11.533;    0.000;18921.40052
 564.78;18880.199;  -11.467;    0.000;18891.66588
 565.06;18856.400;  -22.133;    0.000;18878.53372
 565.34;19044.666;   -8.467;    0.000;19053.13268
 565.61;18762.000;   -9.867;    0.000;18771.86667
 565.89;18843.268;   -9.667;    0.000;18852.93425
 566.17;18873.732;  -36.533;    0.000;18910.26575
 566.45;18878.732;  -10.333;    0.000;18889.06575
 566.73;18753.867;  -33.600;    0.000;18787.46719
 567.00;18633.467;  -34.133;    0.000;18667.60013
 567.28;18641.533;  -19.333;    0.000;18660.86654
 567.56;18527.600;  -21.933;    0.000;18549.53294
 567.83;18537.533;  -20.600;    0.000;18558.13320
 568.11;18495.934;  -26.333;    0.000;18522.26693
 568.39;18545.467;  -18.333;    0.000;18563.80013
 568.67;18345.268;   -8.267;    0.000;18353.53424
 568.94;18450.334;  -17.667;    0.000;18468.00065
 569.22;18385.334;  -18.600;    0.000;18403.93398
 569.50;18324.732;  -19.133;    0.000;18343.86576
 569.78;18333.400;    2.333;    0.000;18331.06706
 570.05;18131.666;  -11.067;    0.000;18142.73268
 570.33;18262.199;  -23.800;    0.000;18285.99922
 570.61;18153.066;  -14.800;    0.000;18167.86641
 570.88;18043.934;   -6.000;    0.000;18049.93359
 571.16;18019.867;  -15.600;    0.000;18035.46719
 571.44;17999.334;  -18.267;    0.000;18017.60065
 571.72;18004.066;  -21.333;    0.000;18025.39974
 571.99;17903.000;  -19.133;    0.000;17922.13333
 572.27;17865.467;  -27.133;    0.000;17892.60013
 572.55;17846.199;   -3.933;    0.000;17850.13255
 572.82;17703.000;  -28.733;    0.000;17731.73333
 573.10;17680.400;   -6.533;    0.000;17686.93372
 573.38;17664.533;  -38.067;    0.000;17702.59987
 573.65;17590.533;   19.800;    0.000;17570.73320
 573.93;17491.268;  -12.733;    0.000;17504.00091
 574.21;17483.467;   -0.600;    0.000;17484.06680
 574.48;17261.334;  -18.933;    0.000;17280.26732
 574.76;17261.732;  -19.667;    0.000;17281.39909
 575.04;17395.199;   -9.200;    0.000;17404.39922
 575.32;17138.133;  -16.933;    0.000;17155.06614
 575.59;17255.199;  -24.467;    0.000;17279.66589
 575.87;17035.467;  -26.400;    0.000;17061.86680
 576.15;17027.934;  -24.867;    0.000;17052.80026
 576.42;17020.268;   -8.933;    0.000;17029.20091
 576.70;16975.268;  -32.600;    0.000;17007.86758
 576.98;16962.133;   -6.000;    0.000;16968.13281
 577.25;16738.867;  -49.933;    0.000;16788.80052
 577.53;16629.066;   -0.933;    0.000;16629.99974
 577.80;16551.732;  -13.733;    0.000;16565.46576
 578.08;16627.133;  -31.800;    0.000;16658.93281
 578.36;16603.600;  -24.867;    0.000;16628.46628
 578.63;16534.133;  -31.000;    0.000;16565.13281
 578.91;16508.666;  -21.067;    0.000;16529.73268
 579.19;16409.732;  -19.000;    0.000;16428.73242
 579.46;16128.733;  -34.400;    0.000;16163.13340
 579.74;16095.400;  -27.333;    0.000;16122.73372
 580.02;16033.134;  -17.400;    0.000;16050.53379
 580.29;16069.467;  -13.333;    0.000;16082.80013
 580.57;15940.934;   -8.333;    0.000;15949.26693
 580.84;15902.333;  -18.400;    0.000;15920.73301
 581.12;15879.467;  -16.733;    0.000;15896.20013
 581.40;15871.333;  -18.533;    0.000;15889.86634
 581.67;15879.467;  -12.267;    0.000;15891.73346
 581.95;15590.400;  -27.867;    0.000;15618.26706
 582.23;15627.533;  -21.133;    0.000;15648.66654
 582.50;15451.866;  -15.933;    0.000;15467.79954
 582.78;15274.333;  -20.200;    0.000;15294.53301
 583.05;15321.934;  -24.867;    0.000;15346.80026
 583.33;15225.934;  -28.067;    0.000;15254.00026
 583.61;15181.267;   -1.533;    0.000;15182.79993
 583.88;15158.934;  -30.933;    0.000;15189.86693
 584.16;14939.200;   -7.600;    0.000;14946.80020
 584.43;14854.800;  -20.467;    0.000;14875.26647
 584.71;14910.134;  -21.400;    0.000;14931.53379
 584.99;14791.533;  -19.133;    0.000;14810.66654
 585.26;14636.934;   -4.400;    0.000;14641.33359
 585.54;14622.467;  -27.533;    0.000;14650.00013
 585.81;14618.066;  -35.200;    0.000;14653.26641
 586.09;14444.733;  -10.933;    0.000;14455.66673
 586.37;14483.267;  -20.267;    0.000;14503.53327
 586.64;14359.134;  -33.400;    0.000;14392.53379
 586.92;14272.267;  -39.000;    0.000;14311.26660
 587.19;14084.667;   -2.200;    0.000;14086.86699
 587.47;14116.134;  -15.000;    0.000;14131.13379
 587.74;14017.667;   -6.267;    0.000;14023.93366
 588.02;13971.467;  -27.000;    0.000;13998.46680
 588.30;13881.267;  -15.133;    0.000;13896.39993
 588.57;13720.000;  -23.133;    0.000;13743.13333
 588.85;13631.134;  -23.133;    0.000;13654.26712
 589.12;13627.733;  -28.400;    0.000;13656.13340
 589.40;13548.467;  -22.933;    0.000;13571.40013
 589.67;13466.533;  -28.933;    0.000;13495.46654
 589.95;13465.934;  -11.267;    0.000;13477.20026
 590.22;13380.066;  -16.867;    0.000;13396.93307
 590.50;13270.600;  -41.067;    0.000;13311.66628
 590.77;13175.066;  -11.667;    0.000;13186.73307
 591.05;13111.667;  -22.600;    0.000;13134.26699
 591.33;13002.533;  -24.733;    0.000;13027.26654
 591.60;13019.800;  -38.000;    0.000;13057.79980
 591.88;12804.934;  -12.333;    0.000;12817.26693
 592.15;12779.934;  -10.667;    0.000;12790.60026
 592.43;12731.333;  -27.533;    0.000;12758.86634
 592.70;12579.333;  -22.200;    0.000;12601.53301
 592.98;12526.866;  -26.733;    0.000;12553.59954
 593.25;12425.400;   -4.067;    0.000;12429.46706
 593.53;12441.533;  -29.200;    0.000;12470.73320
 593.80;12435.134;  -27.800;    0.000;12462.93379
 594.08;12066.000;  -18.267;    0.000;12084.26667
 594.35;12089.400;  -26.933;    0.000;12116.33372
 594.63;11986.333;  -21.800;    0.000;12008.13301
 594.90;11911.134;  -39.200;    0.000;11950.33379
 595.18;11807.267;   -0.467;    0.000;11807.73327
 595.45;11789.000;  -16.067;    0.000;11805.06667
 595.73;11697.934;  -38.733;    0.000;11736.66693
 596.00;11536.467;  -36.067;    0.000;11572.53346
 596.28;11537.733;  -26.200;    0.000;11563.93340
 596.55;11575.400;  -23.067;    0.000;11598.46706
 596.83;11375.267;  -18.533;    0.000;11393.79993
 597.10;11386.667;  -20.533;    0.000;11407.20033
 597.38;11266.467;  -13.400;    0.000;11279.86680
 597.65;11234.200;  -15.400;    0.000;11249.60019
 597.93;11253.134;  -38.400;    0.000;11291.53379
 598.20;11060.600;  -42.067;    0.000;11102.66628
 598.48;10907.267;  -37.533;    0.000;10944.79993
 598.75;10843.600;  -19.200;    0.000;10862.79961
 599.03;10680.800;  -47.800;    0.000;10728.59980
 599.30;10682.467;  -35.600;    0.000;10718.06680
 599.58;10581.000;  -19.400;    0.000;10600.40000
 599.85;10565.066;  -10.400;    0.000;10575.46641
 600.12;10469.134;  -10.200;    0.000;10479.33379
 600.40;10422.267;  -25.600;    0.000;10447.86660
 600.67;10300.533;  -21.467;    0.000;10321.99987
 600.95;10301.800;  -16.800;    0.000;10318.59980
 601.22;10163.866;  -11.533;    0.000;10175.39954
 601.50;10117.333;  -33.067;    0.000;10150.39967
 601.77; 9998.000;   -7.400;    0.000;10005.40000
 602.05; 9929.866;  -16.667;    0.000;9946.53288
 602.32; 9866.467;   -4.800;    0.000;9871.26680
 602.59; 9785.066;  -25.000;    0.000;9810.06641
 602.87; 9709.733;  -37.000;    0.000;9746.73340
 603.14; 9578.934;  -32.600;    0.000;9611.53359
 603.42; 9594.800;  -15.667;    0.000;9610.46647
 603.69; 9546.667;  -31.800;    0.000;9578.46699
 603.97; 9430.066;  -20.267;    0.000;9450.33307
 604.24; 9444.800;  -45.600;    0.000;9490.39980
 604.51; 9290.000;   -9.200;    0.000;9299.20000
 604.79; 9306.066;  -18.000;    0.000;9324.06641
 605.06; 9214.733;  -37.067;    0.000;9251.80006
 605.34; 9048.934;   -3.533;    0.000;9052.46693
 605.61; 9059.267;  -43.800;    0.000;9103.06660
 605.89; 8981.066;  -43.267;    0.000;9024.33307
 606.16; 8953.600;  -26.067;    0.000;8979.66628
 606.43; 8825.000;  -14.067;    0.000;8839.06667
 606.71; 8840.533;  -26.133;    0.000;8866.66654
 606.98; 8749.333;  -33.667;    0.000;8782.99968
 607.26; 8724.134;  -29.133;    0.000;8753.26712
 607.53; 8722.934;  -44.000;    0.000;8766.93359
 607.80; 8586.200;  -39.133;    0.000;8625.33353
 608.08; 8649.467;  -30.733;    0.000;8680.20013
 608.35; 8500.600;  -28.667;    0.000;8529.26628
 608.62; 8467.600;  -28.133;    0.000;8495.73294
 608.90; 8407.467;  -30.200;    0.000;8437.66680
 609.17; 8320.866;  -42.867;    0.000;8363.73288
 609.45; 8274.400;  -20.933;    0.000;8295.33372
 609.72; 8227.600;  -29.200;    0.000;8256.79961
 609.99; 8160.867;  -21.133;    0.000;8182.00003
 610.27; 8054.667;  -25.133;    0.000;8079.79984
 610.54; 8092.800;  -42.200;    0.000;8134.99981
 610.81; 8010.667;  -45.600;    0.000;8056.26650
 611.09; 8001.400;   -6.000;    0.000;8007.39990
 611.36; 7887.867;  -45.400;    0.000;7933.26670
 611.64; 7829.067;  -45.800;    0.000;7874.86689
 611.91; 7750.467;  -28.467;    0.000;7778.93346
 612.18; 7753.067;  -30.400;    0.000;7783.46689
 612.46; 7686.800;  -38.000;    0.000;7724.79980
 612.73; 7585.867;  -19.267;    0.000;7605.13337
 613.00; 7638.800;  -37.600;    0.000;7676.39980
 613.28; 7587.400;  -28.000;    0.000;7615.39990
 613.55; 7489.733;  -42.133;    0.000;7531.86673
 613.82; 7394.733;  -22.267;    0.000;7417.00006
 614.10; 7311.867;  -54.133;    0.000;7366.00003
 614.37; 7254.733;  -32.933;    0.000;7287.66673
 614.64; 7175.933;  -35.133;    0.000;7211.06644
 614.92; 7166.667;  -27.600;    0.000;7194.26650
 615.19; 7050.267;  -34.200;    0.000;7084.46660
 615.46; 6910.667;  -24.133;    0.000;6934.79984
 615.74; 6805.600;  -32.600;    0.000;6838.20010
 616.01; 6702.400;  -26.133;    0.000;6728.53324
 616.28; 6673.200;  -24.600;    0.000;6697.80020
 616.56; 6558.133;  -22.067;    0.000;6580.19997
 616.83; 6393.800;  -25.667;    0.000;6419.46647
 617.10; 6373.400;  -15.267;    0.000;6388.66657
 617.37; 6364.667;  -24.000;    0.000;6388.66650
 617.65; 6398.000;  -26.600;    0.000;6424.60000
 617.92; 6524.267;  -14.333;    0.000;6538.59993
 618.19; 6398.000;  -47.533;    0.000;6445.53333
 618.47; 6326.800;  -30.600;    0.000;6357.39981
 618.74; 6363.667;  -33.333;    0.000;6396.99984
 619.01; 6367.333;  -34.267;    0.000;6401.60016
 619.28; 6228.067;  -28.000;    0.000;6256.06689
 619.56; 6244.267;  -39.267;    0.000;6283.53327
 619.83; 6142.333;  -33.467;    0.000;6175.80016
 620.10; 6157.933;  -40.667;    0.000;6198.59977
 620.38; 6144.333;  -37.467;    0.000;6181.80016
 620.65; 6086.933;  -42.467;    0.000;6129.39977
 620.92; 6099.200;  -18.533;    0.000;6117.73353
 621.19; 6054.067;  -34.733;    0.000;6088.80023
 621.47; 6006.333;  -46.600;    0.000;6052.93349
 621.74; 6063.200;  -44.733;    0.000;6107.93353
 622.01; 6063.333;  -32.467;    0.000;6095.80016
 622.28; 6089.333;  -41.133;    0.000;6130.46683
 622.56; 6019.867;  -21.067;    0.000;6040.93337
 622.83; 6099.000;  -40.600;    0.000;6139.60000
 623.10; 6059.933;  -29.200;    0.000;6089.13311
 623.38; 6067.600;  -46.600;    0.000;6114.20010
 623.65; 5976.333;  -22.000;    0.000;5998.33350
 623.92; 5903.133;  -71.733;    0.000;5974.86663
 624.19; 5876.267;  -53.667;    0.000;5929.93327
 624.46; 5928.533;  -30.933;    0.000;5959.46654
 624.74; 5908.733;  -39.400;    0.000;5948.13340
 625.01; 5854.933;  -30.467;    0.000;5885.39977
 625.28; 5733.533;  -38.600;    0.000;5772.13320
 625.55; 5715.800;  -43.800;    0.000;5759.59980
 625.83; 5741.533;  -38.133;    0.000;5779.66654
 626.10; 5708.667;  -44.933;    0.000;5753.59984
 626.37; 5721.667;  -37.000;    0.000;5758.66650
 626.64; 5630.333;  -40.733;    0.000;5671.06683
 626.92; 5635.800;  -19.333;    0.000;5655.13314
 627.19; 5653.600;  -39.933;    0.000;5693.53343
 627.46; 5563.933;  -30.267;    0.000;5594.19977
 627.73; 5645.333;  -37.400;    0.000;5682.73350
 628.00; 5482.600;  -23.867;    0.000;5506.46676
 628.28; 5499.267;  -41.467;    0.000;5540.73327
 628.55; 5481.867;  -33.800;    0.000;5515.66670
 628.82; 5494.467;  -56.933;    0.000;5551.40013
 629.09; 5522.467;  -33.667;    0.000;5556.13346
 629.36; 5390.400;  -42.600;    0.000;5432.99990
 629.64; 5370.000;  -39.400;    0.000;5409.40000
 629.91; 5422.933;  -14.000;    0.000;5436.93311
 630.18; 5383.200;  -30.133;    0.000;5413.33353
 630.45; 5300.600;  -58.533;    0.000;5359.13343
 630.72; 5243.467;  -42.867;    0.000;5286.33346
 631.00; 5304.000;  -45.333;    0.000;5349.33333
 631.27; 5293.667;  -44.867;    0.000;5338.53317
 631.54; 5228.267;  -49.467;    0.000;5277.73327
 631.81; 5286.200;  -28.200;    0.000;5314.40020
 632.08; 5158.067;  -55.400;    0.000;5213.46690
 632.35; 5178.267;  -26.267;    0.000;5204.53327
 632.63; 5141.333;  -56.600;    0.000;5197.93349
 632.90; 5100.067;  -31.067;    0.000;5131.13356
 633.17; 5117.133;  -52.800;    0.000;5169.93330
 633.44; 5088.133;  -31.667;    0.000;5119.79997
 633.71; 5076.867;  -37.933;    0.000;5114.80003
 633.98; 5036.600;  -25.933;    0.000;5062.53343
 634.25; 5058.933;  -30.667;    0.000;5089.59977
 634.53; 5026.933;  -28.267;    0.000;5055.19977
 634.80; 5006.000;  -31.867;    0.000;5037.86667
 635.07; 4993.733;  -63.267;    0.000;5057.00006
 635.34; 5011.867;  -18.400;    0.000;5030.26670
 635.61; 4957.000;  -22.733;    0.000;4979.73333
 635.88; 4987.800;  -37.000;    0.000;5024.79980
 636.15; 4986.933;  -31.000;    0.000;5017.93311
 636.43; 5055.133;  -33.000;    0.000;5088.13330
 636.70; 4990.800;  -31.400;    0.000;5022.19980
 636.97; 5010.133;  -33.333;    0.000;5043.46663
 637.24; 4936.133;  -45.933;    0.000;4982.06664
 637.51; 4913.867;  -29.533;    0.000;4943.40003
 637.78; 4756.200;  -63.800;    0.000;4820.00019
 638.05; 4742.400;  -29.467;    0.000;4771.86657
 638.32; 4717.333;  -26.533;    0.000;4743.86683
 638.60; 4718.867;  -18.800;    0.000;4737.66670
 638.87; 4695.733;  -47.800;    0.000;4743.53340
 639.14; 4684.867;  -56.133;    0.000;4741.00003
 639.41; 4556.667;  -22.400;    0.000;4579.06650
 639.68; 4593.467;  -58.733;    0.000;4652.20013
 639.95; 4534.400;  -46.467;    0.000;4580.86657
 640.22; 4533.200;  -45.933;    0.000;4579.13353
 640.49; 4501.000;  -17.267;    0.000;4518.26667
 640.76; 4445.800;  -59.400;    0.000;4505.19981
 641.03; 4392.533;  -50.067;    0.000;4442.59987
 641.30; 4364.400;  -39.467;    0.000;4403.86657
 641.58; 4277.533;  -34.467;    0.000;4311.99987
 641.85; 4201.933;  -33.467;    0.000;4235.39977
 642.12; 4215.200;  -47.000;    0.000;4262.20020
 642.39; 4160.400;  -27.867;    0.000;4188.26657
 642.66; 4081.800;  -46.533;    0.000;4128.33338
 642.93; 4114.000;  -43.000;    0.000;4157.00000
 643.20; 4075.533;  -50.533;    0.000;4126.06678
 643.47; 4079.600;  -38.667;    0.000;4118.26677
 643.74; 4007.933;  -60.733;    0.000;4068.66668
 644.01; 3993.867;  -44.200;    0.000;4038.06670
 644.28; 3942.933;  -55.000;    0.000;3997.93335
 644.55; 3881.733;  -49.933;    0.000;3931.66673
 644.82; 3868.133;  -24.867;    0.000;3892.99997
 645.09; 3882.200;  -40.667;    0.000;3922.86662
 645.36; 3883.800;  -23.733;    0.000;3907.53338
 645.63; 3819.600;  -47.733;    0.000;3867.33343
 645.91; 3790.067;  -44.467;    0.000;3834.53332
 646.18; 3729.733;  -28.333;    0.000;3758.06673
 646.45; 3752.867;  -38.800;    0.000;3791.66670
 646.72; 3801.667;  -52.000;    0.000;3853.66675
 646.99; 3669.867;  -30.933;    0.000;3700.80003
 647.26; 3641.800;  -56.600;    0.000;3698.40005
 647.53; 3648.133;  -40.533;    0.000;3688.66663
 647.80; 3647.400;  -34.067;    0.000;3681.46657
 648.07; 3594.000;  -49.400;    0.000;3643.40000
 648.34; 3573.933;  -51.533;    0.000;3625.46668
 648.61; 3615.200;  -37.467;    0.000;3652.66662
 648.88; 3502.933;  -57.733;    0.000;3560.66668
 649.15; 3552.067;  -50.800;    0.000;3602.86665
 649.42; 3494.867;  -38.133;    0.000;3533.00003
 649.69; 3493.667;  -27.733;    0.000;3521.40008
 649.96; 3471.000;  -36.600;    0.000;3507.60000
 650.23; 3410.667;  -30.867;    0.000;3441.53341
 650.50; 3399.133;  -38.667;    0.000;3437.79997
 650.77; 3379.867;  -45.067;    0.000;3424.93336
 651.04; 3364.467;  -58.600;    0.000;3423.06655
 651.31; 3308.600;  -45.000;    0.000;3353.60010
 651.58; 3326.533;  -34.200;    0.000;3360.73345
 651.85; 3264.800;  -23.800;    0.000;3288.60005
 652.12; 3267.667;  -34.733;    0.000;3302.40008
 652.39; 3285.400;  -44.000;    0.000;3329.39990
 652.66; 3248.000;  -45.933;    0.000;3293.93333
 652.93; 3207.067;  -50.733;    0.000;3257.79998
 653.20; 3166.533;  -49.133;    0.000;3215.66678
 653.47; 3180.200;  -45.067;    0.000;3225.26662
 653.74; 3210.733;  -42.467;    0.000;3253.20007
 654.01; 3096.600;  -36.933;    0.000;3133.53343
 654.28; 3104.467;  -30.467;    0.000;3134.93322
 654.55; 3127.000;  -61.533;    0.000;3188.53333
 654.81; 3043.200;  -43.533;    0.000;3086.73328
 655.08; 2961.200;  -63.667;    0.000;3024.86662
 655.35; 2972.733;  -69.067;    0.000;3041.80006
 655.62; 3010.333;  -59.467;    0.000;3069.79992
 655.89; 2970.533;  -61.800;    0.000;3032.33345
 656.16; 2941.400;  -51.133;    0.000;2992.53324
 656.43; 2926.400;  -48.400;    0.000;2974.79990
 656.70; 2938.600;  -30.733;    0.000;2969.33343
 656.97; 2895.267;  -44.933;    0.000;2940.19994
 657.24; 2832.533;  -38.067;    0.000;2870.60011
 657.51; 2860.800;  -62.067;    0.000;2922.86671
 657.78; 2832.733;  -29.333;    0.000;2862.06673
 658.05; 2799.867;  -39.333;    0.000;2839.20003
 658.32; 2808.867;  -41.133;    0.000;2850.00003
 658.59; 2786.400;  -47.333;    0.000;2833.73323
 658.86; 2765.000;  -41.067;    0.000;2806.06667
 659.12; 2734.067;  -57.533;    0.000;2791.59998
 659.39; 2725.800;  -38.733;    0.000;2764.53338
 659.66; 2695.000;  -30.000;    0.000;2725.00000
 659.93; 2685.000;  -29.267;    0.000;2714.26667
 660.20; 2643.600;  -29.800;    0.000;2673.40010
 660.47; 2575.867;  -58.533;    0.000;2634.40003
 660.74; 2599.133;  -46.733;    0.000;2645.86663
 661.01; 2578.200;  -39.733;    0.000;2617.93328
 661.28; 2589.333;  -52.467;    0.000;2641.79992
 661.55; 2590.067;   -0.067;    0.000;2590.13332
 661.81; 2560.133;  -57.600;    0.000;2617.73330
 662.08; 2519.067;  -41.000;    0.000;2560.06665
 662.35; 2517.133;  -49.200;    0.000;2566.33330
 662.62; 2463.400;  -55.200;    0.000;2518.59990
 662.89; 2454.267;  -57.267;    0.000;2511.53327
 663.16; 2462.800;  -32.333;    0.000;2495.13338
 663.43; 2427.267;  -51.067;    0.000;2478.33327
 663.70; 2396.000;  -59.467;    0.000;2455.46667
 663.96; 2389.467;  -47.133;    0.000;2436.59989
 664.23; 2381.267;  -52.400;    0.000;2433.66660
 664.50; 2379.533;  -60.267;    0.000;2439.80011
 664.77; 2342.067;  -49.867;    0.000;2391.93332
 665.04; 2345.600;  -41.200;    0.000;2386.80010
 665.31; 2306.867;  -28.867;    0.000;2335.73337
 665.58; 2295.333;  -39.867;    0.000;2335.19992
 665.84; 2281.867;  -35.467;    0.000;2317.33337
 666.11; 2247.533;  -50.400;    0.000;2297.93345
 666.38; 2219.800;  -46.533;    0.000;2266.33338
 666.65; 2242.400;  -56.667;    0.000;2299.06657
 666.92; 2204.600;  -73.133;    0.000;2277.73343
 667.19; 2178.933;  -45.667;    0.000;2224.60002
 667.46; 2162.667;  -37.067;    0.000;2199.73341
 667.72; 2171.800;  -51.200;    0.000;2223.00005
 667.99; 2107.333;  -40.000;    0.000;2147.33325
 668.26; 2123.067;  -45.933;    0.000;2168.99998
 668.53; 2088.333;  -52.933;    0.000;2141.26659
 668.80; 2098.667;  -41.467;    0.000;2140.13342
 669.06; 2085.267;  -51.133;    0.000;2136.39994
 669.33; 2122.400;  -43.333;    0.000;2165.73323
 669.60; 1999.067;  -51.933;    0.000;2050.99998
 669.87; 2053.600;  -58.533;    0.000;2112.13343
 670.14; 2028.533;  -51.467;    0.000;2079.99999
 670.41; 1998.067;  -60.667;    0.000;2058.73332
 670.67; 2031.800;  -30.333;    0.000;2062.13338
 670.94; 1999.267;  -47.200;    0.000;2046.46672
 671.21; 1952.000;  -39.267;    0.000;1991.26667
 671.48; 1949.800;  -57.200;    0.000;2007.00005
 671.75; 1935.200;  -50.400;    0.000;1985.59995
 672.01; 1913.867;  -31.000;    0.000;1944.86670
 672.28; 1897.667;  -52.667;    0.000;1950.33329
 672.55; 1926.400;  -46.000;    0.000;1972.40002
 672.82; 1858.933;  -56.067;    0.000;1915.00002
 673.08; 1815.933;  -61.000;    0.000;1876.93335
 673.35; 1790.800;  -43.467;    0.000;1834.26672
 673.62; 1791.600;  -43.133;    0.000;1834.73331
 673.89; 1824.133;  -54.600;    0.000;1878.73330
 674.16; 1785.333;  -66.733;    0.000;1852.06670
 674.42; 1754.267;  -51.733;    0.000;1806.00006
 674.69; 1747.067;  -62.933;    0.000;1809.99998
 674.96; 1755.267;  -49.867;    0.000;1805.13339
 675.23; 1709.000;  -71.600;    0.000;1780.60000
 675.49; 1692.933;  -41.533;    0.000;1734.46668
 675.76; 1728.733;  -43.800;    0.000;1772.53328
 676.03; 1691.867;  -36.267;    0.000;1728.13337
 676.30; 1694.467;  -60.333;    0.000;1754.80001
 676.56; 1675.000;  -71.933;    0.000;1746.93333
 676.83; 1632.600;  -55.333;    0.000;1687.93331
 677.10; 1590.867;  -62.600;    0.000;1653.46670
 677.37; 1605.733;  -54.733;    0.000;1660.46661
 677.63; 1583.933;  -62.267;    0.000;1646.20002
 677.90; 1591.733;  -49.333;    0.000;1641.06661
 678.17; 1582.800;  -48.533;    0.000;1631.33338
 678.44; 1583.867;  -45.467;    0.000;1629.33337
 678.70; 1552.933;  -33.867;    0.000;1586.80001
 678.97; 1566.800;  -63.800;    0.000;1630.60005
 679.24; 1532.267;  -48.400;    0.000;1580.66673
 679.50; 1514.000;  -54.133;    0.000;1568.13334
 679.77; 1499.667;  -46.667;    0.000;1546.33329
 680.04; 1494.133;  -54.867;    0.000;1548.99997
 680.31; 1441.867;  -67.400;    0.000;1509.26670
 680.57; 1469.733;  -66.733;    0.000;1536.46661
 680.84; 1417.933;  -63.933;    0.000;1481.86668
 681.11; 1468.333;  -54.533;    0.000;1522.86671
 681.37; 1426.800;  -59.267;    0.000;1486.06672
 681.64; 1414.933;  -62.867;    0.000;1477.80001
 681.91; 1370.067;  -45.733;    0.000;1415.79998
 682.17; 1380.867;  -44.133;    0.000;1425.00003
 682.44; 1375.733;  -65.067;    0.000;1440.79994
 682.71; 1413.933;  -39.733;    0.000;1453.66668
 682.98; 1334.533;  -38.400;    0.000;1372.93333
 683.24; 1346.200;  -65.733;    0.000;1411.93328
 683.51; 1338.667;  -65.067;    0.000;1403.73329
 683.78; 1318.467;  -52.867;    0.000;1371.33334
 684.04; 1262.800;  -44.333;    0.000;1307.13338
 684.31; 1278.467;  -51.067;    0.000;1329.53334
 684.58; 1237.733;  -65.200;    0.000;1302.93327
 684.84; 1329.600;  -45.400;    0.000;1374.99998
 685.11; 1266.667;  -53.067;    0.000;1319.73329
 685.38; 1284.933;  -62.667;    0.000;1347.60002
 685.64; 1232.733;  -70.600;    0.000;1303.33327
 685.91; 1254.933;  -53.133;    0.000;1308.06668
 686.17; 1250.800;  -69.800;    0.000;1320.60005
 686.44; 1224.067;  -51.533;    0.000;1275.59998
 686.71; 1216.067;  -61.867;    0.000;1277.93332
 686.97; 1172.467;  -73.000;    0.000;1245.46667
 687.24; 1159.333;  -57.067;    0.000;1216.40004
 687.51; 1161.133;  -52.800;    0.000;1213.93330
 687.77; 1180.267;  -45.600;    0.000;1225.86672
 688.04; 1129.667;  -66.333;    0.000;1195.99996
 688.31; 1171.200;  -58.600;    0.000;1229.79995
 688.57; 1152.267;  -43.733;    0.000;1196.00006
 688.84; 1095.800;  -44.667;    0.000;1140.46672
 689.10; 1115.533;  -48.533;    0.000;1164.06666
 689.37; 1066.600;  -55.733;    0.000;1122.33331
 689.64; 1122.867;  -54.067;    0.000;1176.93336
 689.90; 1079.667;  -66.467;    0.000;1146.13329
 690.17; 1071.267;  -56.133;    0.000;1127.40006
 690.44; 1083.800;  -63.933;    0.000;1147.73338
 690.70; 1064.933;  -76.533;    0.000;1141.46668
 690.97; 1023.267;  -58.533;    0.000;1081.80000
 691.23; 1003.600;  -66.400;    0.000;1069.99998
 691.50;  970.067;  -52.400;    0.000;1022.46665
 691.77; 1006.667;  -75.133;    0.000;1081.80002
 692.03;  996.667;  -60.600;    0.000;1057.26669
 692.30;  995.733;  -46.000;    0.000;1041.73334
 692.56;  932.067;  -58.467;    0.000;990.53332
 692.83;  927.267;  -57.867;    0.000;985.13333
 693.10;  942.200;  -50.600;    0.000;992.80001
 693.36;  985.867;  -52.800;    0.000;1038.66664
 693.63;  924.733;  -50.733;    0.000;975.46667
 693.89;  923.267;  -52.333;    0.000;975.59999
 694.16;  935.267;  -55.533;    0.000;990.80000
 694.42;  913.200;  -55.467;    0.000;968.66668
 694.69;  905.600;  -30.067;    0.000;935.66664
 694.96;  915.267;  -40.333;    0.000;955.59999
 695.22;  865.000;  -52.533;    0.000;917.53333
 695.49;  927.067;  -28.200;    0.000;955.26665
 695.75;  837.733;  -59.933;    0.000;897.66667
 696.02;  838.000;  -61.200;    0.000;899.20000
 696.28;  826.667;  -50.533;    0.000;877.20002
 696.55;  829.400;  -61.000;    0.000;890.40002
 696.81;  785.467;  -50.933;    0.000;836.40001
 697.08;  793.800;  -71.667;    0.000;865.46665
 697.34;  802.600;  -50.667;    0.000;853.26664
 697.61;  776.600;  -49.400;    0.000;825.99998
 697.88;  783.467;  -49.933;    0.000;833.40001
 698.14;  755.000;  -59.467;    0.000;814.46667
 698.41;  779.800;  -52.000;    0.000;831.79999
 698.67;  731.400;  -59.133;    0.000;790.53336
 698.94;  750.333;  -69.400;    0.000;819.73331
 699.20;  737.667;  -58.600;    0.000;796.26669
 699.47;  725.600;  -69.800;    0.000;795.39998
 699.73;  714.667;  -56.800;    0.000;771.46669
 700.00;  693.133;  -38.200;    0.000;731.33336
 700.26;  710.467;  -59.267;    0.000;769.73334
 700.53;  693.400;  -35.600;    0.000;729.00002
 700.79;  666.267;  -45.600;    0.000;711.86666
 701.06;  666.067;  -60.133;    0.000;726.19999
 701.32;  659.867;  -54.133;    0.000;713.99997
 701.59;  628.333;  -60.800;    0.000;689.13331
 701.85;  606.333;  -52.133;    0.000;658.46665
 702.12;  599.600;  -62.333;    0.000;661.93331
 702.38;  579.800;  -51.333;    0.000;631.13332
 702.65;  613.733;  -43.600;    0.000;657.33334
 702.91;  597.400;  -37.133;    0.000;634.53336
 703.18;  578.533;  -38.600;    0.000;617.13332
 703.44;  567.800;  -65.533;    0.000;633.33332
 703.71;  567.933;  -58.000;    0.000;625.93335
 703.97;  554.267;  -62.133;    0.000;616.40000
 704.24;  538.533;  -57.267;    0.000;595.79999
 704.50;  551.533;  -68.933;    0.000;620.46666
 704.76;  535.867;  -52.200;    0.000;588.06664
 705.03;  533.067;  -69.133;    0.000;602.19998
 705.29;  489.400;  -57.067;    0.000;546.46666
 705.56;  485.933;  -51.133;    0.000;537.06665
 705.82;  471.600;  -69.067;    0.000;540.66667
 706.09;  486.467;  -49.600;    0.000;536.06667
 706.35;  463.133;  -68.267;    0.000;531.40000
 706.62;  508.067;  -52.200;    0.000;560.26668
 706.88;  439.867;  -76.333;    0.000;516.20000
 707.15;  452.467;  -68.133;    0.000;520.60001
 707.41;  424.867;  -73.600;    0.000;498.46667
 707.67;  421.200;  -78.000;    0.000;499.20001
 707.94;  457.733;  -51.933;    0.000;509.66667
 708.20;  430.133;  -61.733;    0.000;491.86666
 708.47;  424.733;  -50.933;    0.000;475.66667
 708.73;  400.200;  -72.667;    0.000;472.86668
 709.00;  414.333;  -44.333;    0.000;458.66668
 709.26;  393.933;  -54.200;    0.000;448.13332
 709.52;  392.000;  -56.067;    0.000;448.06667
 709.79;  394.267;  -62.600;    0.000;456.86666
 710.05;  362.333;  -55.600;    0.000;417.93334
 710.32;  343.200;  -52.800;    0.000;396.00001
 710.58;  320.000;  -71.933;    0.000;391.93333
 710.84;  349.467;  -51.067;    0.000;400.53334
 711.11;  357.867;  -61.467;    0.000;419.33334
 711.37;  367.267;  -62.000;    0.000;429.26666
 711.64;  322.133;  -62.600;    0.000;384.73333
 711.90;  357.200;  -55.333;    0.000;412.53334
 712.16;  312.667;  -57.267;    0.000;369.93332
 712.43;  351.000;  -69.533;    0.000;420.53333
 712.69;  304.600;  -56.467;    0.000;361.06667
 712.96;  318.000;  -77.067;    0.000;395.06667
 713.22;  317.733;  -44.467;    0.000;362.20000
 713.48;  302.933;  -98.333;    0.000;401.26665
 713.75;  294.200;  -45.133;    0.000;339.33335
 714.01;  280.733;  -67.867;    0.000;348.60001
 714.27;  294.733;  -58.400;    0.000;353.13334
 714.54;  321.133;  -54.733;    0.000;375.86666
 714.80;  273.400;  -51.533;    0.000;324.93333
 715.06;  273.067;  -64.067;    0.000;337.13335
 715.33;  268.867;  -62.200;    0.000;331.06667
 715.59;  291.000;  -68.000;    0.000;359.00000
 715.86;  272.800;  -61.800;    0.000;334.59999
 716.12;  276.933;  -75.800;    0.000;352.73332
 716.38;  252.933;  -36.400;    0.000;289.33334
 716.65;  259.800;  -64.400;    0.000;324.19999
 716.91;  269.200;  -73.867;    0.000;343.06668
 717.17;  262.600;  -60.067;    0.000;322.66667
 717.44;  282.000;  -39.533;    0.000;321.53333
 717.70;  252.000;  -58.267;    0.000;310.26667
 717.96;  225.533;  -42.467;    0.000;268.00001
 718.23;  260.867;  -60.667;    0.000;321.53334
 718.49;  228.467;  -71.267;    0.000;299.73333
 718.75;  261.333;  -50.867;    0.000;312.20001
 719.02;  273.267;  -51.333;    0.000;324.59999
 719.28;  220.333;  -74.800;    0.000;295.13333
 719.54;  224.600;  -62.600;    0.000;287.20000
 719.80;  221.533;  -65.667;    0.000;287.20000
 720.07;  226.733;  -39.533;    0.000;266.26667
 720.33;  233.467;  -64.933;    0.000;298.39999
 720.59;  229.467;  -75.400;    0.000;304.86666
 720.86;  232.333;  -81.533;    0.000;313.86666
 721.12;  234.267;  -60.533;    0.000;294.80000
 721.38;  254.000;  -69.667;    0.000;323.66666
 721.65;  219.867;  -68.667;    0.000;288.53333
 721.91;  239.267;  -65.200;    0.000;304.46666
 722.17;  220.733;  -62.000;    0.000;282.73334
 722.43;  246.600;  -66.733;    0.000;313.33334
 722.70;  213.333;  -63.000;    0.000;276.33333
 722.96;  226.467;  -55.133;    0.000;281.59999
 723.22;  213.000;  -64.467;    0.000;277.46667
 723.48;  234.933;  -55.467;    0.000;290.40000
 723.75;  222.000;  -58.667;    0.000;280.66667
 724.01;  224.600;  -63.933;    0.000;288.53334
 724.27;  211.000;  -68.733;    0.000;279.73333
 724.54;  237.400;  -61.467;    0.000;298.86666
 724.80;  212.800;  -74.000;    0.000;286.80000
 725.06;  226.133;  -69.133;    0.000;295.26666
 725.32;  223.400;  -56.800;    0.000;280.19999
 725.59;  230.000;  -58.867;    0.000;288.86666
 725.85;  208.800;  -76.600;    0.000;285.40000
 726.11;  221.133;  -58.733;    0.000;279.86666
 726.37;  212.600;  -54.933;    0.000;267.53334
 726.64;  259.867;  -50.800;    0.000;310.66667
 726.90;  227.200;  -48.267;    0.000;275.46666
 727.16;  215.467;  -66.933;    0.000;282.39999
 727.42;  193.267;  -63.400;    0.000;256.66666
 727.68;  204.067;  -52.267;    0.000;256.33333
 727.95;  182.867;  -70.600;    0.000;253.46667
 728.21;  216.600;  -58.733;    0.000;275.33334
 728.47;  182.867;  -52.867;    0.000;235.73333
 728.73;  224.133;  -45.667;    0.000;269.80000
 729.00;  229.733;  -48.000;    0.000;277.73334
 729.26;  224.800;  -47.000;    0.000;271.80000
 729.52;  186.467;  -61.800;    0.000;248.26666
 729.78;  191.467;  -66.000;    0.000;257.46666
 730.04;  200.067;  -73.400;    0.000;273.46667
 730.31;  207.533;  -62.667;    0.000;270.20001
 730.57;  179.267;  -63.800;    0.000;243.06666
 730.83;  180.067;  -72.267;    0.000;252.33334
 731.09;  198.133;  -34.533;    0.000;232.66666
 731.35;  210.667;  -50.733;    0.000;261.40001
 731.62;  201.333;  -61.733;    0.000;263.06666
 731.88;  170.667;  -54.200;    0.000;224.86667
 732.14;  184.867;  -55.000;    0.000;239.86667
 732.40;  211.333;  -51.933;    0.000;263.26666
 732.66;  181.267;  -62.333;    0.000;243.59999
 732.92;  203.000;  -56.267;    0.000;259.26667
 733.19;  195.667;  -43.933;    0.000;239.60001
 733.45;  198.333;  -52.267;    0.000;250.59999
 733.71;  179.133;  -78.200;    0.000;257.33333
 733.97;  212.933;  -32.000;    0.000;244.93333
 734.23;  181.600;  -46.867;    0.000;228.46667
 734.49;  173.933;  -69.200;    0.000;243.13333
 734.76;  168.467;  -53.533;    0.000;221.99999
 735.02;  170.067;  -80.800;    0.000;250.86667
 735.28;  198.333;  -67.200;    0.000;265.53333
 735.54;  171.067;  -71.600;    0.000;242.66666
 735.80;  157.667;  -72.267;    0.000;229.93334
 736.06;  182.800;  -51.533;    0.000;234.33334
 736.32;  149.133;  -58.333;    0.000;207.46666
 736.59;  167.200;  -74.867;    0.000;242.06667
 736.85;  156.733;  -48.933;    0.000;205.66667
 737.11;  156.200;  -72.267;    0.000;228.46667
 737.37;  161.667;  -73.467;    0.000;235.13334
 737.63;  162.133;  -58.467;    0.000;220.60000
 737.89;  171.933;  -62.533;    0.000;234.46667
 738.15;  181.733;  -56.600;    0.000;238.33334
 738.41;  163.000;  -57.867;    0.000;220.86666
 738.67;  166.533;  -64.067;    0.000;230.60001
 738.94;  152.867;  -58.267;    0.000;211.13334
 739.20;  147.467;  -71.933;    0.000;219.39999
 739.46;  159.867;  -68.333;    0.000;228.20000
 739.72;  166.600;  -84.333;    0.000;250.93334
 739.98;  116.200;  -77.133;    0.000;193.33333
 740.24;  139.333;  -61.000;    0.000;200.33333
 740.50;  143.400;  -63.800;    0.000;207.19999
 740.76;  156.067;  -71.667;    0.000;227.73333
 741.02;  128.933;  -59.200;    0.000;188.13334
 741.28;  145.533;  -63.133;    0.000;208.66668
 741.54;  111.200;  -53.867;    0.000;165.06666
 741.81;  150.067;  -71.133;    0.000;221.20000
 742.07;  128.067;  -70.733;    0.000;198.80000
 742.33;  135.800;  -75.000;    0.000;210.80000
 742.59;  140.200;  -63.933;    0.000;204.13333
 742.85;  125.333;  -68.200;    0.000;193.53333
 743.11;  101.000;  -67.533;    0.000;168.53333
 743.37;  125.133;  -87.267;    0.000;212.40000
 743.63;  109.600;  -65.467;    0.000;175.06667
 743.89;  118.600;  -67.800;    0.000;186.40000
 744.15;  124.733;  -55.267;    0.000;180.00000
 744.41;  112.333;  -55.133;    0.000;167.46667
 744.67;  103.933;  -74.333;    0.000;178.26667
 744.93;  115.533;  -56.200;    0.000;171.73333
 745.19;  116.400;  -69.600;    0.000;186.00000
 745.45;   94.533;  -55.933;    0.000;150.46667
 745.71;  100.467;  -63.867;    0.000;164.33333
 745.97;  114.400;  -62.933;    0.000;177.33334
 746.23;   85.200;  -90.800;    0.000;176.00000
 746.49;   95.333;  -70.533;    0.000;165.86667
 746.75;  107.733;  -67.267;    0.000;175.00000
 747.02;  114.000;  -64.267;    0.000;178.26667
 747.28;   85.533;  -70.867;    0.000;156.40000
 747.54;   90.333;  -71.667;    0.000;162.00000
 747.80;   81.733;  -76.000;    0.000;157.73333
 748.06;   90.067;  -62.200;    0.000;152.26667
 748.32;   81.200;  -63.333;    0.000;144.53333
 748.58;   83.533;  -67.067;    0.000;150.60000
 748.84;   85.600;  -49.733;    0.000;135.33333
 749.10;  171.867;    3.733;    0.000;168.13334
 749.36;   82.667;  -71.533;    0.000;154.20000
 749.62;   84.533;  -82.533;    0.000;167.06667
 749.88;   72.667;  -67.600;    0.000;140.26666
 750.14;   79.667;  -60.867;    0.000;140.53333
 750.40;   66.400;  -78.000;    0.000;144.40000
 750.66;   84.400;  -45.200;    0.000;129.60000
 750.91;   77.800;  -73.533;    0.000;151.33334
 751.17;   64.200;  -60.133;    0.000;124.33333
 751.43;   57.067;  -50.733;    0.000;107.80000
 751.69;   70.800;  -46.267;    0.000;117.06667
 751.95;   80.400;  -52.600;    0.000;133.00000
 752.21;   71.267;  -64.933;    0.000;136.20000
 752.47;   44.800;  -64.600;    0.000;109.40000
 752.73;   59.467;  -78.933;    0.000;138.40000
 752.99;   37.800;  -75.400;    0.000;113.20000
 753.25;   59.267;  -76.133;    0.000;135.40000
 753.51;   74.533;  -60.800;    0.000;135.33333
 753.77;   70.267;  -53.467;    0.000;123.73334
 754.03;   40.333;  -61.133;    0.000;101.46667
 754.29;   44.733;  -78.400;    0.000;123.13334
 754.55;   67.133;  -57.533;    0.000;124.66666
 754.81;   41.200;  -75.467;    0.000;116.66667
 755.07;   35.000;  -66.200;    0.000;101.20000
 755.33;   33.067;  -76.800;    0.000;109.86667
 755.59;   36.933;  -84.133;    0.000;121.06667
 755.85;   41.000;  -83.333;    0.000;124.33334
 756.10;   51.467;  -64.267;    0.000;115.73334
 756.36;   45.867;  -55.600;    0.000;101.46666
 756.62;   25.333;  -67.600;    0.000;92.93333
 756.88;   51.133;  -56.133;    0.000;107.26667
 757.14;   38.133;  -35.000;    0.000;73.13334
 757.40;   48.333;  -66.333;    0.000;114.66667
 757.66;   50.733;  -62.333;    0.000;113.06667
 757.92;   49.000;  -67.400;    0.000;116.40000
 758.18;   46.933;  -57.267;    0.000;104.20000
 758.44;   36.000;  -64.867;    0.000;100.86667
 758.70;   36.933;  -59.533;    0.000;96.46667
 758.95;   39.400;  -56.467;    0.000;95.86667
 759.21;   16.000;  -73.733;    0.000;89.73333
 759.47;   35.267;  -64.867;    0.000;100.13334
 759.73;   16.400;  -73.533;    0.000;89.93333
 759.99;   15.933;  -74.400;    0.000;90.33333
 760.25;    0.467;  -86.333;    0.000;86.80000
 760.51;   37.800;  -91.667;    0.000;129.46666
 760.77;   26.267;  -57.800;    0.000;84.06667
 761.02;   32.067;  -56.600;    0.000;88.66666
 761.28;   32.800;  -68.800;    0.000;101.60000
 761.54;   16.400;  -63.800;    0.000;80.20000
 761.80;   -7.067;  -66.267;    0.000;59.20000
 762.06;   30.667;  -84.133;    0.000;114.80000
 762.32;   22.200;  -74.400;    0.000;96.60000
 762.58;   17.133;  -52.400;    0.000;69.53333
 762.83;   15.600;  -50.733;    0.000;66.33333
 763.09;   25.800;  -72.733;    0.000;98.53333
 763.35;   -2.267;  -61.933;    0.000;59.66667
 763.61;   22.867;  -61.333;    0.000;84.20000
 763.87;   16.200;  -46.667;    0.000;62.86667
 764.13;   16.867;  -50.267;    0.000;67.13333
 764.38;   -4.200;  -73.067;    0.000;68.86667
 764.64;  -18.733;  -84.267;    0.000;65.53334
 764.90;    9.467;  -69.667;    0.000;79.13333
 765.16;   13.400;  -69.200;    0.000;82.60000
 765.42;   28.067;  -53.200;    0.000;81.26667
 765.68;   15.133;  -54.133;    0.000;69.26667
 765.93;   -3.067;  -63.600;    0.000;60.53333
 766.19;   35.400;  -55.600;    0.000;91.00000
 766.45;   -1.267;  -81.800;    0.000;80.53334
 766.71;   17.467;  -64.800;    0.000;82.26667
 766.97;  -18.733;  -65.533;    0.000;46.80000
 767.22;    1.333;  -78.800;    0.000;80.13334
 767.48;   -9.933;  -64.200;    0.000;54.26666
 767.74;    6.133;  -72.533;    0.000;78.66667
 768.00;   -7.133;  -72.867;    0.000;65.73334
 768.26;    3.933;  -74.133;    0.000;78.06666
 768.51;    2.133;  -70.067;    0.000;72.20000
 768.77;   11.333;  -54.600;    0.000;65.93333
 769.03;   -2.333;  -80.867;    0.000;78.53334
 769.29;    2.867;  -70.600;    0.000;73.46667
 769.54;  -12.400;  -67.400;    0.000;55.00000
 769.80;    4.200;  -89.267;    0.000;93.46667
 770.06;    8.133;  -68.533;    0.000;76.66667
 770.32;  -17.067;  -63.333;    0.000;46.26666
 770.57;   -3.800;  -69.533;    0.000;65.73333
 770.83;    5.467;  -55.733;    0.000;61.20000
 771.09;  -18.267;  -88.800;    0.000;70.53334
 771.35;    6.200;  -69.267;    0.000;75.46667
 771.61;  -24.200;  -78.133;    0.000;53.93333
 771.86;   -3.733;  -76.667;    0.000;72.93333
 772.12;  -13.067;  -61.667;    0.000;48.60000
 772.38;   -6.267;  -62.400;    0.000;56.13333
 772.63;  -28.933;  -74.733;    0.000;45.80000
 772.89;   -5.000;  -71.667;    0.000;66.66666
 773.15;  -12.200;  -76.200;    0.000;64.00000
 773.41;  -21.000;  -74.067;    0.000;53.06667
 773.66;    1.667;  -76.733;    0.000;78.40000
 773.92;   -0.667;  -64.733;    0.000;64.06666
 774.18;  -10.000;  -54.467;    0.000;44.46667
 774.44;  -15.267;  -72.933;    0.000;57.66667
 774.69;    4.000;  -64.733;    0.000;68.73333
 774.95;  -21.667;  -55.333;    0.000;33.66667
 775.21;   -6.267;  -55.733;    0.000;49.46667
 775.46;  -17.867;  -87.733;    0.000;69.86666
 775.72;   -1.400;  -54.067;    0.000;52.66667
 775.98;  -19.467;  -51.400;    0.000;31.93333
 776.24;  -16.267;  -65.067;    0.000;48.80000
 776.49;  -17.067;  -72.400;    0.000;55.33333
 776.75;  -21.067;  -58.533;    0.000;37.46667
 777.01;    4.800;  -50.800;    0.000;55.60000
 777.26;  -20.867;  -49.200;    0.000;28.33333
 777.52;  -23.733;  -71.200;    0.000;47.46666
 777.78;   10.733;  -56.933;    0.000;67.66667
 778.03;   -3.000;  -78.000;    0.000;75.00000
 778.29;   -0.267;  -68.867;    0.000;68.60000
 778.55;   -6.067;  -56.933;    0.000;50.86667
 778.80;  -34.200;  -78.867;    0.000;44.66667
 779.06;  -39.800;  -65.333;    0.000;25.53334
 779.32;   -5.733;  -67.867;    0.000;62.13334
 779.57;  -24.867;  -77.333;    0.000;52.46667
 779.83;  -20.867;  -80.000;    0.000;59.13333
 780.09;  -20.667;  -73.800;    0.000;53.13334
 780.34;  -30.667;  -60.000;    0.000;29.33333
 780.60;  -11.267;  -70.867;    0.000;59.60000
 780.86;  -35.400;  -66.400;    0.000;31.00000
 781.11;  -25.333;  -47.933;    0.000;22.60000
 781.37;  -34.667;  -56.600;    0.000;21.93333
 781.63;   -4.800;  -55.400;    0.000;50.60000
 781.88;  -21.200;  -67.467;    0.000;46.26667
 782.14;  -10.467;  -81.667;    0.000;71.20000
 782.39;  -28.667;  -97.533;    0.000;68.86667
 782.65;   -7.867;  -84.933;    0.000;77.06667
 782.91;  -15.800;  -64.533;    0.000;48.73333
 783.16;   -5.867;  -70.133;    0.000;64.26666
 783.42;  -39.000;  -82.267;    0.000;43.26667
 783.67;  -16.933;  -58.267;    0.000;41.33333
 783.93;  -48.000;  -68.467;    0.000;20.46667
 784.19;  -23.067;  -72.533;    0.000;49.46667
 784.44;  -21.200;  -55.800;    0.000;34.60000
 784.70;   -3.667;  -71.667;    0.000;68.00000
 784.96;  -35.933;  -92.400;    0.000;56.46667
 785.21;  -14.800;  -50.867;    0.000;36.06666
 785.47;  -24.933;  -63.467;    0.000;38.53333
 785.72;  -32.267;  -75.133;    0.000;42.86666
 785.98;  -30.733;  -75.867;    0.000;45.13334
 786.23;  -23.333;  -71.000;    0.000;47.66667
 786.49;  -39.400;  -61.667;    0.000;22.26667
 786.75;  -14.800;  -83.933;    0.000;69.13333
 787.00;  -18.467;  -73.867;    0.000;55.40000
 787.26;  -35.400;  -80.467;    0.000;45.06667
 787.51;  -37.067;  -61.000;    0.000;23.93333
 787.77;  -23.533;  -71.200;    0.000;47.66666
 788.02;  -40.667;  -43.200;    0.000; 2.53333
 788.28;  -27.067;  -80.400;    0.000;53.33333
 788.54;  -43.200;  -79.933;    0.000;36.73333
 788.79;  -11.333;  -71.133;    0.000;59.80000
 789.05;  -27.533;  -87.200;    0.000;59.66666
 789.30;  -51.800;  -58.933;    0.000; 7.13334
 789.56;  -52.267;  -73.400;    0.000;21.13334
 789.81;  -42.600;  -77.200;    0.000;34.60000
 790.07;  -31.600;  -52.467;    0.000;20.86667
 790.32;  -32.467;  -73.333;    0.000;40.86667
 790.58;  -34.733;  -53.333;    0.000;18.60000
 790.83;  -26.400;  -69.200;    0.000;42.80000
 791.09;  -42.733;  -88.200;    0.000;45.46666
 791.35;  -37.000;  -88.200;    0.000;51.20000
 791.60;  -46.200;  -64.733;    0.000;18.53333
 791.86;  -44.133;  -77.267;    0.000;33.13334
 792.11;  -25.933;  -67.600;    0.000;41.66667
 792.37;  -44.600;  -76.200;    0.000;31.60000
 792.62;  -35.100;  -64.967;    0.000;29.86667
 792.88;  -25.600;  -53.733;    0.000;28.13333
 793.13;  -39.733;  -74.533;    0.000;34.80000
 793.39;  -38.800;  -79.600;    0.000;40.80000
 793.64;  -54.467;  -87.000;    0.000;32.53333
 793.90;  -27.333;  -65.000;    0.000;37.66667
 794.15;  -40.733;  -54.733;    0.000;14.00000
 794.41;  -26.000;  -71.533;    0.000;45.53333
 794.66;  -40.467;  -62.400;    0.000;21.93333
 794.92;  -25.133;  -69.800;    0.000;44.66667
 795.17;  -39.333;  -68.267;    0.000;28.93334
 795.43;  -58.800;  -65.600;    0.000; 6.80000
 795.68;  -58.600;  -67.933;    0.000; 9.33334
 795.94;  -19.267;  -73.000;    0.000;53.73333
 796.19;  -58.667;  -84.000;    0.000;25.33333
 796.44;  -36.800;  -85.133;    0.000;48.33333
 796.70;  -48.400;  -50.467;    0.000; 2.06667
 796.95;  -27.733;  -77.667;    0.000;49.93333
 797.21;  -17.133;  -80.200;    0.000;63.06666
 797.46;  -33.667;  -82.800;    0.000;49.13334
 797.72;  -40.933;  -71.000;    0.000;30.06667
 797.97;  -40.933;  -72.800;    0.000;31.86667
 798.23;  -47.800;  -77.200;    0.000;29.40000
 798.48;  -11.800;  -67.333;    0.000;55.53334
 798.74;  -51.133;  -72.333;    0.000;21.20000
 798.99;  -36.333;  -85.267;    0.000;48.93334
 799.24;  -43.133;  -71.133;    0.000;28.00000
 799.50;  -13.867;  -75.667;    0.000;61.80000
 799.75;  -45.000;  -71.533;    0.000;26.53333
 800.01;  -44.733;  -69.733;    0.000;25.00000
 800.26;  -54.067;  -70.600;    0.000;16.53333
 800.52;  -37.467;  -66.400;    0.000;28.93333
 800.77;  -49.600;  -65.267;    0.000;15.66667
 801.02;  -53.533;  -68.667;    0.000;15.13333
 801.28;  -61.200;  -45.067;    0.000;-16.13334
 801.53;  -35.800;  -75.133;    0.000;39.33333
 801.79;  -38.667;  -61.067;    0.000;22.40000
 802.04;  -25.533;  -77.200;    0.000;51.66666
 802.29;  -47.800;  -70.933;    0.000;23.13334
 802.55;  -45.867;  -73.933;    0.000;28.06667
 802.80;  -58.467;  -50.533;    0.000;-7.93333
 803.06;  -36.867;  -67.933;    0.000;31.06667
 803.31;  -37.733;  -67.467;    0.000;29.73333
 803.56;  -34.600;  -80.333;    0.000;45.73334
 803.82;  -54.667;  -73.600;    0.000;18.93333
 804.07;  -39.133;  -77.000;    0.000;37.86666
 804.32;  -53.000;  -75.267;    0.000;22.26667
 804.58;  -47.600;  -83.800;    0.000;36.20000
 804.83;  -41.600;  -62.333;    0.000;20.73333
 805.09;  -57.267;  -78.800;    0.000;21.53334
 805.34;  -32.933;  -49.333;    0.000;16.40000
 805.59;  -29.733;  -64.333;    0.000;34.60000
 805.85;  -55.933;  -70.800;    0.000;14.86667
 806.10;  -37.533;  -62.200;    0.000;24.66667
 806.35;  -34.733;  -69.400;    0.000;34.66667
 806.61;  -50.400;  -87.667;    0.000;37.26666
 806.86;  -56.000;  -74.667;    0.000;18.66666
 807.11;  -59.000;  -63.067;    0.000; 4.06667
 807.37;  -45.933;  -52.400;    0.000; 6.46667
 807.62;  -53.400;  -80.933;    0.000;27.53333
 807.87;  -66.267;  -61.000;    0.000;-5.26667
 808.13;  -44.533;  -74.733;    0.000;30.20000
 808.38;  -45.200;  -75.867;    0.000;30.66667
 808.63;  -37.467;  -89.933;    0.000;52.46667
 808.89;  -56.933;  -59.533;    0.000; 2.60000
 809.14;  -57.733;  -82.467;    0.000;24.73333
 809.39;  -56.867;  -72.867;    0.000;16.00000
 809.65;  -53.267;  -86.200;    0.000;32.93333
 809.90;  -58.800;  -76.533;    0.000;17.73333
 810.15;  -26.133;  -61.133;    0.000;35.00000
 810.41;  -40.333;  -57.600;    0.000;17.26667
 810.66;  -41.733;  -74.067;    0.000;32.33333
 810.91;  -59.200;  -78.600;    0.000;19.40000
 811.16;  -74.933;  -80.400;    0.000; 5.46667
 811.42;  -39.733;  -81.600;    0.000;41.86666
 811.67;  -41.533;  -55.533;    0.000;14.00000
 811.92;  -57.533;  -76.800;    0.000;19.26667
 812.18;  -54.600;  -69.267;    0.000;14.66667
 812.43;  -63.400;  -79.267;    0.000;15.86667
 812.68;  -56.533;  -84.600;    0.000;28.06667
 812.93;  -53.133;  -57.667;    0.000; 4.53333
 813.19;  -55.667;  -86.267;    0.000;30.60000
 813.44;  -57.800;  -72.067;    0.000;14.26667
 813.69;  -57.533;  -64.467;    0.000; 6.93333
 813.95;  -55.133;  -67.867;    0.000;12.73333
 814.20;  -43.600;  -75.467;    0.000;31.86667
 814.45;  -66.533;  -81.467;    0.000;14.93333
 814.70;  -37.200;  -67.133;    0.000;29.93333
 814.96;  -37.800;  -72.800;    0.000;35.00000
 815.21;  -51.000;  -78.000;    0.000;27.00000
 815.46;  -70.800;  -64.333;    0.000;-6.46667
 815.71;  -56.067;  -70.533;    0.000;14.46667
 815.96;  -38.133;  -81.133;    0.000;43.00000
 816.22;  -55.067;  -82.733;    0.000;27.66666
 816.47;  -68.267;  -61.333;    0.000;-6.93334
 816.72;  -41.267;  -86.667;    0.000;45.40000
 816.97;  -45.467;  -89.933;    0.000;44.46667
 817.23;  -49.933;  -56.400;    0.000; 6.46667
 817.48;  -63.533;  -52.267;    0.000;-11.26667
 817.73;  -41.667;  -82.467;    0.000;40.80000
 817.98;  -37.200;  -79.867;    0.000;42.66667
 818.23;  -53.133;  -71.667;    0.000;18.53333
 818.49;  -56.533;  -68.267;    0.000;11.73334
 818.74;  -32.667;  -56.600;    0.000;23.93333
 818.99;  -63.933;  -75.333;    0.000;11.40000
 819.24;  -60.667;  -65.333;    0.000; 4.66667
 819.50;  -80.000;  -86.400;    0.000; 6.40000
 819.75;  -55.400;  -73.000;    0.000;17.60000
 820.00;  -34.067;  -60.600;    0.000;26.53333
 820.25;  -45.000;  -77.267;    0.000;32.26667
 820.50;  -68.733;  -75.867;    0.000; 7.13334
 820.75;  -39.800;  -76.000;    0.000;36.20000
 821.01;  -60.267;  -66.933;    0.000; 6.66667
 821.26;  -61.067;  -67.867;    0.000; 6.80000
 821.51;  -63.533;  -73.267;    0.000; 9.73334
 821.76;  -48.000;  -83.733;    0.000;35.73333
 822.01;  -42.733;  -64.933;    0.000;22.20000
 822.26;  -54.067;  -61.933;    0.000; 7.86667
 822.52;  -38.667;  -86.400;    0.000;47.73333
 822.77;  -57.400;  -89.867;    0.000;32.46667
 823.02;  -50.933;  -54.800;    0.000; 3.86666
 823.27;  -49.400;  -79.733;    0.000;30.33333
 823.52;  -47.933;  -77.867;    0.000;29.93333
 823.77;  -30.267;  -91.267;    0.000;61.00000
 824.03;  -64.467;  -73.400;    0.000; 8.93333
 824.28;  -53.600;  -67.400;    0.000;13.80000
 824.53;  -58.000;  -49.000;    0.000;-9.00000
 824.78;  -38.000;  -65.600;    0.000;27.60000
 825.03;  -66.800;  -75.133;    0.000; 8.33333
 825.28;  -44.933;  -62.867;    0.000;17.93333
 825.53;  -59.400;  -70.600;    0.000;11.20000
 825.78;  -60.600;  -58.733;    0.000;-1.86666
 826.04;  -53.733;  -76.867;    0.000;23.13334
 826.29;  -73.333;  -65.400;    0.000;-7.93333
 826.54;  -50.067;  -75.267;    0.000;25.20000
 826.79;  -54.867;  -74.800;    0.000;19.93334
 827.04;  -78.667;  -78.333;    0.000;-0.33333
 827.29;  -49.867;  -78.533;    0.000;28.66667
 827.54;  -59.267;  -55.733;    0.000;-3.53333
 827.79;  -72.000;  -70.267;    0.000;-1.73333
 828.04;  -42.133;  -61.200;    0.000;19.06667
 828.29;  -56.400;  -78.400;    0.000;22.00000
 828.55;  -71.267;  -82.733;    0.000;11.46666
 828.80;  -46.867;  -74.933;    0.000;28.06667
 829.05;  -63.600;  -80.667;    0.000;17.06667
 829.30;  -84.933;  -86.467;    0.000; 1.53333
 829.55;  -45.333;  -78.200;    0.000;32.86666
 829.80;  -79.133;  -65.667;    0.000;-13.46667
 830.05;  -62.400;  -67.200;    0.000; 4.80000
 830.30;  -67.267;  -87.000;    0.000;19.73333
 830.55;  -59.733;  -69.200;    0.000; 9.46666
 830.80;  -54.667;  -71.600;    0.000;16.93333
 831.05;  -66.200;  -64.467;    0.000;-1.73333
 831.30;  -24.733;  -76.267;    0.000;51.53334
 831.55;  -43.600;  -54.400;    0.000;10.80000
 831.80;  -46.467;  -81.333;    0.000;34.86667
 832.05;  -43.467;  -61.867;    0.000;18.40000
 832.30;  -46.600;  -66.067;    0.000;19.46667
 832.56;  -74.667;  -85.333;    0.000;10.66667
 832.81;  -52.733;  -74.067;    0.000;21.33333
 833.06;  -56.000;  -44.800;    0.000;-11.20000
 833.31;  -40.400;  -96.867;    0.000;56.46667
 833.56;  -68.667;  -66.133;    0.000;-2.53333
 833.81;  -42.200;  -64.267;    0.000;22.06667
 834.06;  -54.067;  -66.333;    0.000;12.26667
 834.31;  -65.800;  -78.667;    0.000;12.86666
 834.56;  -58.133;  -70.933;    0.000;12.80000
 834.81;  -62.200;  -93.733;    0.000;31.53333
 835.06;  -69.000;  -86.200;    0.000;17.20000
 835.31;  -71.533;  -81.000;    0.000; 9.46667
 835.56;  -53.333;  -32.200;    0.000;-21.13333
 835.81;  -59.400;  -81.067;    0.000;21.66666
 836.06;  -54.067;  -61.667;    0.000; 7.60000
 836.31;  -56.133;  -86.133;    0.000;30.00000
 836.56;  -65.467;  -76.400;    0.000;10.93333
 836.81;  -58.600;  -73.467;    0.000;14.86667
 837.06;  -75.467;  -82.400;    0.000; 6.93333
 837.31;  -53.867;  -80.067;    0.000;26.20000
 837.56;  -56.200;  -78.000;    0.000;21.80000
 837.81;  -50.600;  -66.867;    0.000;16.26667
 838.06;  -55.400;  -72.000;    0.000;16.60000
 838.31;  -33.667;  -68.200;    0.000;34.53333
 838.56;  -78.600;  -88.067;    0.000; 9.46667
 838.80;  -57.867;  -80.333;    0.000;22.46667
 839.05;  -58.867;  -62.067;    0.000; 3.20000
 839.30;  -64.867;  -89.200;    0.000;24.33333
 839.55;  -64.200;  -60.533;    0.000;-3.66666
 839.80;  -35.000;  -78.000;    0.000;43.00000
 840.05;  -50.600;  -86.533;    0.000;35.93333
 840.30;  -48.133;  -73.133;    0.000;25.00000
 840.55;  -49.067;  -67.000;    0.000;17.93333
 840.80;  -54.067;  -45.533;    0.000;-8.53333
 841.05;  -71.267;  -75.400;    0.000; 4.13333
 841.30;  -61.600;  -69.133;    0.000; 7.53333
 841.55;  -60.667;  -81.333;    0.000;20.66667
 841.80;  -67.733;  -89.267;    0.000;21.53334
 842.05;  -84.467;  -80.800;    0.000;-3.66666
 842.30;  -55.333;  -66.733;    0.000;11.40000
 842.55;  -62.000;  -70.000;    0.000; 8.00000
 842.79;  -59.067;  -61.000;    0.000; 1.93333
 843.04;  -70.800;  -67.333;    0.000;-3.46667
 843.29;  -40.333;  -59.933;    0.000;19.60000
 843.54;  -64.200;  -69.533;    0.000; 5.33334
 843.79;  -65.467;  -82.467;    0.000;17.00000
 844.04;  -62.933;  -56.000;    0.000;-6.93333
 844.29;  -49.133;  -91.133;    0.000;42.00000
 844.54;  -69.467;  -66.267;    0.000;-3.20000
 844.79;  -48.533;  -72.333;    0.000;23.80000
 845.04;  -62.067;  -64.867;    0.000; 2.80000
 845.28;  -64.400;  -89.533;    0.000;25.13333
 845.53;  -68.933;  -64.800;    0.000;-4.13333
 845.78;  -50.867;  -78.467;    0.000;27.60000
 846.03;  -62.200;  -77.000;    0.000;14.80000
 846.28;  -53.600;  -70.200;    0.000;16.60000
 846.53;  -41.400;  -51.733;    0.000;10.33333
 846.78;  -67.867;  -57.600;    0.000;-10.26667
 847.02;  -56.333;  -49.267;    0.000;-7.06667
 847.27;  -33.933;  -66.133;    0.000;32.20000
 847.52;  -66.867;  -67.800;    0.000; 0.93333
 847.77;  -57.467;  -72.600;    0.000;15.13333
 848.02;  -71.600;  -67.667;    0.000;-3.93333
 848.27;  -59.933;  -81.000;    0.000;21.06667
 848.52;  -65.067;  -65.267;    0.000; 0.20000
 848.76;  -49.267;  -79.133;    0.000;29.86666
 849.01;  -62.467;  -71.333;    0.000; 8.86667
 849.26;  -55.333;  -74.333;    0.000;19.00000
 849.51;  -57.800;  -71.400;    0.000;13.60000
 849.76;  -78.133;  -92.000;    0.000;13.86667
 850.01;  -86.400;  -82.467;    0.000;-3.93333
 850.25;  -75.333;  -74.067;    0.000;-1.26667
 850.50;  -66.267;  -66.533;    0.000; 0.26666
 850.75;  -54.000;  -55.800;    0.000; 1.80000
 851.00;  -78.667;  -73.667;    0.000;-5.00000
 851.25;  -44.133;  -69.467;    0.000;25.33333
 851.49;  -77.267;  -99.467;    0.000;22.20000
 851.74;  -69.333;  -79.533;    0.000;10.20000
 851.99;  -60.667;  -73.267;    0.000;12.60000
 852.24;  -63.133;  -62.067;    0.000;-1.06667
 852.49;  -58.200;  -74.800;    0.000;16.60000
 852.73;  -73.600;  -76.667;    0.000; 3.06667
 852.98;  -53.400;  -74.733;    0.000;21.33333
 853.23;  -54.867;  -57.467;    0.000; 2.60000
 853.48;  -77.400;  -94.200;    0.000;16.80000
 853.73;  -48.400;  -64.400;    0.000;16.00000
 853.97;  -75.200;  -65.867;    0.000;-9.33333
 854.22;  -49.000;  -72.667;    0.000;23.66666
 854.47;  -68.400;  -81.400;    0.000;13.00000
 854.72;  -62.000;  -60.267;    0.000;-1.73333
 854.96;  -66.933;  -71.600;    0.000; 4.66666
 855.21;  -45.133;  -76.533;    0.000;31.40000
 855.46;  -49.867;  -61.333;    0.000;11.46667
 855.71;  -77.800;  -89.467;    0.000;11.66666
 855.95;  -47.600;  -64.400;    0.000;16.80000
 856.20;  -64.400;  -66.000;    0.000; 1.60000
 856.45;  -69.467;  -74.400;    0.000; 4.93333
 856.70;  -65.200;  -86.267;    0.000;21.06667
 856.94;  -68.733;  -65.533;    0.000;-3.20000
 857.19;  -58.000;  -78.267;    0.000;20.26667
 857.44;  -79.067;  -79.933;    0.000; 0.86667
 857.69;  -66.133;  -83.267;    0.000;17.13334
 857.93;  -73.800;  -66.333;    0.000;-7.46667
 858.18;  -48.667;  -77.267;    0.000;28.60000
 858.43;  -68.400;  -57.333;    0.000;-11.06667
 858.67;  -28.133;  -53.067;    0.000;24.93333
 858.92;  -72.600;  -58.333;    0.000;-14.26667
 859.17;  -48.867;  -63.933;    0.000;15.06667
 859.42;  -79.800;  -69.467;    0.000;-10.33334
 859.66;  -67.200;  -76.333;    0.000; 9.13334
 859.91;  -66.400;  -59.133;    0.000;-7.26667
 860.16;  -74.133;  -93.600;    0.000;19.46667
 860.40;  -64.200;  -79.333;    0.000;15.13334
 860.65;  -71.533;  -94.733;    0.000;23.20000
 860.90;  -68.533;  -66.667;    0.000;-1.86667
 861.14;  -72.067;  -80.400;    0.000; 8.33334
 861.39;  -77.667;  -68.000;    0.000;-9.66666
 861.64;  -66.800;  -53.733;    0.000;-13.06667
 861.88;  -59.667;  -76.000;    0.000;16.33333
 862.13;  -38.667;  -52.933;    0.000;14.26667
 862.38;  -81.400;  -67.933;    0.000;-13.46667
 862.62;  -53.200;  -56.400;    0.000; 3.20000
 862.87;  -90.800;  -81.933;    0.000;-8.86667
 863.12;  -63.933;  -72.000;    0.000; 8.06667
 863.36;  -70.067;  -81.800;    0.000;11.73334
 863.61;  -67.867;  -63.200;    0.000;-4.66667
 863.86;  -55.200;  -87.533;    0.000;32.33333
 864.10;  -82.200;  -69.400;    0.000;-12.80000
 864.35;  -73.400;  -63.200;    0.000;-10.20000
 864.60;  -65.533;  -79.667;    0.000;14.13333
 864.84;  -61.267;  -68.933;    0.000; 7.66667
 865.09;  -85.000;  -72.000;    0.000;-13.00000
 865.33;  -64.600;  -56.800;    0.000;-7.80000
 865.58;  -46.733;  -82.800;    0.000;36.06667
 865.83;  -59.533;  -71.800;    0.000;12.26667
 866.07;  -59.133;  -89.067;    0.000;29.93333
 866.32;  -44.267;  -52.667;    0.000; 8.40000
 866.57;  -61.733;  -66.800;    0.000; 5.06667
 866.81;  -74.933;  -66.067;    0.000;-8.86667
 867.06;  -71.333;  -87.733;    0.000;16.39999
 867.30;  -93.067;  -82.267;    0.000;-10.80000
 867.55;  -57.267;  -71.867;    0.000;14.60000
 867.80;  -62.333;  -58.733;    0.000;-3.60000
 868.04;  -55.400;  -68.400;    0.000;13.00000
 868.29;  -78.933;  -73.000;    0.000;-5.93333
 868.53;  -71.600;  -53.933;    0.000;-17.66666
 868.78;  -74.600;  -66.600;    0.000;-8.00000
 869.03;  -59.333;  -71.267;    0.000;11.93334
 869.27;  -73.400;  -83.533;    0.000;10.13333
 869.52;  -49.467;  -80.267;    0.000;30.80000
 869.76;  -59.800;  -68.667;    0.000; 8.86666
 870.01;  -66.467;  -74.000;    0.000; 7.53333
 870.25;  -32.533;  -65.267;    0.000;32.73334
 870.50;  -56.400;  -57.200;    0.000; 0.80000
 870.75;  -61.067;  -61.533;    0.000; 0.46667
 870.99;  -71.867;  -65.467;    0.000;-6.40000
 871.24;  -74.800;  -65.133;    0.000;-9.66667
 871.48;  -52.533;  -64.800;    0.000;12.26667
 871.73;  -59.533;  -78.267;    0.000;18.73334
 871.97;  -82.200;  -79.933;    0.000;-2.26666
 872.22;  -79.667;  -52.467;    0.000;-27.20000
 872.46;  -71.200;  -63.200;    0.000;-8.00000
 872.71;  -69.600;  -93.600;    0.000;24.00000
 872.95;  -63.000;  -67.800;    0.000; 4.80000
 873.20;  -61.533;  -65.533;    0.000; 4.00000
 873.44;  -42.467;  -60.000;    0.000;17.53333
 873.69;  -77.133;  -81.800;    0.000; 4.66667
 873.94;  -69.800;  -71.733;    0.000; 1.93333
 874.18;  -60.933;  -89.133;    0.000;28.20000
 874.43;  -63.067;  -63.067;    0.000; 0.00000
 874.67;  -72.200;  -59.733;    0.000;-12.46666
 874.92;  -64.067;  -62.200;    0.000;-1.86666
 875.16;  -82.600;  -47.533;    0.000;-35.06667
 875.41;  -60.533;  -99.000;    0.000;38.46667
 875.65;  -64.400;  -50.333;    0.000;-14.06667
 875.90;  -70.467;  -64.400;    0.000;-6.06667
 876.14;  -69.133;  -79.000;    0.000; 9.86667
 876.39;  -63.333;  -64.067;    0.000; 0.73333
 876.63;  -63.867;  -55.800;    0.000;-8.06667
 876.88;  -59.333;  -60.867;    0.000; 1.53333
 877.12;  -75.267;  -65.733;    0.000;-9.53334
 877.36;  -54.733;  -85.867;    0.000;31.13334
 877.61;  -70.333;  -77.667;    0.000; 7.33333
 877.85;  -65.400;  -52.667;    0.000;-12.73333
 878.10;  -72.600;  -73.000;    0.000; 0.40000
 878.34;  -51.067;  -51.733;    0.000; 0.66667
 878.59;  -53.533;  -68.200;    0.000;14.66666
 878.83;  -71.800;  -84.667;    0.000;12.86666
 879.08;  -57.333;  -73.600;    0.000;16.26667
 879.32;  -59.733;  -63.400;    0.000; 3.66667
 879.57;  -47.400;  -66.867;    0.000;19.46667
 879.81;  -59.533;  -80.867;    0.000;21.33334
 880.05;  -45.600;  -60.800;    0.000;15.20000
 880.30;  -52.067;  -74.267;    0.000;22.20000
 880.54;  -58.333;  -71.667;    0.000;13.33333
 880.79;  -71.400;  -74.600;    0.000; 3.20000
 881.03;  -53.533;  -63.867;    0.000;10.33333
 881.28;  -55.600;  -48.467;    0.000;-7.13333
 881.52;  -72.867;  -76.533;    0.000; 3.66666
 881.76;  -47.867;  -62.533;    0.000;14.66667
 882.01;  -66.867;  -65.267;    0.000;-1.60000
 882.25;  -70.600;  -75.200;    0.000; 4.60000
 882.50;  -78.467;  -69.133;    0.000;-9.33334
 882.74;  -50.467;  -74.200;    0.000;23.73333
 882.98;  -51.267;  -64.667;    0.000;13.40000
 883.23;  -59.067;  -78.933;    0.000;19.86667
 883.47;  -60.000;  -51.667;    0.000;-8.33333
 883.72;  -46.067;  -67.267;    0.000;21.20000
 883.96;  -40.400;  -53.133;    0.000;12.73333
 884.20;  -67.333;  -82.467;    0.000;15.13333
 884.45;  -56.133;  -54.667;    0.000;-1.46667
 884.69;  -42.467;  -57.600;    0.000;15.13333
 884.94;  -47.733;  -34.733;    0.000;-13.00000
 885.18;  -51.133;  -57.667;    0.000; 6.53333
 885.42;  -48.933;  -61.000;    0.000;12.06667
 885.67;  -66.667;  -77.400;    0.000;10.73334
 885.91;  -57.733;  -67.733;    0.000;10.00000
 886.15;  -38.600;  -37.933;    0.000;-0.66666
 886.40;  -60.533;  -71.733;    0.000;11.20000
 886.64;  -47.533;  -68.400;    0.000;20.86667
 886.88;  -56.133;  -59.533;    0.000; 3.40000
 887.13;  -51.400;  -47.333;    0.000;-4.06667
 887.37;  -60.733;  -74.533;    0.000;13.80000
 887.62;  -46.933;  -41.333;    0.000;-5.60000
 887.86;  -55.400;  -55.933;    0.000; 0.53333
 888.10;  -45.733;  -69.867;    0.000;24.13334
 888.35;  -44.933;  -41.867;    0.000;-3.06667
 888.59;  -33.000;  -59.400;    0.000;26.40000
 888.83;  -61.800;  -57.200;    0.000;-4.60000
 889.07;  -42.533;  -72.467;    0.000;29.93333
 889.32;  -52.267;  -65.800;    0.000;13.53334
 889.56;  -50.267;  -62.800;    0.000;12.53333
 889.80;  -41.000;  -45.000;    0.000; 4.00000
 890.05;  -53.800;  -57.533;    0.000; 3.73333
 890.29;  -55.733;  -49.333;    0.000;-6.40000
 890.53;  -65.667;  -41.667;    0.000;-24.00000
 890.78;  -52.333;  -56.067;    0.000; 3.73333
 891.02;  -42.133;  -58.400;    0.000;16.26667
 891.26;  -68.200;  -42.600;    0.000;-25.60000
 891.51;  -46.467;  -46.800;    0.000; 0.33333
 891.75;  -55.600;  -49.267;    0.000;-6.33333
 891.99;  -61.800;  -39.467;    0.000;-22.33333
 892.23;  -47.400;  -61.867;    0.000;14.46666
 892.48;  -51.400;  -46.800;    0.000;-4.60000
 892.72;  -62.267;  -38.933;    0.000;-23.33333
 892.96;  -48.933;  -46.333;    0.000;-2.60000
 893.20;  -36.400;  -30.467;    0.000;-5.93333
 893.45;  -40.733;  -57.067;    0.000;16.33333
 893.69;  -48.667;  -46.933;    0.000;-1.73333
 893.93;  -36.400;  -52.800;    0.000;16.40000
 894.17;  -56.733;  -39.867;    0.000;-16.86667
 894.42;  -33.600;  -59.400;    0.000;25.80000
 894.66;  -53.133;  -48.000;    0.000;-5.13334
 894.90;  -20.333;  -30.267;    0.000; 9.93333
 895.14;  -49.800;  -21.867;    0.000;-27.93333
 895.39;  -41.400;  -49.600;    0.000; 8.20000
 895.63;  -32.533;  -24.133;    0.000;-8.40000
 895.87;  -35.733;  -44.800;    0.000; 9.06667
 896.11;  -30.267;  -13.333;    0.000;-16.93333
 896.36;  -22.933;  -25.200;    0.000; 2.26667
 896.60;  -43.200;  -35.867;    0.000;-7.33334
 896.84;  -17.067;  -10.733;    0.000;-6.33333
 897.08;  -22.000;  -22.067;    0.000; 0.06667
 897.32;  -20.933;  -17.800;    0.000;-3.13333
 897.57;   -9.733;  -23.333;    0.000;13.60000
 897.81;  -10.733;  -13.667;    0.000; 2.93333
 898.05;  -19.933;  -26.400;    0.000; 6.46667
 898.29;  -22.467;   -7.933;    0.000;-14.53333
 898.53;  -14.067;   -5.800;    0.000;-8.26667
 898.78;  -20.333;   -4.000;    0.000;-16.33333
 899.02;    4.400;   -9.000;    0.000;13.40000
 899.26;   -9.333;   -9.133;    0.000;-0.20000
 899.50;   19.733;   19.867;    0.000;-0.13333
 899.74;    6.133;   15.400;    0.000;-9.26667
 899.99;  -10.733;   14.267;    0.000;-25.00000
 900.23;   14.800;    9.867;    0.000; 4.93333
 900.47;    9.400;   22.333;    0.000;-12.93333
 900.71;   15.600;   -3.200;    0.000;18.80000
 900.95;   30.333;   22.800;    0.000; 7.53333
 901.19;   46.867;   30.400;    0.000;16.46667
 901.44;   37.400;   57.733;    0.000;-20.33333
 901.68;   72.267;   80.267;    0.000;-8.00000
 901.92;   63.600;   84.533;    0.000;-20.93333
 902.16;   96.800;   82.333;    0.000;14.46667
 902.40;  113.867;  100.200;    0.000;13.66667
 902.64;  124.667;  141.400;    0.000;-16.73333
 902.88;  127.333;  166.867;    0.000;-39.53333
 903.13;  208.200;  166.800;    0.000;41.39999

