point5
Integration time [ms]:  30.000
Averaging Nr. [scans]: 15
Smoothing Nr. [pixels]: 0
Data measured with spectrometer [name]: 1307077U2
Wave   ;Sample   ;Dark     ;Reference;Scope Corrected for Dark
[nm]   ;[counts] ;[counts] ;[counts] 

 350.80;   17.400;   -8.467;    0.000;25.86667
 351.10;   -9.867;   -4.133;    0.000;-5.73333
 351.39;   30.400;   10.733;    0.000;19.66667
 351.69;  -21.733;  -17.000;    0.000;-4.73333
 351.99;    0.067;  -22.067;    0.000;22.13333
 352.28;  -13.867;   -1.733;    0.000;-12.13333
 352.58;    6.867;  -16.200;    0.000;23.06667
 352.88;  -13.067;    1.867;    0.000;-14.93333
 353.17;   15.000;    6.267;    0.000; 8.73333
 353.47;  -11.733;   -4.800;    0.000;-6.93333
 353.76;   13.933;    8.667;    0.000; 5.26667
 354.06;   -0.067;   -2.733;    0.000; 2.66667
 354.36;    6.333;    6.200;    0.000; 0.13333
 354.65;   20.333;    1.200;    0.000;19.13333
 354.95;    7.800;   -5.733;    0.000;13.53333
 355.24;   -4.800;   -3.467;    0.000;-1.33333
 355.54;   -9.200;   -9.867;    0.000; 0.66667
 355.84;   -1.800;    2.133;    0.000;-3.93333
 356.13;   25.667;   35.267;    0.000;-9.60000
 356.43;   -7.600;   -2.000;    0.000;-5.60000
 356.72;    6.933;  -24.733;    0.000;31.66667
 357.02;   -5.600;    7.267;    0.000;-12.86667
 357.31;   10.600;    4.400;    0.000; 6.20000
 357.61;   12.733;   10.000;    0.000; 2.73333
 357.91;  -11.733;  -10.400;    0.000;-1.33333
 358.20;   -4.800;  -11.067;    0.000; 6.26667
 358.50;   -5.533;   -0.133;    0.000;-5.40000
 358.79;   -3.400;   -5.667;    0.000; 2.26667
 359.09;   32.200;   -7.000;    0.000;39.20000
 359.38;   -1.067;  -11.800;    0.000;10.73333
 359.68;  -21.533;  -19.400;    0.000;-2.13333
 359.98;   -1.600;  -12.067;    0.000;10.46667
 360.27;   17.800;  -20.467;    0.000;38.26667
 360.57;   -7.133;  -24.467;    0.000;17.33333
 360.86;   19.933;  -13.467;    0.000;33.40000
 361.16;  -12.600;  -10.933;    0.000;-1.66667
 361.45;  -11.867;    0.933;    0.000;-12.80000
 361.75;  -21.733;  -14.467;    0.000;-7.26667
 362.04;   39.133;   20.200;    0.000;18.93333
 362.34;    8.067;    7.200;    0.000; 0.86667
 362.64;   11.400;   -3.600;    0.000;15.00000
 362.93;   -3.133;  -22.667;    0.000;19.53333
 363.23;   -4.333;  -26.267;    0.000;21.93333
 363.52;  -10.400;  -31.067;    0.000;20.66667
 363.82;    7.400;  -15.667;    0.000;23.06667
 364.11;   10.933;    2.867;    0.000; 8.06667
 364.41;  -18.400;  -19.200;    0.000; 0.80000
 364.70;   -9.467;  -11.067;    0.000; 1.60000
 365.00;   18.933;   -4.333;    0.000;23.26667
 365.29;   -6.667;   -9.133;    0.000; 2.46667
 365.59;  -10.200;   -4.267;    0.000;-5.93333
 365.88;  -13.467;   -8.867;    0.000;-4.60000
 366.18;   19.333;   -2.200;    0.000;21.53333
 366.47;    4.267;    6.000;    0.000;-1.73333
 366.77;    2.467;   15.800;    0.000;-13.33333
 367.06;   -5.267;  -16.267;    0.000;11.00000
 367.36;    6.600;   -4.267;    0.000;10.86667
 367.65;   -3.400;   -1.400;    0.000;-2.00000
 367.95;  -11.133;   -3.333;    0.000;-7.80000
 368.24;    1.600;   -7.667;    0.000; 9.26667
 368.54;  -22.667;  -20.133;    0.000;-2.53333
 368.83;    0.400;    2.667;    0.000;-2.26667
 369.13;   16.600;   10.533;    0.000; 6.06667
 369.42;   -5.000;   -4.867;    0.000;-0.13333
 369.72;   12.667;  -13.400;    0.000;26.06667
 370.01;   13.200;   -8.267;    0.000;21.46667
 370.31;   20.000;    5.600;    0.000;14.40000
 370.60;   23.067;   26.333;    0.000;-3.26667
 370.90;   -5.067;  -20.200;    0.000;15.13333
 371.19;   -8.667;  -26.200;    0.000;17.53333
 371.49;    0.133;    3.400;    0.000;-3.26667
 371.78;  -13.133;    3.133;    0.000;-16.26667
 372.08;    8.467;   -7.267;    0.000;15.73333
 372.37;  -22.200;  -14.667;    0.000;-7.53333
 372.67;    5.333;    6.067;    0.000;-0.73333
 372.96;   -7.200;    0.000;    0.000;-7.20000
 373.26;   -9.267;  -11.133;    0.000; 1.86667
 373.55;    7.333;   -1.933;    0.000; 9.26667
 373.85;  -19.000;  -13.267;    0.000;-5.73333
 374.14;    0.733;    4.933;    0.000;-4.20000
 374.43;    3.733;   -6.867;    0.000;10.60000
 374.73;  -33.333;  -10.333;    0.000;-23.00000
 375.02;   27.533;    7.600;    0.000;19.93333
 375.32;  -25.733;  -20.267;    0.000;-5.46667
 375.61;    2.467;  -15.067;    0.000;17.53333
 375.91;  -24.933;  -30.467;    0.000; 5.53333
 376.20;  -10.267;  -10.400;    0.000; 0.13333
 376.50;    0.533;  -20.133;    0.000;20.66667
 376.79;   -5.400;  -22.667;    0.000;17.26667
 377.08;  -13.533;  -28.533;    0.000;15.00000
 377.38;  -15.067;  -18.667;    0.000; 3.60000
 377.67;   -1.400;   16.333;    0.000;-17.73333
 377.97;  -16.267;  -18.200;    0.000; 1.93333
 378.26;   -2.533;  -10.133;    0.000; 7.60000
 378.56;  -13.800;  -34.867;    0.000;21.06666
 378.85;   -4.800;   -6.600;    0.000; 1.80000
 379.14;   -9.133;  -29.133;    0.000;20.00000
 379.44;   -5.333;  -13.533;    0.000; 8.20000
 379.73;    6.400;  -14.267;    0.000;20.66667
 380.03;   -4.467;   14.000;    0.000;-18.46667
 380.32;   -4.200;   -6.133;    0.000; 1.93333
 380.62;  -13.400;   -9.267;    0.000;-4.13333
 380.91;   15.733;   -4.733;    0.000;20.46667
 381.20;   -7.867;    3.067;    0.000;-10.93333
 381.50;   -7.467;  -14.600;    0.000; 7.13333
 381.79;   -8.067;  -19.400;    0.000;11.33333
 382.09;  -19.800;  -19.600;    0.000;-0.20000
 382.38;    0.667;  -23.667;    0.000;24.33333
 382.67;   -1.600;  -19.000;    0.000;17.40000
 382.97;  -16.267;  -16.267;    0.000; 0.00000
 383.26;    1.533;  -24.533;    0.000;26.06667
 383.56;    1.867;    7.333;    0.000;-5.46667
 383.85;    5.733;  -13.667;    0.000;19.40000
 384.14;    1.533;    2.600;    0.000;-1.06667
 384.44;   -9.400;  -26.267;    0.000;16.86667
 384.73;  -17.933;    8.533;    0.000;-26.46667
 385.02;  -12.933;  -23.800;    0.000;10.86667
 385.32;    3.000;   -4.933;    0.000; 7.93333
 385.61;  -21.000;  -17.333;    0.000;-3.66667
 385.91;    7.067;   -6.933;    0.000;14.00000
 386.20;   -8.267;  -30.267;    0.000;22.00000
 386.49;  -19.000;  -30.467;    0.000;11.46667
 386.79;   -5.000;    7.867;    0.000;-12.86667
 387.08;  -11.333;  -30.600;    0.000;19.26667
 387.37;    5.133;  -20.267;    0.000;25.40000
 387.67;   -9.467;  -21.600;    0.000;12.13333
 387.96;  -10.467;  -13.133;    0.000; 2.66667
 388.25;   20.133;   11.600;    0.000; 8.53333
 388.55;  -11.133;  -20.200;    0.000; 9.06667
 388.84;  -16.467;  -14.533;    0.000;-1.93333
 389.14;   -6.333;  -10.333;    0.000; 4.00000
 389.43;   -4.267;   -7.467;    0.000; 3.20000
 389.72;  -13.933;  -21.200;    0.000; 7.26667
 390.02;   -8.600;    8.333;    0.000;-16.93333
 390.31;    2.400;  -17.333;    0.000;19.73333
 390.60;  -11.933;  -17.933;    0.000; 6.00000
 390.90;   -9.933;  -15.533;    0.000; 5.60000
 391.19;   -9.200;  -21.133;    0.000;11.93333
 391.48;   -3.667;  -18.733;    0.000;15.06667
 391.78;  -11.533;  -15.600;    0.000; 4.06667
 392.07;   47.600;   24.600;    0.000;23.00000
 392.36;   -5.000;   -8.067;    0.000; 3.06667
 392.66;  -22.200;   -9.933;    0.000;-12.26667
 392.95;  -31.133;  -23.400;    0.000;-7.73333
 393.24;  -39.533;   -7.667;    0.000;-31.86667
 393.53;   -8.467;  -25.267;    0.000;16.80000
 393.83;  -25.600;  -30.133;    0.000; 4.53333
 394.12;  -17.733;   -2.133;    0.000;-15.60000
 394.41;  -12.067;   -0.733;    0.000;-11.33333
 394.71;   -9.200;   -2.267;    0.000;-6.93333
 395.00;    7.000;   -8.667;    0.000;15.66667
 395.29;  -13.533;   -0.600;    0.000;-12.93333
 395.59;  -24.733;  -33.333;    0.000; 8.60000
 395.88;  -15.333;   -9.800;    0.000;-5.53333
 396.17;  -26.533;  -29.400;    0.000; 2.86667
 396.46;   -9.533;   -1.467;    0.000;-8.06667
 396.76;  -33.067;  -26.867;    0.000;-6.20000
 397.05;   11.133;   31.267;    0.000;-20.13333
 397.34;  -20.933;  -28.200;    0.000; 7.26667
 397.64;  -26.467;  -27.000;    0.000; 0.53333
 397.93;  -10.933;  -28.333;    0.000;17.40000
 398.22;  -21.267;  -16.600;    0.000;-4.66667
 398.51;   -3.467;  -25.000;    0.000;21.53333
 398.81;  -20.067;  -11.467;    0.000;-8.60000
 399.10;   -0.133;  -16.800;    0.000;16.66667
 399.39;   -3.600;  -22.000;    0.000;18.40000
 399.69;   -0.800;  -21.933;    0.000;21.13333
 399.98;   -9.267;    5.200;    0.000;-14.46667
 400.27;  -24.467;  -31.733;    0.000; 7.26667
 400.56;  -18.400;  -13.400;    0.000;-5.00000
 400.86;   -0.267;  -22.467;    0.000;22.20000
 401.15;    4.067;   -5.467;    0.000; 9.53333
 401.44;  -26.067;  -24.333;    0.000;-1.73333
 401.73;   -8.467;   -4.133;    0.000;-4.33333
 402.03;   -2.333;  -29.533;    0.000;27.20000
 402.32;  -23.467;  -27.800;    0.000; 4.33333
 402.61;  -16.867;  -19.667;    0.000; 2.80000
 402.90;  -30.067;   -8.533;    0.000;-21.53333
 403.20;    0.800;    3.667;    0.000;-2.86667
 403.49;   -4.933;  -21.867;    0.000;16.93333
 403.78;  -14.067;  -23.600;    0.000; 9.53333
 404.07;  -14.800;   -4.667;    0.000;-10.13333
 404.37;    7.800;    1.400;    0.000; 6.40000
 404.66;  -26.400;  -18.667;    0.000;-7.73333
 404.95;   -9.000;  -12.200;    0.000; 3.20000
 405.24;  -28.267;  -24.467;    0.000;-3.80000
 405.53;   -7.933;  -20.800;    0.000;12.86667
 405.83;   -3.267;   -9.933;    0.000; 6.66667
 406.12;  -20.067;  -19.200;    0.000;-0.86667
 406.41;   -2.533;   -6.533;    0.000; 4.00000
 406.70;    2.733;  -20.600;    0.000;23.33333
 407.00;    0.067;  -11.467;    0.000;11.53333
 407.29;   -2.733;  -23.067;    0.000;20.33333
 407.58;  -19.267;  -22.400;    0.000; 3.13333
 407.87;    7.133;  -29.133;    0.000;36.26667
 408.16;  -25.200;  -15.933;    0.000;-9.26667
 408.46;  -15.333;  -31.067;    0.000;15.73333
 408.75;  -23.600;  -17.733;    0.000;-5.86667
 409.04;   -3.200;   -7.733;    0.000; 4.53333
 409.33;   -6.067;  -25.133;    0.000;19.06667
 409.62;    3.200;  -19.000;    0.000;22.20000
 409.92;  -11.067;   -0.600;    0.000;-10.46667
 410.21;   -3.600;  -31.667;    0.000;28.06667
 410.50;  -21.267;  -24.333;    0.000; 3.06667
 410.79;   16.733;   -1.333;    0.000;18.06667
 411.08;  -26.933;  -10.533;    0.000;-16.40000
 411.37;  -11.533;  -37.067;    0.000;25.53333
 411.67;  -34.533;  -34.533;    0.000; 0.00000
 411.96;  -10.467;  -20.067;    0.000; 9.60000
 412.25;  -18.067;  -12.533;    0.000;-5.53333
 412.54;    5.267;  -34.133;    0.000;39.40000
 412.83;  -28.133;  -17.867;    0.000;-10.26667
 413.13;   -6.800;  -10.600;    0.000; 3.80000
 413.42;  -20.200;  -21.867;    0.000; 1.66667
 413.71;   -2.067;  -13.400;    0.000;11.33333
 414.00;  -11.667;  -17.800;    0.000; 6.13333
 414.29;   -3.867;  -18.000;    0.000;14.13333
 414.58;  -23.067;  -16.067;    0.000;-7.00000
 414.87;  -11.133;   -2.333;    0.000;-8.80000
 415.17;  -17.867;  -26.600;    0.000; 8.73333
 415.46;  -20.533;  -40.267;    0.000;19.73333
 415.75;  -11.333;   -4.333;    0.000;-7.00000
 416.04;  -14.400;  -18.800;    0.000; 4.40000
 416.33;  -37.800;  -21.000;    0.000;-16.80000
 416.62;   -9.533;  -31.400;    0.000;21.86667
 416.91;  -11.067;  -20.400;    0.000; 9.33333
 417.21;  -10.333;  -32.667;    0.000;22.33333
 417.50;  -47.533;  -23.400;    0.000;-24.13333
 417.79;  -24.267;  -29.200;    0.000; 4.93333
 418.08;   -8.133;  -17.333;    0.000; 9.20000
 418.37;  -11.400;  -15.067;    0.000; 3.66667
 418.66;  -12.867;  -24.933;    0.000;12.06667
 418.95;    4.067;  -13.667;    0.000;17.73333
 419.24;  -22.667;  -24.600;    0.000; 1.93333
 419.54;  -15.000;  -27.733;    0.000;12.73333
 419.83;  -18.733;  -11.733;    0.000;-7.00000
 420.12;  -26.467;  -10.133;    0.000;-16.33333
 420.41;   21.467;    8.533;    0.000;12.93333
 420.70;  -24.200;  -16.467;    0.000;-7.73333
 420.99;   -8.667;  -15.600;    0.000; 6.93333
 421.28;  -11.600;  -13.400;    0.000; 1.80000
 421.57;  -16.200;  -12.200;    0.000;-4.00000
 421.86;    2.533;   -8.000;    0.000;10.53333
 422.16;   -3.333;  -28.133;    0.000;24.80000
 422.45;  -15.067;  -26.267;    0.000;11.20000
 422.74;  -33.733;  -17.267;    0.000;-16.46667
 423.03;   -4.867;  -17.800;    0.000;12.93333
 423.32;  -15.400;  -12.400;    0.000;-3.00000
 423.61;    0.667;  -15.867;    0.000;16.53333
 423.90;   -9.933;   -1.333;    0.000;-8.60000
 424.19;   31.067;   27.000;    0.000; 4.06667
 424.48;  -15.333;  -16.267;    0.000; 0.93333
 424.77;    3.733;  -16.400;    0.000;20.13333
 425.06;   16.133;   -5.600;    0.000;21.73333
 425.35;   -4.200;   -0.667;    0.000;-3.53333
 425.65;  -14.400;  -20.067;    0.000; 5.66667
 425.94;  -23.333;  -24.600;    0.000; 1.26667
 426.23;  -17.400;  -23.267;    0.000; 5.86667
 426.52;   -8.200;  -33.333;    0.000;25.13333
 426.81;   17.067;    1.333;    0.000;15.73333
 427.10;  -15.467;  -28.000;    0.000;12.53333
 427.39;  -14.533;    0.267;    0.000;-14.80000
 427.68;   13.333;  -26.400;    0.000;39.73333
 427.97;  -11.800;   -6.400;    0.000;-5.40000
 428.26;   -8.800;  -35.667;    0.000;26.86667
 428.55;    2.200;   -5.933;    0.000; 8.13333
 428.84;   15.133;    2.400;    0.000;12.73333
 429.13;  -19.800;  -11.667;    0.000;-8.13333
 429.42;   12.867;  -19.333;    0.000;32.20000
 429.71;  -18.000;    8.400;    0.000;-26.40000
 430.00;  -22.800;  -20.667;    0.000;-2.13333
 430.29;  -27.000;  -17.267;    0.000;-9.73333
 430.58;  -25.933;  -14.267;    0.000;-11.66667
 430.87;  -19.000;  -32.800;    0.000;13.80000
 431.16;  -13.667;  -34.200;    0.000;20.53333
 431.46;    1.533;   -2.467;    0.000; 4.00000
 431.75;  -13.000;  -30.600;    0.000;17.60000
 432.04;  -10.600;    2.467;    0.000;-13.06667
 432.33;  -17.467;  -26.667;    0.000; 9.20000
 432.62;  -18.067;  -24.600;    0.000; 6.53333
 432.91;  -16.733;  -45.867;    0.000;29.13333
 433.20;  -11.533;  -12.467;    0.000; 0.93333
 433.49;  -18.733;  -23.333;    0.000; 4.60000
 433.78;  -24.933;  -20.933;    0.000;-4.00000
 434.07;  -29.200;  -39.133;    0.000; 9.93333
 434.36;   -7.867;  -26.800;    0.000;18.93333
 434.65;  -45.067;  -33.333;    0.000;-11.73333
 434.94;  -23.467;  -18.200;    0.000;-5.26667
 435.23;  -20.267;  -18.067;    0.000;-2.20000
 435.52;   -2.000;    4.133;    0.000;-6.13333
 435.81;    4.800;   -2.267;    0.000; 7.06667
 436.10;  -22.933;   -0.933;    0.000;-22.00000
 436.39;   -4.333;   -8.000;    0.000; 3.66667
 436.68;  -10.200;  -10.067;    0.000;-0.13333
 436.97;  -23.267;  -30.733;    0.000; 7.46667
 437.26;  -16.267;  -12.267;    0.000;-4.00000
 437.55;  -12.533;  -19.000;    0.000; 6.46667
 437.83;  -30.467;  -35.933;    0.000; 5.46667
 438.12;  -25.467;  -37.733;    0.000;12.26667
 438.41;  -28.200;  -19.067;    0.000;-9.13333
 438.70;   22.600;   16.933;    0.000; 5.66667
 438.99;    9.133;   10.267;    0.000;-1.13333
 439.28;   -5.733;  -18.533;    0.000;12.80000
 439.57;  -24.933;  -23.000;    0.000;-1.93333
 439.86;  -18.133;  -21.200;    0.000; 3.06667
 440.15;  -17.467;   -6.800;    0.000;-10.66667
 440.44;  -17.267;  -11.267;    0.000;-6.00000
 440.73;  -29.467;  -19.467;    0.000;-10.00000
 441.02;   -6.400;  -25.667;    0.000;19.26667
 441.31;  -22.467;  -13.200;    0.000;-9.26667
 441.60;  -11.733;  -18.400;    0.000; 6.66667
 441.89;  -35.800;  -31.067;    0.000;-4.73333
 442.18;  -10.400;  -23.200;    0.000;12.80000
 442.47;  -12.333;   -7.533;    0.000;-4.80000
 442.76;  -29.933;  -40.200;    0.000;10.26667
 443.05;    0.000;    2.467;    0.000;-2.46667
 443.34;  -11.133;   -4.000;    0.000;-7.13333
 443.63;  -16.933;  -22.800;    0.000; 5.86667
 443.91;  -28.867;  -13.533;    0.000;-15.33333
 444.20;  -25.933;  -17.467;    0.000;-8.46667
 444.49;  -36.533;  -35.267;    0.000;-1.26667
 444.78;  -10.000;  -13.933;    0.000; 3.93333
 445.07;   21.467;   -3.733;    0.000;25.20000
 445.36;  -19.067;  -38.533;    0.000;19.46667
 445.65;   -4.733;  -19.400;    0.000;14.66667
 445.94;   -9.467;  -29.400;    0.000;19.93333
 446.23;   11.400;   -2.867;    0.000;14.26667
 446.52;   -5.800;    1.733;    0.000;-7.53333
 446.81;  -12.067;  -30.733;    0.000;18.66667
 447.10;  -23.000;  -26.533;    0.000; 3.53333
 447.38;   -8.800;  -25.333;    0.000;16.53333
 447.67;   -1.533;  -17.000;    0.000;15.46667
 447.96;  -22.000;  -17.800;    0.000;-4.20000
 448.25;  -37.600;   -3.267;    0.000;-34.33333
 448.54;   99.133;   67.267;    0.000;31.86666
 448.83;  -14.400;    1.133;    0.000;-15.53333
 449.12;  -27.600;  -33.733;    0.000; 6.13333
 449.41;   -9.933;  -32.600;    0.000;22.66667
 449.70;  -22.933;  -31.067;    0.000; 8.13334
 449.98;  -29.600;  -30.067;    0.000; 0.46667
 450.27;   -7.133;  -25.400;    0.000;18.26667
 450.56;  -13.400;  -29.333;    0.000;15.93333
 450.85;   -4.667;  -20.933;    0.000;16.26667
 451.14;  -30.533;  -24.267;    0.000;-6.26667
 451.43;  -31.400;  -29.933;    0.000;-1.46667
 451.72;  -42.467;  -11.267;    0.000;-31.20000
 452.01;    2.333;  -12.733;    0.000;15.06667
 452.29;  -19.533;  -37.800;    0.000;18.26667
 452.58;  -11.000;  -28.000;    0.000;17.00000
 452.87;  -25.800;  -25.400;    0.000;-0.40000
 453.16;  -20.067;  -34.200;    0.000;14.13333
 453.45;    7.533;   -9.667;    0.000;17.20000
 453.74;    5.533;  -23.933;    0.000;29.46667
 454.03;   -1.533;  -20.400;    0.000;18.86667
 454.31;  -22.733;  -25.600;    0.000; 2.86667
 454.60;  -25.800;  -19.400;    0.000;-6.40000
 454.89;   10.000;  -10.333;    0.000;20.33333
 455.18;  -27.400;  -23.733;    0.000;-3.66667
 455.47;  -37.467;  -25.600;    0.000;-11.86667
 455.76;  -34.067;   -6.133;    0.000;-27.93333
 456.04;   -6.933;  -14.800;    0.000; 7.86667
 456.33;  -19.267;  -23.800;    0.000; 4.53333
 456.62;  -12.533;  -22.200;    0.000; 9.66667
 456.91;  -43.333;  -21.600;    0.000;-21.73333
 457.20;    1.067;  -15.600;    0.000;16.66667
 457.49;  -19.867;   -8.733;    0.000;-11.13333
 457.77;  -21.333;  -37.067;    0.000;15.73333
 458.06;  -18.000;   -5.933;    0.000;-12.06667
 458.35;  -21.667;  -29.333;    0.000; 7.66667
 458.64;   -3.533;  -16.400;    0.000;12.86667
 458.93;   -8.267;  -32.267;    0.000;24.00000
 459.21;  -18.600;  -13.867;    0.000;-4.73333
 459.50;  -14.533;  -29.400;    0.000;14.86667
 459.79;  -33.533;  -22.333;    0.000;-11.20000
 460.08;  -23.067;  -22.600;    0.000;-0.46667
 460.37;  -11.400;  -28.733;    0.000;17.33333
 460.65;  -13.200;  -21.467;    0.000; 8.26667
 460.94;  -20.333;  -12.933;    0.000;-7.40000
 461.23;  -23.667;  -17.200;    0.000;-6.46667
 461.52;   20.600;   14.667;    0.000; 5.93333
 461.81;  -21.400;  -27.333;    0.000; 5.93333
 462.09;   -0.400;   -8.067;    0.000; 7.66667
 462.38;  -17.933;  -30.333;    0.000;12.40000
 462.67;  -29.600;  -11.400;    0.000;-18.20000
 462.96;  -17.933;  -35.867;    0.000;17.93333
 463.24;  -25.800;   -1.733;    0.000;-24.06667
 463.53;   -5.933;   -9.333;    0.000; 3.40000
 463.82;  -31.400;  -32.400;    0.000; 1.00000
 464.11;  -10.400;  -17.400;    0.000; 7.00000
 464.40;  -32.200;  -25.933;    0.000;-6.26667
 464.68;  -20.200;  -30.267;    0.000;10.06667
 464.97;  -28.933;  -20.000;    0.000;-8.93333
 465.26;   -4.800;  -19.600;    0.000;14.80000
 465.55;  -25.267;   -7.600;    0.000;-17.66667
 465.83;  -23.000;  -34.933;    0.000;11.93333
 466.12;  -14.667;  -31.400;    0.000;16.73333
 466.41;  -12.733;  -32.933;    0.000;20.20000
 466.70;  -24.667;  -36.000;    0.000;11.33333
 466.98;  -23.667;  -15.867;    0.000;-7.80000
 467.27;    2.667;   -6.467;    0.000; 9.13333
 467.56;   10.133;  -19.733;    0.000;29.86667
 467.85;  -26.667;  -10.267;    0.000;-16.40000
 468.13;  -12.800;  -31.933;    0.000;19.13333
 468.42;   -7.867;   -2.200;    0.000;-5.66667
 468.71;    1.067;  -19.600;    0.000;20.66667
 468.99;   -5.067;  -30.600;    0.000;25.53333
 469.28;  -33.267;  -31.333;    0.000;-1.93333
 469.57;  -17.667;  -22.067;    0.000; 4.40000
 469.86;   -7.800;   -7.733;    0.000;-0.06667
 470.14;  -39.933;  -28.533;    0.000;-11.40000
 470.43;    1.533;  -15.200;    0.000;16.73333
 470.72;  -31.133;  -20.733;    0.000;-10.40000
 471.00;  -25.733;  -30.200;    0.000; 4.46667
 471.29;   -0.467;  -11.267;    0.000;10.80000
 471.58;    3.800;   -9.733;    0.000;13.53333
 471.87;  -30.867;  -10.800;    0.000;-20.06667
 472.15;  -10.333;  -20.600;    0.000;10.26667
 472.44;   -1.133;   -9.667;    0.000; 8.53333
 472.73;  -32.400;  -17.267;    0.000;-15.13334
 473.01;  -18.400;  -10.133;    0.000;-8.26667
 473.30;  -21.000;  -23.200;    0.000; 2.20000
 473.59;  -32.000;  -34.867;    0.000; 2.86666
 473.87;    1.200;  -32.067;    0.000;33.26667
 474.16;  -28.400;  -33.067;    0.000; 4.66667
 474.45;  -21.067;  -29.400;    0.000; 8.33333
 474.74;  -15.533;  -32.333;    0.000;16.80000
 475.02;  -15.867;  -28.600;    0.000;12.73333
 475.31;  -11.533;  -19.733;    0.000; 8.20000
 475.60;  -19.533;   -1.867;    0.000;-17.66667
 475.88;  -10.800;  -18.067;    0.000; 7.26667
 476.17;   -0.867;  -14.800;    0.000;13.93333
 476.46;  -28.733;  -30.267;    0.000; 1.53333
 476.74;  -11.733;  -31.333;    0.000;19.60000
 477.03;  -24.200;  -32.333;    0.000; 8.13333
 477.32;   -3.533;  -22.800;    0.000;19.26667
 477.60;  -21.400;  -23.933;    0.000; 2.53333
 477.89;   -0.533;  -16.267;    0.000;15.73333
 478.18;  -14.800;  -25.667;    0.000;10.86667
 478.46;   -9.333;  -22.200;    0.000;12.86667
 478.75;  -27.267;  -21.667;    0.000;-5.60000
 479.03;   -3.000;  -35.333;    0.000;32.33333
 479.32;  -21.600;   -5.800;    0.000;-15.80000
 479.61;  -30.133;  -18.133;    0.000;-12.00000
 479.89;  -27.667;  -50.133;    0.000;22.46667
 480.18;  -13.067;  -32.533;    0.000;19.46667
 480.47;  -26.667;  -22.933;    0.000;-3.73333
 480.75;  -20.400;  -25.800;    0.000; 5.40000
 481.04;  -22.667;  -15.867;    0.000;-6.80000
 481.33;   -9.200;  -23.733;    0.000;14.53333
 481.61;  -13.733;  -23.800;    0.000;10.06667
 481.90;  -33.867;  -32.267;    0.000;-1.60000
 482.18;   -1.533;    8.400;    0.000;-9.93333
 482.47;  -13.200;  -15.400;    0.000; 2.20000
 482.76;  -15.667;  -31.333;    0.000;15.66667
 483.04;  -18.133;  -28.267;    0.000;10.13333
 483.33;  -27.000;  -37.133;    0.000;10.13334
 483.61;  -25.733;   -7.667;    0.000;-18.06667
 483.90;  -17.200;  -16.600;    0.000;-0.60000
 484.19;  -19.667;  -36.533;    0.000;16.86667
 484.47;  -11.333;  -32.067;    0.000;20.73333
 484.76;  -30.333;  -45.267;    0.000;14.93333
 485.05;  -31.867;  -18.467;    0.000;-13.40000
 485.33;  -17.000;  -24.933;    0.000; 7.93333
 485.62;  -17.133;  -27.600;    0.000;10.46667
 485.90;   -8.600;  -20.667;    0.000;12.06667
 486.19;  -18.867;  -22.000;    0.000; 3.13333
 486.47;   -1.733;  -14.933;    0.000;13.20000
 486.76;  -31.267;  -24.933;    0.000;-6.33333
 487.05;    7.667;   -3.200;    0.000;10.86667
 487.33;   -0.467;   -4.667;    0.000; 4.20000
 487.62;   -8.533;  -40.867;    0.000;32.33333
 487.90;  -17.533;  -32.667;    0.000;15.13334
 488.19;    6.267;   -9.933;    0.000;16.20000
 488.47;   -5.333;  -17.733;    0.000;12.40000
 488.76;   -1.200;  -21.267;    0.000;20.06667
 489.05;   17.867;  -18.533;    0.000;36.40000
 489.33;    1.267;  -33.533;    0.000;34.80000
 489.62;  -13.733;  -28.400;    0.000;14.66667
 489.90;    3.533;  -44.400;    0.000;47.93333
 490.19;    5.133;  -20.867;    0.000;26.00000
 490.47;   31.467;  -26.133;    0.000;57.60000
 490.76;   16.067;  -18.933;    0.000;35.00000
 491.05;   31.267;  -17.000;    0.000;48.26667
 491.33;   -3.200;  -16.467;    0.000;13.26667
 491.62;   25.933;  -31.067;    0.000;57.00000
 491.90;   23.267;  -26.733;    0.000;50.00000
 492.19;   49.800;  -17.333;    0.000;67.13333
 492.47;   39.933;  -28.133;    0.000;68.06667
 492.76;   56.200;  -37.667;    0.000;93.86667
 493.04;   69.400;  -12.933;    0.000;82.33333
 493.33;   85.733;  -37.667;    0.000;123.40000
 493.61;   90.267;  -24.133;    0.000;114.40000
 493.90;   90.333;  -26.533;    0.000;116.86667
 494.18;  138.867;    3.467;    0.000;135.40000
 494.47;  145.267;   -8.000;    0.000;153.26666
 494.75;  150.600;  -29.667;    0.000;180.26667
 495.04;  164.467;  -43.067;    0.000;207.53333
 495.32;  180.867;  -17.400;    0.000;198.26667
 495.61;  200.467;  -35.467;    0.000;235.93333
 495.89;  220.600;  -34.733;    0.000;255.33334
 496.18;  248.600;  -32.600;    0.000;281.20000
 496.46;  263.533;  -32.400;    0.000;295.93333
 496.75;  340.533;  -29.933;    0.000;370.46666
 497.03;  346.200;  -26.667;    0.000;372.86668
 497.32;  355.067;  -15.000;    0.000;370.06668
 497.60;  369.667;  -22.467;    0.000;392.13332
 497.89;  460.133;  -17.533;    0.000;477.66666
 498.17;  469.267;  -24.800;    0.000;494.06666
 498.46;  506.600;  -48.133;    0.000;554.73334
 498.74;  554.733;   -5.200;    0.000;559.93334
 499.03;  637.200;  -17.000;    0.000;654.20001
 499.31;  635.400;  -20.400;    0.000;655.80002
 499.60;  737.800;  -14.667;    0.000;752.46665
 499.88;  800.400;    9.933;    0.000;790.46669
 500.17;  783.067;  -35.267;    0.000;818.33332
 500.45;  868.533;  -20.600;    0.000;889.13333
 500.74;  943.800;  -31.000;    0.000;974.79999
 501.02;  973.533;  -37.267;    0.000;1010.79999
 501.31; 1010.400;  -32.600;    0.000;1043.00002
 501.59; 1136.600;  -35.533;    0.000;1172.13331
 501.88; 1164.400;  -27.200;    0.000;1191.60003
 502.16; 1223.800;  -20.733;    0.000;1244.53338
 502.45; 1362.133;  -19.667;    0.000;1381.79997
 502.73; 1380.067;  -10.000;    0.000;1390.06665
 503.01; 1437.000;  -29.133;    0.000;1466.13333
 503.30; 1542.333;  -48.200;    0.000;1590.53337
 503.58; 1631.000;  -34.133;    0.000;1665.13334
 503.87; 1701.200;  -23.333;    0.000;1724.53329
 504.15; 1752.600;  -31.200;    0.000;1783.79998
 504.44; 1899.467;  -12.333;    0.000;1911.80001
 504.72; 2017.067;   -0.267;    0.000;2017.33332
 505.00; 2084.267;  -18.200;    0.000;2102.46660
 505.29; 2166.467;  -24.533;    0.000;2190.99989
 505.57; 2249.800;  -18.400;    0.000;2268.20005
 505.86; 2346.933;  -30.200;    0.000;2377.13335
 506.14; 2405.133;  -42.933;    0.000;2448.06664
 506.43; 2594.600;  -12.800;    0.000;2607.40010
 506.71; 2638.267;  -41.267;    0.000;2679.53327
 506.99; 2712.733;  -35.133;    0.000;2747.86673
 507.28; 2844.933;  -11.467;    0.000;2856.40002
 507.56; 2935.600;  -17.667;    0.000;2953.26676
 507.85; 3024.600;  -14.667;    0.000;3039.26676
 508.13; 3189.267;  -27.200;    0.000;3216.46660
 508.41; 3322.667;   22.933;    0.000;3299.73342
 508.70; 3415.400;   -9.000;    0.000;3424.39990
 508.98; 3462.267;  -16.800;    0.000;3479.06660
 509.27; 3583.867;  -26.867;    0.000;3610.73337
 509.55; 3678.667;  -10.533;    0.000;3689.20008
 509.83; 3835.200;  -46.200;    0.000;3881.39995
 510.12; 3950.000;  -30.200;    0.000;3980.20000
 510.40; 4058.400;   -9.733;    0.000;4068.13324
 510.69; 4145.467;  -31.000;    0.000;4176.46680
 510.97; 4268.533;  -16.867;    0.000;4285.39987
 511.25; 4374.533;  -24.067;    0.000;4398.59987
 511.54; 4529.400;  -24.933;    0.000;4554.33323
 511.82; 4584.667;    1.067;    0.000;4583.59984
 512.11; 4775.467;  -21.000;    0.000;4796.46680
 512.39; 4831.800;  -21.200;    0.000;4852.99981
 512.67; 4984.800;   -6.200;    0.000;4990.99980
 512.96; 5074.733;  -37.733;    0.000;5112.46673
 513.24; 5172.400;  -26.800;    0.000;5199.19990
 513.52; 5273.733;   -2.933;    0.000;5276.66673
 513.81; 5475.467;   -4.600;    0.000;5480.06680
 514.09; 5453.667;  -21.400;    0.000;5475.06650
 514.37; 5623.400;  -10.600;    0.000;5633.99990
 514.66; 5731.000;   -7.800;    0.000;5738.80000
 514.94; 5903.200;  -32.133;    0.000;5935.33353
 515.22; 6004.400;  -20.000;    0.000;6024.39990
 515.51; 5973.600;  -29.600;    0.000;6003.20010
 515.79; 6124.267;  -25.267;    0.000;6149.53327
 516.07; 6242.400;  -25.867;    0.000;6268.26657
 516.36; 6345.133;  -37.067;    0.000;6382.19997
 516.64; 6514.133;  -34.600;    0.000;6548.73330
 516.92; 6576.200;  -23.733;    0.000;6599.93353
 517.21; 6737.733;  -28.067;    0.000;6765.80007
 517.49; 6886.467;  -31.800;    0.000;6918.26680
 517.77; 7034.200;   -5.200;    0.000;7039.40020
 518.06; 7156.467;  -25.933;    0.000;7182.40013
 518.34; 7202.400;  -33.800;    0.000;7236.19990
 518.62; 7322.200;   -4.533;    0.000;7326.73353
 518.91; 7646.267;  131.467;    0.000;7514.79994
 519.19; 7571.867;  -11.800;    0.000;7583.66670
 519.47; 7625.133;   -7.133;    0.000;7632.26663
 519.76; 7712.867;   -5.533;    0.000;7718.40003
 520.04; 7877.267;   -8.933;    0.000;7886.19993
 520.32; 7951.333;  -10.600;    0.000;7961.93350
 520.61; 8135.533;   10.667;    0.000;8124.86654
 520.89; 8064.400;  -14.000;    0.000;8078.39990
 521.17; 8217.533;  -29.867;    0.000;8247.39987
 521.45; 8218.134;  -16.067;    0.000;8234.20046
 521.74; 8411.267;  -17.200;    0.000;8428.46660
 522.02; 8548.733;  -21.267;    0.000;8570.00006
 522.30; 8666.267;  -20.200;    0.000;8686.46660
 522.59; 8679.467;    6.267;    0.000;8673.20013
 522.87; 8761.467;    3.800;    0.000;8757.66680
 523.15; 8861.333;    3.067;    0.000;8858.26634
 523.43; 9006.600;  -39.333;    0.000;9045.93294
 523.72; 9029.600;  -22.933;    0.000;9052.53294
 524.00; 9056.667;  -22.333;    0.000;9079.00033
 524.28; 9090.934;  -22.133;    0.000;9113.06693
 524.57; 9212.733;  -14.867;    0.000;9227.60007
 524.85; 9337.667;  -26.000;    0.000;9363.66699
 525.13; 9450.467;  -16.000;    0.000;9466.46680
 525.41; 9460.333;  -26.933;    0.000;9487.26634
 525.70; 9559.467;  -41.200;    0.000;9600.66680
 525.98; 9578.934;  -18.467;    0.000;9597.40026
 526.26; 9692.467;  -24.667;    0.000;9717.13346
 526.54; 9879.333;  -19.867;    0.000;9899.19967
 526.83; 9872.800;  -19.600;    0.000;9892.39981
 527.11; 9910.400;   -3.067;    0.000;9913.46706
 527.39; 9993.000;   -9.200;    0.000;10002.20000
 527.67;10056.400;  -15.000;    0.000;10071.40039
 527.96;10100.733;  -16.600;    0.000;10117.33340
 528.24;10184.467;  -30.867;    0.000;10215.33346
 528.52;10228.134;  -16.733;    0.000;10244.86712
 528.80;10401.733;   10.400;    0.000;10391.33340
 529.08;10356.733;  -21.133;    0.000;10377.86673
 529.37;10513.400;  -23.667;    0.000;10537.06706
 529.65;10686.333;   -2.867;    0.000;10689.19967
 529.93;10656.600;   -7.800;    0.000;10664.39961
 530.21;10634.934;  -29.867;    0.000;10664.80026
 530.50;10759.066;  -12.267;    0.000;10771.33307
 530.78;10766.066;  -23.333;    0.000;10789.39974
 531.06;10801.467;  -24.200;    0.000;10825.66680
 531.34;10919.667;  -18.733;    0.000;10938.40033
 531.62;10901.800;  -22.333;    0.000;10924.13314
 531.91;10983.934;  -32.067;    0.000;11016.00026
 532.19;11099.467;  -24.467;    0.000;11123.93346
 532.47;11081.467;  -14.600;    0.000;11096.06680
 532.75;11287.267;   -7.733;    0.000;11294.99993
 533.03;11250.000;   13.200;    0.000;11236.80000
 533.32;11190.800;   -6.533;    0.000;11197.33314
 533.60;11423.000;   -6.333;    0.000;11429.33333
 533.88;11349.533;   10.867;    0.000;11338.66654
 534.16;11444.467;  -34.533;    0.000;11479.00013
 534.44;11575.400;    5.133;    0.000;11570.26706
 534.72;11551.066;  -28.333;    0.000;11579.39974
 535.01;11522.267;  -34.333;    0.000;11556.59993
 535.29;11542.267;  -26.867;    0.000;11569.13327
 535.57;11668.267;  -25.333;    0.000;11693.59994
 535.85;11719.400;  -21.200;    0.000;11740.60039
 536.13;11771.934;  -14.533;    0.000;11786.46693
 536.42;11701.800;  -26.133;    0.000;11727.93314
 536.70;11740.134;  -21.267;    0.000;11761.40046
 536.98;11893.866;  -12.400;    0.000;11906.26621
 537.26;11982.066;  -10.067;    0.000;11992.13307
 537.54;12096.066;  -10.533;    0.000;12106.59974
 537.82;12081.667;    3.800;    0.000;12077.86699
 538.10;12118.733;  -15.667;    0.000;12134.40007
 538.39;12141.066;   -7.867;    0.000;12148.93307
 538.67;12127.400;   -9.667;    0.000;12137.06706
 538.95;12233.400;  -27.000;    0.000;12260.40039
 539.23;12227.066;  -35.600;    0.000;12262.66640
 539.51;12310.333;   -9.933;    0.000;12320.26634
 539.79;12373.467;  -34.533;    0.000;12408.00013
 540.07;12453.467;  -43.267;    0.000;12496.73346
 540.36;12363.267;  -42.867;    0.000;12406.13327
 540.64;12462.066;  -23.600;    0.000;12485.66641
 540.92;12497.800;  -21.667;    0.000;12519.46647
 541.20;12430.800;  -11.133;    0.000;12441.93314
 541.48;12561.400;    0.200;    0.000;12561.20039
 541.76;12522.866;  -12.067;    0.000;12534.93288
 542.04;12520.467;  -18.400;    0.000;12538.86680
 542.32;12665.866;  -27.000;    0.000;12692.86621
 542.61;12718.600;  -18.600;    0.000;12737.19961
 542.89;12703.200;    0.067;    0.000;12703.13353
 543.17;12727.934;  -37.133;    0.000;12765.06693
 543.45;12846.200;  -35.000;    0.000;12881.20020
 543.73;12768.733;  -23.467;    0.000;12792.20007
 544.01;12890.667;  -11.000;    0.000;12901.66699
 544.29;12746.667;  -20.733;    0.000;12767.40033
 544.57;12931.866;  -25.600;    0.000;12957.46621
 544.85;12817.600;  -20.733;    0.000;12838.33294
 545.13;12946.467;   -7.733;    0.000;12954.20013
 545.42;12965.066;   -8.600;    0.000;12973.66641
 545.70;13046.467;  -10.667;    0.000;13057.13346
 545.98;13044.333;  -30.667;    0.000;13074.99967
 546.26;13131.533;    2.867;    0.000;13128.66654
 546.54;13001.600;  -23.667;    0.000;13025.26628
 546.82;13109.866;  -17.600;    0.000;13127.46621
 547.10;13093.800;    5.533;    0.000;13088.26647
 547.38;13100.400;  -20.267;    0.000;13120.66706
 547.66;13086.800;  -15.600;    0.000;13102.39981
 547.94;13132.733;  -31.333;    0.000;13164.06673
 548.22;13115.400;  -27.600;    0.000;13143.00039
 548.50;13138.000;  -28.400;    0.000;13166.40000
 548.78;13183.066;  -19.533;    0.000;13202.59974
 549.06;13168.800;  -10.200;    0.000;13178.99980
 549.34;13169.800;  -26.867;    0.000;13196.66647
 549.63;13168.200;   17.867;    0.000;13150.33353
 549.91;13247.934;   -6.400;    0.000;13254.33359
 550.19;13234.400;  -18.400;    0.000;13252.80039
 550.47;13234.333;  -19.800;    0.000;13254.13301
 550.75;13235.467;  -22.800;    0.000;13258.26680
 551.03;13232.134;  -26.067;    0.000;13258.20046
 551.31;13370.533;   -8.600;    0.000;13379.13320
 551.59;13268.000;  -15.200;    0.000;13283.20000
 551.87;13292.800;   -8.333;    0.000;13301.13314
 552.15;13280.800;  -31.267;    0.000;13312.06647
 552.43;13385.733;   -4.533;    0.000;13390.26673
 552.71;13375.533;  -23.467;    0.000;13398.99987
 552.99;13367.866;  -20.533;    0.000;13388.39954
 553.27;13273.733;  -33.800;    0.000;13307.53340
 553.55;13315.400;  -17.667;    0.000;13333.06706
 553.83;13232.400;  -31.533;    0.000;13263.93372
 554.11;13295.934;  -13.267;    0.000;13309.20026
 554.39;13336.333;   -4.333;    0.000;13340.66634
 554.67;13375.533;  -21.467;    0.000;13396.99987
 554.95;13412.467;    6.667;    0.000;13405.80013
 555.23;13362.267;    3.533;    0.000;13358.73327
 555.51;13346.600;  -33.867;    0.000;13380.46627
 555.79;13303.733;  -16.067;    0.000;13319.80007
 556.07;13338.733;  -17.467;    0.000;13356.20007
 556.35;13418.134;  -18.600;    0.000;13436.73379
 556.63;13342.400;  -16.667;    0.000;13359.06706
 556.91;13284.800;   -5.867;    0.000;13290.66647
 557.19;13246.934;  -13.600;    0.000;13260.53359
 557.47;13376.000;   -8.267;    0.000;13384.26667
 557.75;13350.533;  -27.267;    0.000;13377.79987
 558.03;13455.667;    5.200;    0.000;13450.46699
 558.31;13288.934;  -33.533;    0.000;13322.46693
 558.59;13284.467;  -18.267;    0.000;13302.73346
 558.87;13392.333;  -21.467;    0.000;13413.79967
 559.15;13315.800;  -29.133;    0.000;13344.93314
 559.43;13341.333;   -9.467;    0.000;13350.79967
 559.71;13375.134;   -1.267;    0.000;13376.40046
 559.99;13313.733;  -21.067;    0.000;13334.80007
 560.27;13385.333;   -9.467;    0.000;13394.79967
 560.55;13278.800;   -7.400;    0.000;13286.19980
 560.82;13203.066;  -30.733;    0.000;13233.79974
 561.10;13270.800;  -22.667;    0.000;13293.46647
 561.38;13216.000;    3.733;    0.000;13212.26667
 561.66;13311.333;  -16.200;    0.000;13327.53301
 561.94;13236.800;  -25.267;    0.000;13262.06647
 562.22;13211.800;  -14.267;    0.000;13226.06647
 562.50;13186.934;   -4.733;    0.000;13191.66693
 562.78;13216.000;  -19.333;    0.000;13235.33333
 563.06;13156.800;  -12.400;    0.000;13169.19980
 563.34;13118.800;  -24.133;    0.000;13142.93314
 563.62;13089.400;   -9.867;    0.000;13099.26706
 563.90;13076.267;  -31.467;    0.000;13107.73327
 564.18;13081.866;  -19.867;    0.000;13101.73288
 564.46;13040.134;  -11.600;    0.000;13051.73379
 564.74;12994.667;  -16.467;    0.000;13011.13366
 565.01;12961.866;  -22.467;    0.000;12984.33288
 565.29;12945.066;   -8.933;    0.000;12953.99974
 565.57;12972.733;  -23.000;    0.000;12995.73340
 565.85;12951.267;   -3.267;    0.000;12954.53327
 566.13;12849.667;  -16.533;    0.000;12866.20033
 566.41;12921.800;   23.600;    0.000;12898.19980
 566.69;12905.000;  -21.133;    0.000;12926.13333
 566.97;12737.533;  -13.267;    0.000;12750.79987
 567.25;12786.800;   -6.867;    0.000;12793.66647
 567.53;12795.400;  -28.867;    0.000;12824.26706
 567.80;12796.134;   -2.600;    0.000;12798.73379
 568.08;12724.733;   -7.267;    0.000;12732.00007
 568.36;12711.267;  -24.600;    0.000;12735.86660
 568.64;12694.866;  -19.067;    0.000;12713.93288
 568.92;12674.134;    1.467;    0.000;12672.66712
 569.20;12470.134;  -12.667;    0.000;12482.80046
 569.48;12576.934;  -29.467;    0.000;12606.40026
 569.76;12613.066;  -36.933;    0.000;12649.99974
 570.03;12503.066;  -11.400;    0.000;12514.46641
 570.31;12443.800;   -9.600;    0.000;12453.39981
 570.59;12440.733;  -14.600;    0.000;12455.33340
 570.87;12483.000;  -11.267;    0.000;12494.26667
 571.15;12372.667;  -39.867;    0.000;12412.53366
 571.43;12286.600;  -28.933;    0.000;12315.53294
 571.71;12243.667;  -31.267;    0.000;12274.93366
 571.98;12290.400;  -11.600;    0.000;12302.00039
 572.26;12190.866;  -15.267;    0.000;12206.13288
 572.54;12201.533;  -12.333;    0.000;12213.86654
 572.82;12218.533;  -26.200;    0.000;12244.73320
 573.10;12079.533;   -9.933;    0.000;12089.46654
 573.38;12081.800;  -22.800;    0.000;12104.59980
 573.66;12085.400;  -18.133;    0.000;12103.53372
 573.93;11925.400;   -3.800;    0.000;11929.20039
 574.21;11924.400;  -28.933;    0.000;11953.33372
 574.49;12037.866;  -27.933;    0.000;12065.79954
 574.77;11990.000;   -7.667;    0.000;11997.66667
 575.05;11808.467;  -19.067;    0.000;11827.53346
 575.33;11851.467;  -24.600;    0.000;11876.06680
 575.60;11832.200;  -31.400;    0.000;11863.60019
 575.88;11714.733;  -17.467;    0.000;11732.20007
 576.16;11629.866;  -16.000;    0.000;11645.86621
 576.44;11694.667;   -9.867;    0.000;11704.53366
 576.72;11580.467;   -9.067;    0.000;11589.53346
 576.99;11568.934;  -19.867;    0.000;11588.80026
 577.27;11582.600;  -11.400;    0.000;11593.99961
 577.55;11454.333;    2.200;    0.000;11452.13301
 577.83;11343.333;  -25.000;    0.000;11368.33301
 578.11;11344.866;   -3.200;    0.000;11348.06621
 578.38;11327.066;  -26.133;    0.000;11353.19974
 578.66;11309.934;  -26.667;    0.000;11336.60026
 578.94;11244.667;  -41.867;    0.000;11286.53366
 579.22;11271.934;  -27.600;    0.000;11299.53359
 579.50;11279.333;    2.933;    0.000;11276.39967
 579.77;11097.600;  -10.067;    0.000;11107.66628
 580.05;11016.267;  -32.733;    0.000;11048.99994
 580.33;11043.866;  -14.533;    0.000;11058.39954
 580.61;10954.066;  -30.000;    0.000;10984.06641
 580.88;11057.066;  -11.733;    0.000;11068.79974
 581.16;10783.134;  -38.867;    0.000;10822.00045
 581.44;10842.467;  -13.200;    0.000;10855.66680
 581.72;10808.467;  -11.933;    0.000;10820.40013
 581.99;10732.066;   -4.933;    0.000;10736.99974
 582.27;10620.267;  -23.467;    0.000;10643.73327
 582.55;10624.267;  -32.733;    0.000;10656.99994
 582.83;10690.000;  -15.933;    0.000;10705.93333
 583.10;10517.667;   -8.533;    0.000;10526.20033
 583.38;10534.733;  -26.933;    0.000;10561.66673
 583.66;10498.333;   -3.267;    0.000;10501.59967
 583.94;10412.267;  -33.467;    0.000;10445.73327
 584.21;10345.134;  -18.600;    0.000;10363.73379
 584.49;10309.134;  -28.400;    0.000;10337.53379
 584.77;10129.467;  -38.067;    0.000;10167.53346
 585.05;10124.200;  -15.800;    0.000;10140.00020
 585.32;10075.200;  -10.533;    0.000;10085.73353
 585.60;10004.600;  -19.933;    0.000;10024.53294
 585.88;10025.533;  -19.133;    0.000;10044.66654
 586.16; 9975.667;  -11.733;    0.000;9987.40033
 586.43; 9972.733;   -0.667;    0.000;9973.40007
 586.71; 9855.800;   -6.667;    0.000;9862.46647
 586.99; 9841.134;  -38.867;    0.000;9880.00045
 587.26; 9817.134;  -30.933;    0.000;9848.06712
 587.54; 9763.000;  -17.600;    0.000;9780.60000
 587.82; 9662.866;  -16.000;    0.000;9678.86621
 588.10; 9647.934;  -28.200;    0.000;9676.13359
 588.37; 9495.400;  -31.533;    0.000;9526.93372
 588.65; 9490.000;  -32.933;    0.000;9522.93333
 588.93; 9472.467;  -31.200;    0.000;9503.66680
 589.20; 9345.200;   -5.200;    0.000;9350.40020
 589.48; 9241.267;  -14.000;    0.000;9255.26660
 589.76; 9243.600;    9.733;    0.000;9233.86628
 590.03; 9263.134;   -8.467;    0.000;9271.60046
 590.31; 9125.934;  -14.333;    0.000;9140.26693
 590.59; 9114.400;  -10.933;    0.000;9125.33372
 590.86; 9053.400;  -23.533;    0.000;9076.93372
 591.14; 8958.533;  -40.867;    0.000;8999.39987
 591.42; 8864.134;  -25.467;    0.000;8889.60046
 591.70; 8867.667;   -2.467;    0.000;8870.13366
 591.97; 8823.800;  -32.800;    0.000;8856.59980
 592.25; 8817.533;  -21.400;    0.000;8838.93320
 592.53; 8681.934;  -12.200;    0.000;8694.13359
 592.80; 8566.267;  -42.000;    0.000;8608.26660
 593.08; 8596.200;   -9.667;    0.000;8605.86686
 593.36; 8561.866;    6.733;    0.000;8555.13288
 593.63; 8501.533;  -14.400;    0.000;8515.93320
 593.91; 8475.866;  -26.400;    0.000;8502.26621
 594.18; 8402.200;   -4.600;    0.000;8406.80020
 594.46; 8275.600;  -35.333;    0.000;8310.93294
 594.74; 8269.200;  -15.733;    0.000;8284.93353
 595.01; 8242.934;  -53.600;    0.000;8296.53359
 595.29; 8112.933;  -34.467;    0.000;8147.39977
 595.57; 8095.800;  -22.200;    0.000;8117.99981
 595.84; 8099.600;  -28.800;    0.000;8128.40010
 596.12; 8045.133;  -32.533;    0.000;8077.66663
 596.40; 7853.933;  -21.667;    0.000;7875.59977
 596.67; 7910.800;  -44.867;    0.000;7955.66647
 596.95; 7838.067;  -26.267;    0.000;7864.33356
 597.22; 7717.400;  -16.333;    0.000;7733.73324
 597.50; 7671.000;    2.800;    0.000;7668.20000
 597.78; 7618.533;  -19.133;    0.000;7637.66654
 598.05; 7603.333;  -25.933;    0.000;7629.26683
 598.33; 7525.400;  -38.000;    0.000;7563.39990
 598.61; 7460.067;  -25.867;    0.000;7485.93356
 598.88; 7492.467;  -26.067;    0.000;7518.53346
 599.16; 7354.600;  -17.067;    0.000;7371.66677
 599.43; 7333.267;  -42.200;    0.000;7375.46660
 599.71; 7284.267;  -23.067;    0.000;7307.33327
 599.99; 7145.400;  -28.533;    0.000;7173.93324
 600.26; 7146.133;  -30.933;    0.000;7177.06663
 600.54; 7121.000;  -12.867;    0.000;7133.86667
 600.81; 6978.733;  -10.800;    0.000;6989.53340
 601.09; 7020.733;  -35.067;    0.000;7055.80006
 601.36; 6883.667;  -22.067;    0.000;6905.73317
 601.64; 6867.267;   -9.333;    0.000;6876.59993
 601.92; 6843.400;  -14.667;    0.000;6858.06657
 602.19; 6673.400;  -31.867;    0.000;6705.26657
 602.47; 6756.067;  -30.667;    0.000;6786.73356
 602.74; 6694.400;  -13.067;    0.000;6707.46657
 603.02; 6621.267;  -37.067;    0.000;6658.33327
 603.29; 6594.000;  -30.733;    0.000;6624.73333
 603.57; 6480.000;  -23.133;    0.000;6503.13333
 603.85; 6498.067;  -32.000;    0.000;6530.06689
 604.12; 6525.200;   12.267;    0.000;6512.93353
 604.40; 6437.467;  -32.467;    0.000;6469.93346
 604.67; 6364.933;  -32.733;    0.000;6397.66644
 604.95; 6369.400;  -37.800;    0.000;6407.19990
 605.22; 6274.733;  -13.067;    0.000;6287.80007
 605.50; 6292.267;  -20.933;    0.000;6313.19993
 605.77; 6115.733;  -10.867;    0.000;6126.60007
 606.05; 6205.333;  -34.067;    0.000;6239.40016
 606.33; 6087.333;  -12.467;    0.000;6099.80016
 606.60; 6066.333;  -31.200;    0.000;6097.53350
 606.88; 6037.400;   -4.400;    0.000;6041.79990
 607.15; 6052.067;  -16.867;    0.000;6068.93356
 607.43; 5958.200;  -17.733;    0.000;5975.93353
 607.70; 5946.000;  -21.933;    0.000;5967.93333
 607.98; 5854.467;  -51.333;    0.000;5905.80013
 608.25; 5860.800;  -33.467;    0.000;5894.26647
 608.53; 5742.200;  -39.867;    0.000;5782.06686
 608.80; 5700.467;  -48.867;    0.000;5749.33346
 609.08; 5730.067;  -22.400;    0.000;5752.46689
 609.35; 5788.067;  -35.600;    0.000;5823.66689
 609.63; 5699.400;  -30.067;    0.000;5729.46657
 609.90; 5659.733;  -28.067;    0.000;5687.80007
 610.18; 5578.467;  -21.000;    0.000;5599.46680
 610.45; 5534.000;  -37.133;    0.000;5571.13334
 610.73; 5519.867;  -21.000;    0.000;5540.86670
 611.00; 5478.600;  -12.000;    0.000;5490.60010
 611.28; 5436.400;  -45.267;    0.000;5481.66657
 611.55; 5462.400;  -54.667;    0.000;5517.06657
 611.83; 5367.333;  -43.200;    0.000;5410.53350
 612.10; 5394.733;  -31.600;    0.000;5426.33340
 612.38; 5332.067;  -38.067;    0.000;5370.13356
 612.65; 5313.267;  -35.200;    0.000;5348.46660
 612.93; 5293.733;  -49.933;    0.000;5343.66673
 613.20; 5290.200;  -27.667;    0.000;5317.86686
 613.48; 5235.000;  -43.733;    0.000;5278.73333
 613.75; 5153.267;  -45.867;    0.000;5199.13327
 614.03; 5185.800;   -9.400;    0.000;5195.19980
 614.30; 5126.467;  -31.933;    0.000;5158.40013
 614.57; 5051.067;  -55.267;    0.000;5106.33356
 614.85; 5069.333;  -18.400;    0.000;5087.73350
 615.12; 5096.933;  -46.400;    0.000;5143.33311
 615.40; 5011.467;  -57.000;    0.000;5068.46680
 615.67; 4963.000;  -36.000;    0.000;4999.00000
 615.95; 4971.667;  -34.800;    0.000;5006.46650
 616.22; 4935.533;  -28.867;    0.000;4964.39987
 616.50; 4915.133;  -28.733;    0.000;4943.86663
 616.77; 4814.600;  -40.000;    0.000;4854.60010
 617.05; 4798.533;  -19.733;    0.000;4818.26654
 617.32; 4764.867;  -42.933;    0.000;4807.80003
 617.59; 4765.333;  -43.067;    0.000;4808.40016
 617.87; 4738.667;  -16.533;    0.000;4755.19984
 618.14; 4674.467;  -36.400;    0.000;4710.86680
 618.42; 4652.533;  -50.600;    0.000;4703.13320
 618.69; 4577.533;  -54.467;    0.000;4631.99987
 618.97; 4496.133;  -42.067;    0.000;4538.19997
 619.24; 4513.333;  -37.267;    0.000;4550.60016
 619.51; 4458.067;  -30.667;    0.000;4488.73356
 619.79; 4372.200;  -36.667;    0.000;4408.86686
 620.06; 4264.067;  -28.400;    0.000;4292.46689
 620.34; 4233.200;  -38.267;    0.000;4271.46686
 620.61; 4187.333;  -43.800;    0.000;4231.13350
 620.88; 4082.467;  -33.600;    0.000;4116.06655
 621.16; 4197.067;  -34.333;    0.000;4231.40023
 621.43; 4214.267;  -35.667;    0.000;4249.93327
 621.71; 4192.133;  -20.133;    0.000;4212.26663
 621.98; 4169.800;  -43.667;    0.000;4213.46647
 622.25; 4050.000;  -35.467;    0.000;4085.46667
 622.53; 4149.600;  -33.200;    0.000;4182.80010
 622.80; 4071.133;  -49.200;    0.000;4120.33330
 623.08; 4012.067;  -54.400;    0.000;4066.46665
 623.35; 4011.267;  -26.467;    0.000;4037.73327
 623.62; 3959.267;  -41.000;    0.000;4000.26660
 623.90; 3950.733;  -36.667;    0.000;3987.40007
 624.17; 3973.600;  -36.600;    0.000;4010.20010
 624.44; 3864.467;  -37.533;    0.000;3901.99989
 624.72; 3906.200;  -52.133;    0.000;3958.33329
 624.99; 3812.933;  -35.000;    0.000;3847.93335
 625.26; 3824.533;  -56.200;    0.000;3880.73345
 625.54; 3854.733;  -27.667;    0.000;3882.40006
 625.81; 3850.200;  -45.733;    0.000;3895.93328
 626.09; 3820.667;  -46.467;    0.000;3867.13342
 626.36; 3855.800;  -50.200;    0.000;3906.00005
 626.63; 3828.667;  -33.267;    0.000;3861.93341
 626.91; 3844.800;  -41.667;    0.000;3886.46672
 627.18; 3807.400;  -29.533;    0.000;3836.93324
 627.45; 3730.267;  -47.400;    0.000;3777.66660
 627.73; 3765.333;  -27.200;    0.000;3792.53325
 628.00; 3689.267;  -49.400;    0.000;3738.66660
 628.27; 3720.600;  -27.533;    0.000;3748.13343
 628.55; 3694.000;  -33.000;    0.000;3727.00000
 628.82; 3648.600;  -49.267;    0.000;3697.86676
 629.09; 3668.333;  -20.867;    0.000;3689.19992
 629.37; 3632.933;  -53.267;    0.000;3686.20002
 629.64; 3640.400;  -28.267;    0.000;3668.66657
 629.91; 3611.800;  -45.467;    0.000;3657.26672
 630.18; 3593.267;  -44.333;    0.000;3637.59993
 630.46; 3642.067;  -29.467;    0.000;3671.53332
 630.73; 3597.200;  -33.533;    0.000;3630.73328
 631.00; 3573.933;  -39.867;    0.000;3613.80001
 631.28; 3521.000;  -61.667;    0.000;3582.66667
 631.55; 3493.000;  -56.467;    0.000;3549.46667
 631.82; 3562.467;  -43.467;    0.000;3605.93322
 632.10; 3524.333;  -35.600;    0.000;3559.93325
 632.37; 3484.933;  -37.800;    0.000;3522.73335
 632.64; 3472.667;  -41.933;    0.000;3514.60008
 632.91; 3481.867;  -21.533;    0.000;3503.40003
 633.19; 3408.733;  -27.200;    0.000;3435.93340
 633.46; 3425.467;  -45.533;    0.000;3470.99989
 633.73; 3446.867;  -18.467;    0.000;3465.33337
 634.01; 3493.200;  -21.267;    0.000;3514.46662
 634.28; 3415.733;  -31.467;    0.000;3447.20007
 634.55; 3437.467;  -12.933;    0.000;3450.39989
 634.82; 3447.800;  -40.800;    0.000;3488.60005
 635.10; 3453.067;  -50.200;    0.000;3503.26665
 635.37; 3426.067;  -41.467;    0.000;3467.53332
 635.64; 3435.933;  -56.800;    0.000;3492.73335
 635.91; 3423.533;  -63.133;    0.000;3486.66678
 636.19; 3433.800;  -44.067;    0.000;3477.86671
 636.46; 3435.467;  -59.733;    0.000;3495.19989
 636.73; 3484.867;  -17.333;    0.000;3502.20003
 637.00; 3433.133;  -47.133;    0.000;3480.26664
 637.28; 3476.267;  -42.533;    0.000;3518.79993
 637.55; 3474.000;  -19.600;    0.000;3493.60000
 637.82; 3409.733;  -54.200;    0.000;3463.93340
 638.09; 3370.067;  -41.667;    0.000;3411.73332
 638.37; 3247.933;  -64.200;    0.000;3312.13335
 638.64; 3273.867;  -54.600;    0.000;3328.46670
 638.91; 3245.800;  -31.867;    0.000;3277.66672
 639.18; 3245.467;  -43.933;    0.000;3289.39989
 639.46; 3224.933;  -43.533;    0.000;3268.46668
 639.73; 3260.533;  -39.600;    0.000;3300.13345
 640.00; 3210.600;  -51.600;    0.000;3262.20010
 640.27; 3201.533;  -51.933;    0.000;3253.46678
 640.54; 3182.867;  -53.333;    0.000;3236.20003
 640.82; 3155.867;  -23.800;    0.000;3179.66670
 641.09; 3106.133;  -48.533;    0.000;3154.66663
 641.36; 3090.267;  -52.533;    0.000;3142.79993
 641.63; 3040.533;  -62.733;    0.000;3103.26678
 641.91; 3008.933;  -50.133;    0.000;3059.06668
 642.18; 2985.733;  -75.067;    0.000;3060.80006
 642.45; 2899.067;  -50.133;    0.000;2949.19999
 642.72; 2885.867;  -50.400;    0.000;2936.26670
 642.99; 2903.800;  -10.533;    0.000;2914.33338
 643.26; 2860.000;  -43.133;    0.000;2903.13334
 643.54; 2840.267;  -32.533;    0.000;2872.79993
 643.81; 2803.667;  -61.933;    0.000;2865.60008
 644.08; 2832.133;  -43.000;    0.000;2875.13330
 644.35; 2795.667;  -48.667;    0.000;2844.33342
 644.62; 2755.800;  -34.400;    0.000;2790.20005
 644.90; 2726.533;  -40.533;    0.000;2767.06678
 645.17; 2744.533;  -35.200;    0.000;2779.73345
 645.44; 2667.733;  -56.467;    0.000;2724.20007
 645.71; 2677.733;  -61.600;    0.000;2739.33340
 645.98; 2631.133;  -53.733;    0.000;2684.86663
 646.25; 2613.200;  -49.333;    0.000;2662.53328
 646.53; 2616.600;  -48.600;    0.000;2665.20010
 646.80; 2619.600;  -45.267;    0.000;2664.86676
 647.07; 2534.600;  -51.867;    0.000;2586.46676
 647.34; 2536.800;  -30.133;    0.000;2566.93338
 647.61; 2577.733;  -27.533;    0.000;2605.26673
 647.88; 2575.133;  -15.067;    0.000;2590.19997
 648.15; 2498.533;  -64.333;    0.000;2562.86678
 648.43; 2517.000;  -24.067;    0.000;2541.06667
 648.70; 2473.200;  -66.733;    0.000;2539.93328
 648.97; 2467.867;  -58.133;    0.000;2526.00003
 649.24; 2497.333;  -53.733;    0.000;2551.06659
 649.51; 2379.800;  -52.267;    0.000;2432.06672
 649.78; 2378.533;  -38.533;    0.000;2417.06678
 650.05; 2413.000;  -11.867;    0.000;2424.86667
 650.32; 2489.000;   15.800;    0.000;2473.20000
 650.60; 2397.800;  -46.733;    0.000;2444.53338
 650.87; 2388.800;  -44.000;    0.000;2432.80005
 651.14; 2306.000;  -48.933;    0.000;2354.93333
 651.41; 2315.133;  -47.333;    0.000;2362.46663
 651.68; 2329.533;  -53.200;    0.000;2382.73345
 651.95; 2304.467;  -38.733;    0.000;2343.19989
 652.22; 2253.533;  -43.133;    0.000;2296.66678
 652.49; 2234.600;  -53.867;    0.000;2288.46676
 652.76; 2269.867;  -46.200;    0.000;2316.06670
 653.03; 2219.933;  -64.867;    0.000;2284.80002
 653.31; 2198.133;  -35.133;    0.000;2233.26664
 653.58; 2211.467;  -57.267;    0.000;2268.73322
 653.85; 2178.467;  -50.800;    0.000;2229.26655
 654.12; 2168.800;  -57.600;    0.000;2226.40005
 654.39; 2193.200;  -25.333;    0.000;2218.53329
 654.66; 2151.133;  -42.533;    0.000;2193.66663
 654.93; 2115.933;   11.800;    0.000;2104.13335
 655.20; 2090.200;  -53.333;    0.000;2143.53328
 655.47; 2056.800;  -57.267;    0.000;2114.06672
 655.74; 2103.467;  -29.800;    0.000;2133.26655
 656.01; 2112.400;  -65.733;    0.000;2178.13323
 656.28; 2042.000;  -52.000;    0.000;2094.00000
 656.55; 2036.133;  -33.000;    0.000;2069.13330
 656.83; 2021.267;  -47.267;    0.000;2068.53339
 657.10; 2015.467;  -60.733;    0.000;2076.20001
 657.37; 2024.267;  -45.067;    0.000;2069.33339
 657.64; 1980.667;  -50.000;    0.000;2030.66663
 657.91; 1943.400;  -53.867;    0.000;1997.26669
 658.18; 1965.400;  -48.067;    0.000;2013.46669
 658.45; 1961.733;  -42.467;    0.000;2004.19994
 658.72; 1920.667;  -42.267;    0.000;1962.93329
 658.99; 1952.000;  -39.000;    0.000;1991.00000
 659.26; 1972.667;  -19.000;    0.000;1991.66663
 659.53; 1901.333;  -53.800;    0.000;1955.13337
 659.80; 1903.533;  -43.133;    0.000;1946.66666
 660.07; 1888.933;  -41.733;    0.000;1930.66668
 660.34; 1866.867;  -43.133;    0.000;1910.00003
 660.61; 1827.067;  -67.800;    0.000;1894.86665
 660.88; 1810.933;  -76.600;    0.000;1887.53335
 661.15; 1856.333;  -54.733;    0.000;1911.06671
 661.42; 1810.800;  -59.533;    0.000;1870.33338
 661.69; 1854.333;  -54.333;    0.000;1908.66671
 661.96; 1777.600;  -60.800;    0.000;1838.39997
 662.23; 1811.467;  -68.133;    0.000;1879.60001
 662.50; 1787.267;  -51.867;    0.000;1839.13339
 662.77; 1727.400;  -57.733;    0.000;1785.13336
 663.04; 1737.400;  -67.133;    0.000;1804.53336
 663.31; 1716.800;  -82.933;    0.000;1799.73338
 663.58; 1732.667;  -38.067;    0.000;1770.73329
 663.85; 1705.400;  -58.800;    0.000;1764.20002
 664.12; 1676.133;  -53.667;    0.000;1729.79997
 664.39; 1701.067;  -61.600;    0.000;1762.66665
 664.66; 1657.467;  -71.067;    0.000;1728.53334
 664.93; 1678.333;  -66.333;    0.000;1744.66671
 665.20; 1603.800;  -38.133;    0.000;1641.93338
 665.47; 1648.667;  -44.933;    0.000;1693.59996
 665.74; 1590.400;  -64.400;    0.000;1654.80003
 666.01; 1602.133;  -57.733;    0.000;1659.86663
 666.28; 1600.133;  -54.400;    0.000;1654.53330
 666.55; 1586.600;  -49.667;    0.000;1636.26664
 666.82; 1589.267;  -48.467;    0.000;1637.73339
 667.09; 1555.867;  -49.667;    0.000;1605.53337
 667.36; 1503.400;  -65.467;    0.000;1568.86669
 667.63; 1569.800;  -59.533;    0.000;1629.33338
 667.90; 1498.133;  -53.133;    0.000;1551.26664
 668.16; 1549.067;  -56.267;    0.000;1605.33332
 668.43; 1485.400;  -51.400;    0.000;1536.80003
 668.70; 1505.000;  -30.067;    0.000;1535.06667
 668.97; 1447.867;  -71.133;    0.000;1519.00003
 669.24; 1496.867;  -55.533;    0.000;1552.40003
 669.51; 1466.133;  -56.733;    0.000;1522.86663
 669.78; 1479.600;  -53.067;    0.000;1532.66664
 670.05; 1429.400;  -62.467;    0.000;1491.86669
 670.32; 1460.400;  -46.533;    0.000;1506.93336
 670.59; 1398.000;  -59.733;    0.000;1457.73333
 670.86; 1386.867;  -68.867;    0.000;1455.73337
 671.13; 1398.933;  -32.933;    0.000;1431.86668
 671.40; 1389.333;  -70.600;    0.000;1459.93337
 671.67; 1424.800;  -31.667;    0.000;1456.46671
 671.93; 1375.800;  -85.533;    0.000;1461.33338
 672.20; 1370.200;  -58.667;    0.000;1428.86662
 672.47; 1343.000;  -54.000;    0.000;1397.00000
 672.74; 1312.267;  -73.800;    0.000;1386.06673
 673.01; 1305.733;  -72.400;    0.000;1378.13328
 673.28; 1316.333;  -39.400;    0.000;1355.73338
 673.55; 1294.133;  -52.467;    0.000;1346.59997
 673.82; 1275.800;  -58.933;    0.000;1334.73338
 674.09; 1292.867;  -55.133;    0.000;1348.00003
 674.35; 1237.800;  -64.800;    0.000;1302.60005
 674.62; 1261.133;  -69.000;    0.000;1330.13330
 674.89; 1247.933;  -66.467;    0.000;1314.40002
 675.16; 1237.600;  -66.200;    0.000;1303.79997
 675.43; 1213.067;  -63.200;    0.000;1276.26665
 675.70; 1258.533;  -44.533;    0.000;1303.06666
 675.97; 1195.667;  -48.933;    0.000;1244.59996
 676.24; 1232.533;  -73.733;    0.000;1306.26665
 676.50; 1159.267;  -74.267;    0.000;1233.53339
 676.77; 1182.667;  -65.267;    0.000;1247.93330
 677.04; 1192.067;  -63.200;    0.000;1255.26665
 677.31; 1168.267;  -78.133;    0.000;1246.40005
 677.58; 1142.133;  -51.467;    0.000;1193.59997
 677.85; 1123.000;  -67.067;    0.000;1190.06667
 678.12; 1135.333;  -47.133;    0.000;1182.46671
 678.38; 1141.933;  -44.267;    0.000;1186.20002
 678.65; 1113.333;  -52.933;    0.000;1166.26671
 678.92; 1097.000;  -70.067;    0.000;1167.06667
 679.19; 1142.067;  -33.933;    0.000;1175.99998
 679.46; 1108.000;  -58.600;    0.000;1166.60000
 679.73; 1068.400;  -54.800;    0.000;1123.20002
 679.99; 1059.867;  -81.533;    0.000;1141.40003
 680.26; 1092.533;  -64.067;    0.000;1156.59999
 680.53; 1052.800;  -74.267;    0.000;1127.06672
 680.80; 1044.733;  -68.533;    0.000;1113.26661
 681.07; 1048.733;  -59.733;    0.000;1108.46661
 681.33; 1046.133;  -61.933;    0.000;1108.06664
 681.60; 1034.067;  -61.867;    0.000;1095.93332
 681.87; 1000.533;  -67.267;    0.000;1067.80000
 682.14; 1001.067;  -55.800;    0.000;1056.86665
 682.41;  984.000;  -67.200;    0.000;1051.20000
 682.67;  989.933;  -53.067;    0.000;1043.00002
 682.94;  988.400;  -61.067;    0.000;1049.46669
 683.21;  955.000;  -72.733;    0.000;1027.73333
 683.48;  967.800;  -63.133;    0.000;1030.93332
 683.75;  997.733;  -64.200;    0.000;1061.93333
 684.01;  981.933;  -35.800;    0.000;1017.73335
 684.28;  923.133;  -82.733;    0.000;1005.86669
 684.55;  950.400;  -48.533;    0.000;998.93336
 684.82;  938.733;  -62.600;    0.000;1001.33334
 685.09;  890.333;  -22.467;    0.000;912.79998
 685.35;  927.733;  -44.667;    0.000;972.40001
 685.62;  878.800;  -58.067;    0.000;936.86665
 685.89;  887.267;  -50.467;    0.000;937.73333
 686.16;  869.667;  -64.667;    0.000;934.33335
 686.42;  905.467;  -73.533;    0.000;979.00001
 686.69;  865.467;  -45.400;    0.000;910.86668
 686.96;  829.267;  -79.067;    0.000;908.33333
 687.23;  862.867;  -32.600;    0.000;895.46664
 687.49;  923.467;  -57.000;    0.000;980.46667
 687.76;  810.400;  -60.067;    0.000;870.46669
 688.03;  837.600;  -84.467;    0.000;922.06664
 688.30;  807.600;  -64.267;    0.000;871.86665
 688.56;  835.400;  -64.133;    0.000;899.53336
 688.83;  822.067;  -60.600;    0.000;882.66665
 689.10;  817.667;  -66.000;    0.000;883.66669
 689.37;  804.333;  -81.400;    0.000;885.73331
 689.63;  738.400;  -62.000;    0.000;800.40002
 689.90;  782.867;  -60.133;    0.000;842.99997
 690.17;  794.133;  -63.933;    0.000;858.06670
 690.44;  754.467;  -71.267;    0.000;825.73335
 690.70;  737.333;  -85.667;    0.000;822.99998
 690.97;  760.200;  -45.067;    0.000;805.26668
 691.24;  743.467;  -44.067;    0.000;787.53334
 691.50;  742.933;  -64.933;    0.000;807.86668
 691.77;  712.133;  -59.000;    0.000;771.13336
 692.04;  710.000;  -61.333;    0.000;771.33333
 692.30;  710.000;  -61.533;    0.000;771.53333
 692.57;  720.267;  -67.867;    0.000;788.13333
 692.84;  688.933;  -85.000;    0.000;773.93335
 693.11;  684.267;  -47.333;    0.000;731.59999
 693.37;  668.667;  -61.800;    0.000;730.46669
 693.64;  692.667;  -57.267;    0.000;749.93335
 693.91;  667.800;  -68.733;    0.000;736.53332
 694.17;  677.133;  -48.333;    0.000;725.46669
 694.44;  662.867;  -63.200;    0.000;726.06664
 694.71;  645.067;  -71.333;    0.000;716.39999
 694.97;  664.200;  -65.667;    0.000;729.86668
 695.24;  613.400;  -68.600;    0.000;682.00002
 695.51;  610.067;  -89.600;    0.000;699.66665
 695.77;  622.867;  -64.933;    0.000;687.79997
 696.04;  637.933;  -80.333;    0.000;718.26669
 696.31;  600.933;  -59.667;    0.000;660.60002
 696.57;  637.400;  -44.533;    0.000;681.93336
 696.84;  589.067;  -57.000;    0.000;646.06665
 697.11;  609.533;  -66.200;    0.000;675.73332
 697.37;  595.400;  -44.733;    0.000;640.13336
 697.64;  586.733;  -60.800;    0.000;647.53334
 697.91;  561.533;  -68.733;    0.000;630.26665
 698.17;  561.200;  -78.400;    0.000;639.60001
 698.44;  584.200;  -52.467;    0.000;636.66668
 698.71;  566.667;  -62.667;    0.000;629.33335
 698.97;  542.867;  -59.667;    0.000;602.53331
 699.24;  520.800;  -63.067;    0.000;583.86665
 699.50;  522.867;  -50.267;    0.000;573.13330
 699.77;  543.667;  -43.067;    0.000;586.73335
 700.04;  511.067;  -56.533;    0.000;567.60001
 700.30;  480.333;  -78.933;    0.000;559.26668
 700.57;  477.200;  -75.533;    0.000;552.73335
 700.84;  518.933;  -49.933;    0.000;568.86668
 701.10;  493.800;  -77.133;    0.000;570.93332
 701.37;  472.200;  -50.867;    0.000;523.06668
 701.63;  463.667;  -59.667;    0.000;523.33332
 701.90;  475.733;  -64.333;    0.000;540.06667
 702.17;  497.600;  -50.067;    0.000;547.66667
 702.43;  465.733;  -71.533;    0.000;537.26667
 702.70;  460.267;  -42.533;    0.000;502.80000
 702.96;  457.000;  -78.200;    0.000;535.20000
 703.23;  385.800;  -67.400;    0.000;453.19999
 703.50;  417.133;  -72.667;    0.000;489.80000
 703.76;  389.000;  -55.200;    0.000;444.20000
 704.03;  411.533;  -61.333;    0.000;472.86666
 704.29;  385.000;  -79.267;    0.000;464.26667
 704.56;  371.267;  -73.333;    0.000;444.60000
 704.82;  366.267;  -65.267;    0.000;431.53333
 705.09;  392.200;  -70.800;    0.000;463.00002
 705.36;  378.933;  -78.267;    0.000;457.19999
 705.62;  376.400;  -45.200;    0.000;421.59999
 705.89;  333.800;  -77.867;    0.000;411.66666
 706.15;  346.800;  -78.733;    0.000;425.53332
 706.42;  339.867;  -38.333;    0.000;378.20000
 706.68;  319.867;  -78.400;    0.000;398.26667
 706.95;  323.933;  -54.067;    0.000;377.99998
 707.21;  285.933;  -88.067;    0.000;373.99998
 707.48;  317.333;  -62.533;    0.000;379.86668
 707.75;  326.467;  -75.533;    0.000;402.00001
 708.01;  300.267;  -76.400;    0.000;376.66666
 708.28;  308.067;  -57.667;    0.000;365.73335
 708.54;  279.533;  -59.267;    0.000;338.79999
 708.81;  294.600;  -68.600;    0.000;363.20000
 709.07;  269.600;  -67.600;    0.000;337.20000
 709.34;  243.133;  -81.933;    0.000;325.06667
 709.60;  247.933;  -75.667;    0.000;323.60000
 709.87;  270.933;  -49.200;    0.000;320.13332
 710.13;  245.400;  -74.200;    0.000;319.59999
 710.40;  246.267;  -83.667;    0.000;329.93333
 710.66;  268.800;  -78.200;    0.000;346.99998
 710.93;  252.000;  -71.333;    0.000;323.33334
 711.19;  243.733;  -66.133;    0.000;309.86667
 711.46;  270.000;  -62.667;    0.000;332.66667
 711.72;  250.867;  -47.600;    0.000;298.46667
 711.99;  255.200;  -73.733;    0.000;328.93333
 712.25;  240.333;  -52.067;    0.000;292.39999
 712.52;  230.067;  -54.867;    0.000;284.93333
 712.78;  233.333;  -71.867;    0.000;305.20000
 713.05;  248.467;  -81.667;    0.000;330.13332
 713.31;  226.600;  -70.133;    0.000;296.73334
 713.58;  257.067;  -54.333;    0.000;311.40001
 713.84;  219.600;  -66.600;    0.000;286.20000
 714.11;  227.267;  -68.533;    0.000;295.80000
 714.37;  229.000;  -46.133;    0.000;275.13334
 714.64;  226.733;  -95.067;    0.000;321.80000
 714.90;  201.467;  -52.333;    0.000;253.79999
 715.17;  197.867;  -59.933;    0.000;257.80000
 715.43;  197.667;  -56.667;    0.000;254.33334
 715.70;  200.533;  -78.467;    0.000;279.00001
 715.96;  189.933;  -61.067;    0.000;251.00000
 716.22;  201.400;  -78.200;    0.000;279.59999
 716.49;  216.333;  -65.933;    0.000;282.26666
 716.75;  181.000;  -87.733;    0.000;268.73333
 717.02;  191.000;  -63.267;    0.000;254.26667
 717.28;  188.800;  -83.200;    0.000;272.00000
 717.55;  179.867;  -90.133;    0.000;270.00000
 717.81;  191.200;  -56.467;    0.000;247.66666
 718.08;  181.867;  -68.200;    0.000;250.06667
 718.34;  193.733;  -83.600;    0.000;277.33334
 718.60;  178.333;  -61.200;    0.000;239.53333
 718.87;  206.667;  -65.800;    0.000;272.46667
 719.13;  165.533;  -67.267;    0.000;232.80001
 719.40;  209.467;  -70.800;    0.000;280.26666
 719.66;  176.800;  -79.067;    0.000;255.86667
 719.93;  200.667;  -70.867;    0.000;271.53334
 720.19;  198.267;  -67.800;    0.000;266.06667
 720.45;  191.400;  -78.533;    0.000;269.93333
 720.72;  179.867;  -45.533;    0.000;225.40000
 720.98;  185.133;  -72.000;    0.000;257.13333
 721.25;  169.800;  -82.000;    0.000;251.80000
 721.51;  168.400;  -64.733;    0.000;233.13332
 721.77;  171.333;  -66.867;    0.000;238.20000
 722.04;  215.200;  -51.200;    0.000;266.40000
 722.30;  161.867;  -42.133;    0.000;204.00000
 722.57;  165.467;  -67.400;    0.000;232.86666
 722.83;  186.733;  -64.533;    0.000;251.26667
 723.09;  163.267;  -73.600;    0.000;236.86666
 723.36;  176.400;  -96.667;    0.000;273.06666
 723.62;  191.267;  -71.800;    0.000;263.06667
 723.88;  152.200;  -71.133;    0.000;223.33333
 724.15;  187.467;  -66.067;    0.000;253.53333
 724.41;  164.000;  -72.067;    0.000;236.06667
 724.68;  180.400;  -74.867;    0.000;255.26666
 724.94;  196.933;  -39.533;    0.000;236.46667
 725.20;  205.267;  -65.000;    0.000;270.26666
 725.47;  162.733;  -76.600;    0.000;239.33334
 725.73;  183.000;  -85.667;    0.000;268.66666
 725.99;  154.067;  -53.533;    0.000;207.60000
 726.26;  185.000;  -64.867;    0.000;249.86667
 726.52;  158.467;  -50.933;    0.000;209.39999
 726.78;  153.933;  -79.467;    0.000;233.40000
 727.05;  175.533;  -49.067;    0.000;224.60001
 727.31;  158.133;  -73.133;    0.000;231.26666
 727.57;  142.533;  -66.733;    0.000;209.26667
 727.84;  170.733;  -62.333;    0.000;233.06667
 728.10;  156.333;  -64.733;    0.000;221.06666
 728.36;  148.800;  -64.333;    0.000;213.13334
 728.63;  165.067;  -82.800;    0.000;247.86667
 728.89;  164.333;  -80.600;    0.000;244.93333
 729.15;  143.800;  -72.600;    0.000;216.40000
 729.42;  150.933;  -74.933;    0.000;225.86667
 729.68;  139.533;  -66.200;    0.000;205.73334
 729.94;  142.133;  -72.667;    0.000;214.80000
 730.21;  162.667;  -88.800;    0.000;251.46667
 730.47;  147.667;  -88.867;    0.000;236.53334
 730.73;  146.467;  -74.533;    0.000;220.99999
 731.00;  167.000;  -81.533;    0.000;248.53333
 731.26;  146.800;  -74.400;    0.000;221.20000
 731.52;  145.133;  -92.733;    0.000;237.86666
 731.78;  124.733;  -94.133;    0.000;218.86666
 732.05;  145.733;  -90.867;    0.000;236.60001
 732.31;  144.200;  -59.533;    0.000;203.73333
 732.57;  141.733;  -69.867;    0.000;211.60001
 732.84;  122.200;  -75.800;    0.000;198.00000
 733.10;  122.467;  -92.000;    0.000;214.46667
 733.36;  141.333;  -65.933;    0.000;207.26666
 733.62;  137.600;  -82.800;    0.000;220.40001
 733.89;  114.400;  -77.067;    0.000;191.46667
 734.15;  117.333;  -91.000;    0.000;208.33334
 734.41;  134.933;  -65.267;    0.000;200.20000
 734.67;  135.200;  -63.533;    0.000;198.73333
 734.94;  116.533;  -70.800;    0.000;187.33334
 735.20;  120.800;  -78.867;    0.000;199.66667
 735.46;  107.933;  -51.600;    0.000;159.53333
 735.73;  128.200;  -79.333;    0.000;207.53333
 735.99;  113.933;  -65.200;    0.000;179.13333
 736.25;  123.867;  -68.067;    0.000;191.93333
 736.51;  132.000;  -76.933;    0.000;208.93333
 736.77;  104.600;  -79.200;    0.000;183.80000
 737.04;  113.333;  -56.600;    0.000;169.93333
 737.30;  126.667;  -87.867;    0.000;214.53333
 737.56;  111.000;  -61.800;    0.000;172.80000
 737.82;   93.333;  -88.533;    0.000;181.86667
 738.09;  103.533;  -71.867;    0.000;175.40000
 738.35;  100.867;  -79.267;    0.000;180.13334
 738.61;  105.333;  -62.667;    0.000;168.00000
 738.87;  115.067;  -58.533;    0.000;173.60000
 739.14;  103.667;  -73.933;    0.000;177.60000
 739.40;  106.200;  -91.333;    0.000;197.53333
 739.66;   95.200;  -77.600;    0.000;172.80000
 739.92;  102.667;  -89.533;    0.000;192.20000
 740.18;  104.200;  -82.600;    0.000;186.80000
 740.45;  100.667;  -88.400;    0.000;189.06667
 740.71;   98.067;  -55.400;    0.000;153.46667
 740.97;   97.467;  -51.533;    0.000;149.00000
 741.23;  106.667;  -66.200;    0.000;172.86666
 741.49;  119.000;  -74.600;    0.000;193.60000
 741.76;   78.933;  -89.000;    0.000;167.93333
 742.02;   84.067;  -74.533;    0.000;158.60000
 742.28;   88.533;  -65.600;    0.000;154.13333
 742.54;   79.333;  -87.800;    0.000;167.13334
 742.80;   76.067;  -73.600;    0.000;149.66666
 743.06;   82.267;  -74.733;    0.000;157.00000
 743.33;   72.200;  -82.867;    0.000;155.06667
 743.59;   71.200;  -90.533;    0.000;161.73333
 743.85;   62.267;  -87.467;    0.000;149.73333
 744.11;   83.200;  -90.467;    0.000;173.66666
 744.37;   84.200;  -55.467;    0.000;139.66666
 744.63;   59.000;  -81.800;    0.000;140.80000
 744.90;   76.200;  -82.133;    0.000;158.33333
 745.16;   73.267;  -76.867;    0.000;150.13334
 745.42;   69.400;  -68.667;    0.000;138.06667
 745.68;   61.800;  -76.067;    0.000;137.86666
 745.94;   91.533;  -51.800;    0.000;143.33333
 746.20;   79.200;  -80.067;    0.000;159.26666
 746.46;   84.133;  -62.133;    0.000;146.26667
 746.72;   74.467;  -64.333;    0.000;138.80000
 746.99;   57.000;  -61.267;    0.000;118.26667
 747.25;   62.000;  -47.533;    0.000;109.53333
 747.51;   52.200;  -74.133;    0.000;126.33333
 747.77;   60.867;  -73.067;    0.000;133.93333
 748.03;   52.133;  -89.267;    0.000;141.40001
 748.29;   62.133;  -93.133;    0.000;155.26667
 748.55;   36.867;  -59.733;    0.000;96.60000
 748.81;   67.733;  -84.400;    0.000;152.13333
 749.08;   54.000;  -67.200;    0.000;121.20000
 749.34;   45.000;  -68.067;    0.000;113.06667
 749.60;   52.600;  -68.067;    0.000;120.66666
 749.86;   72.067;  -76.467;    0.000;148.53333
 750.12;   44.400;  -75.600;    0.000;120.00000
 750.38;   45.933;  -76.533;    0.000;122.46667
 750.64;   40.667;  -79.667;    0.000;120.33333
 750.90;   72.133;  -62.133;    0.000;134.26667
 751.16;   28.200;  -85.133;    0.000;113.33333
 751.42;   42.933;  -67.067;    0.000;110.00000
 751.68;   51.533;  -59.067;    0.000;110.60000
 751.95;   34.733;  -89.200;    0.000;123.93333
 752.21;   45.067;  -81.933;    0.000;127.00000
 752.47;   37.200;  -83.667;    0.000;120.86666
 752.73;   41.067;  -73.733;    0.000;114.80000
 752.99;   32.533;  -84.400;    0.000;116.93333
 753.25;   20.467;  -80.200;    0.000;100.66666
 753.51;   22.667;  -78.133;    0.000;100.80000
 753.77;   15.000;  -71.067;    0.000;86.06667
 754.03;   11.800;  -70.133;    0.000;81.93333
 754.29;   15.667;  -77.733;    0.000;93.40000
 754.55;    6.267;  -77.733;    0.000;84.00000
 754.81;   21.000;  -65.800;    0.000;86.80000
 755.07;   16.800;  -84.667;    0.000;101.46666
 755.33;   40.800;  -60.467;    0.000;101.26667
 755.59;   16.067;  -81.067;    0.000;97.13333
 755.85;    5.333;  -95.667;    0.000;101.00000
 756.11;   38.400;  -89.333;    0.000;127.73334
 756.37;   15.333;  -70.000;    0.000;85.33333
 756.63;   24.267;  -62.067;    0.000;86.33333
 756.89;    1.267;  -90.600;    0.000;91.86667
 757.15;   12.933;  -79.067;    0.000;92.00000
 757.41;   39.600;  -43.333;    0.000;82.93333
 757.68;   11.467;  -95.067;    0.000;106.53333
 757.94;   26.600;  -60.733;    0.000;87.33333
 758.20;   18.867;  -65.333;    0.000;84.20000
 758.46;    4.133;  -71.733;    0.000;75.86666
 758.72;   18.667;  -87.200;    0.000;105.86666
 758.98;    5.200;  -61.200;    0.000;66.40000
 759.24;   28.533;  -83.800;    0.000;112.33334
 759.50;   -2.667;  -68.800;    0.000;66.13334
 759.76;   27.733;  -81.333;    0.000;109.06667
 760.02;  -20.000;  -78.400;    0.000;58.40000
 760.27;    9.800;  -61.400;    0.000;71.20000
 760.53;   12.067;  -72.733;    0.000;84.80000
 760.79;   20.333;  -78.733;    0.000;99.06666
 761.05;   -5.267;  -56.067;    0.000;50.80000
 761.31;   15.333;  -59.333;    0.000;74.66667
 761.57;   11.800;  -67.533;    0.000;79.33333
 761.83;  -17.733;  -76.800;    0.000;59.06667
 762.09;    4.667;  -88.667;    0.000;93.33333
 762.35;    0.800;  -90.733;    0.000;91.53333
 762.61;   -1.200;  -71.800;    0.000;70.60000
 762.87;    2.000;  -72.333;    0.000;74.33334
 763.13;  -13.400;  -90.067;    0.000;76.66667
 763.39;   28.067;  -65.067;    0.000;93.13333
 763.65;    1.333;  -68.467;    0.000;69.80000
 763.91;    4.467;  -71.933;    0.000;76.40000
 764.17;    7.267;  -66.667;    0.000;73.93333
 764.43;   -3.800;  -59.600;    0.000;55.80000
 764.69;    6.267;  -83.600;    0.000;89.86667
 764.95;   19.333;  -96.267;    0.000;115.60000
 765.21;  -17.000;  -87.867;    0.000;70.86667
 765.47;   -7.067;  -69.533;    0.000;62.46667
 765.73;   -3.933;  -67.400;    0.000;63.46667
 765.98;   30.867;  -50.133;    0.000;81.00000
 766.24;  -18.133;  -76.333;    0.000;58.20000
 766.50;  -10.867;  -88.133;    0.000;77.26666
 766.76;    4.200;  -70.267;    0.000;74.46667
 767.02;   -0.867;  -88.933;    0.000;88.06667
 767.28;  -15.267;  -71.467;    0.000;56.20000
 767.54;   -2.467;  -61.467;    0.000;59.00000
 767.80;    3.533;  -70.133;    0.000;73.66666
 768.06;    4.200;  -73.933;    0.000;78.13333
 768.32;   -6.333;  -73.933;    0.000;67.60000
 768.58;    6.267;  -78.267;    0.000;84.53334
 768.83;  -14.400;  -61.333;    0.000;46.93333
 769.09;   -0.733;  -70.400;    0.000;69.66667
 769.35;  -13.800;  -57.200;    0.000;43.40000
 769.61;   -6.267;  -79.533;    0.000;73.26667
 769.87;  -26.067;  -72.133;    0.000;46.06666
 770.13;    3.000;  -84.533;    0.000;87.53333
 770.39;  -35.867;  -84.067;    0.000;48.20000
 770.65;  -16.600;  -73.533;    0.000;56.93333
 770.90;  -40.600;  -78.133;    0.000;37.53333
 771.16;  -14.267;  -82.667;    0.000;68.40000
 771.42;  -24.400;  -71.800;    0.000;47.40000
 771.68;  -10.267;  -82.867;    0.000;72.60000
 771.94;   -0.600;  -74.933;    0.000;74.33333
 772.20;  -12.800;  -67.733;    0.000;54.93333
 772.46;  -25.667;  -94.267;    0.000;68.60000
 772.71;  -15.000;  -77.733;    0.000;62.73333
 772.97;  -22.333;  -58.933;    0.000;36.60000
 773.23;   -7.867;  -77.400;    0.000;69.53333
 773.49;    2.867;  -58.800;    0.000;61.66667
 773.75;  -26.400;  -76.800;    0.000;50.40000
 774.01;  -17.000;  -79.267;    0.000;62.26667
 774.26;  -44.467;  -90.467;    0.000;46.00000
 774.52;  -13.600;  -64.067;    0.000;50.46667
 774.78;  -39.067;  -82.400;    0.000;43.33334
 775.04;   -9.333;  -46.800;    0.000;37.46667
 775.30;    2.667;  -60.800;    0.000;63.46667
 775.56;  -16.733;  -75.200;    0.000;58.46666
 775.81;    1.200;  -65.000;    0.000;66.20000
 776.07;  -33.533;  -82.667;    0.000;49.13333
 776.33;  -12.800;  -91.333;    0.000;78.53334
 776.59;  -27.667;  -71.867;    0.000;44.20000
 776.85;  -16.267;  -82.000;    0.000;65.73333
 777.10;  -23.200;  -66.800;    0.000;43.60000
 777.36;   -7.933;  -75.867;    0.000;67.93334
 777.62;  -32.800;  -75.733;    0.000;42.93333
 777.88;  -10.000;  -80.800;    0.000;70.80000
 778.14;  -22.800;  -74.333;    0.000;51.53334
 778.39;  -18.267;  -83.533;    0.000;65.26667
 778.65;  -36.667;  -67.067;    0.000;30.40000
 778.91;  -33.133;  -82.400;    0.000;49.26667
 779.17;  -15.133;  -57.333;    0.000;42.20000
 779.42;  -35.000;  -84.867;    0.000;49.86667
 779.68;  -33.733;  -86.000;    0.000;52.26667
 779.94;  -28.000;  -83.733;    0.000;55.73333
 780.20;  -48.600;  -86.600;    0.000;38.00000
 780.46;  -29.400;  -77.733;    0.000;48.33333
 780.71;  -23.467;  -69.933;    0.000;46.46667
 780.97;  -14.133;  -76.933;    0.000;62.80000
 781.23;  -34.933;  -60.800;    0.000;25.86666
 781.49;  -24.267;  -68.133;    0.000;43.86666
 781.74;  -32.800;  -76.667;    0.000;43.86666
 782.00;  -44.067;  -71.533;    0.000;27.46667
 782.26;  -28.800;  -68.733;    0.000;39.93333
 782.52;  -18.467;  -81.533;    0.000;63.06667
 782.77;  -32.333;  -74.267;    0.000;41.93334
 783.03;  -39.733;  -96.333;    0.000;56.60000
 783.29;  -39.933;  -84.267;    0.000;44.33334
 783.54;  -51.467;  -78.200;    0.000;26.73333
 783.80;  -17.867;  -60.200;    0.000;42.33333
 784.06;  -38.933;  -72.133;    0.000;33.20000
 784.32;  -57.800;  -78.133;    0.000;20.33333
 784.57;    0.600;  -62.933;    0.000;63.53333
 784.83;  -58.800;  -86.200;    0.000;27.40000
 785.09;  -38.600;  -88.533;    0.000;49.93333
 785.34;  -39.067;  -84.000;    0.000;44.93333
 785.60;  -31.267;  -57.667;    0.000;26.40000
 785.86;  -55.267;  -90.933;    0.000;35.66667
 786.12;  -31.267;  -68.733;    0.000;37.46666
 786.37;  -36.867;  -53.933;    0.000;17.06667
 786.63;  -42.733; -104.800;    0.000;62.06667
 786.89;  -26.533;  -71.867;    0.000;45.33334
 787.14;  -25.733;  -66.933;    0.000;41.20000
 787.40;  -41.400;  -79.467;    0.000;38.06667
 787.66;  -41.667;  -85.867;    0.000;44.20000
 787.91;    6.333;  -60.600;    0.000;66.93333
 788.17;  -38.200;  -76.400;    0.000;38.20000
 788.43;  -48.467;  -84.200;    0.000;35.73333
 788.68;  -33.467;  -82.333;    0.000;48.86667
 788.94;  -45.533;  -70.067;    0.000;24.53333
 789.20;  -27.667;  -85.867;    0.000;58.20000
 789.45;  -41.667;  -85.067;    0.000;43.40000
 789.71;  -41.133;  -92.600;    0.000;51.46666
 789.97;  -10.133;  -45.933;    0.000;35.80000
 790.22;  -40.467;  -71.600;    0.000;31.13333
 790.48;  -62.067;  -83.267;    0.000;21.20000
 790.74;  -44.267;  -43.667;    0.000;-0.60000
 790.99;  -31.867;  -83.867;    0.000;52.00000
 791.25;  -44.733;  -83.133;    0.000;38.40000
 791.51;  -60.200;  -76.400;    0.000;16.20000
 791.76;  -21.400;  -56.933;    0.000;35.53333
 792.02;  -41.000;  -72.400;    0.000;31.40000
 792.27;  -42.000;  -75.400;    0.000;33.40000
 792.53;  -34.933;  -89.667;    0.000;54.73333
 792.79;  -43.400;  -86.133;    0.000;42.73333
 793.04;  -56.067;  -73.333;    0.000;17.26667
 793.30;  -36.600;  -85.800;    0.000;49.20000
 793.56;  -57.600;  -76.600;    0.000;19.00000
 793.81;   -2.267;  -65.267;    0.000;63.00000
 794.07;  -57.933;  -91.933;    0.000;34.00000
 794.32;  -28.733;  -76.067;    0.000;47.33333
 794.58;  -52.867;  -76.867;    0.000;24.00000
 794.84;  -48.267;  -64.533;    0.000;16.26667
 795.09;  -40.933;  -44.333;    0.000; 3.40000
 795.35;  -35.733;  -64.333;    0.000;28.60000
 795.60;  -49.200;  -76.867;    0.000;27.66667
 795.86;  -19.600;  -73.400;    0.000;53.80000
 796.12;  -48.467;  -98.000;    0.000;49.53333
 796.37;  -50.667;  -79.533;    0.000;28.86666
 796.63;  -36.267;  -66.533;    0.000;30.26667
 796.88;  -22.800;  -75.800;    0.000;53.00000
 797.14;  -59.467;  -68.200;    0.000; 8.73333
 797.39;  -20.200;  -63.800;    0.000;43.60000
 797.65;  -52.867;  -89.800;    0.000;36.93334
 797.91;  -51.400;  -80.267;    0.000;28.86667
 798.16;  -52.133;  -90.733;    0.000;38.59999
 798.42;  -42.800;  -79.000;    0.000;36.20000
 798.67;  -62.667;  -79.667;    0.000;17.00000
 798.93;  -45.400;  -84.733;    0.000;39.33333
 799.18;  -62.933;  -73.667;    0.000;10.73333
 799.44;  -48.733;  -87.200;    0.000;38.46666
 799.69;  -73.400;  -70.133;    0.000;-3.26667
 799.95;  -52.067;  -81.400;    0.000;29.33334
 800.21;  -42.667;  -92.000;    0.000;49.33333
 800.46;  -21.267;  -72.667;    0.000;51.40000
 800.72;  -73.600;  -94.800;    0.000;21.20000
 800.97;  -65.000;  -80.600;    0.000;15.60000
 801.23;  -65.133;  -96.733;    0.000;31.60000
 801.48;  -60.267; -101.800;    0.000;41.53334
 801.74;  -41.200;  -95.800;    0.000;54.60000
 801.99;  -42.933;  -68.333;    0.000;25.40000
 802.25;  -55.933;  -88.867;    0.000;32.93333
 802.50;  -40.600;  -66.400;    0.000;25.80000
 802.76;  -35.400;  -49.467;    0.000;14.06667
 803.01;  -69.133;  -88.133;    0.000;19.00000
 803.27;  -57.333;  -63.200;    0.000; 5.86667
 803.52;  -49.400;  -79.067;    0.000;29.66666
 803.78;  -35.733;  -72.933;    0.000;37.20000
 804.03;  -47.933;  -80.333;    0.000;32.40000
 804.29;  -70.667;  -77.933;    0.000; 7.26667
 804.54;  -32.733;  -83.667;    0.000;50.93333
 804.80;  -45.667;  -91.333;    0.000;45.66667
 805.05;  -47.667;  -89.200;    0.000;41.53333
 805.31;  -55.267;  -55.133;    0.000;-0.13333
 805.56;  -35.267;  -62.733;    0.000;27.46667
 805.82;  -63.600;  -81.467;    0.000;17.86667
 806.07;  -34.800;  -57.933;    0.000;23.13334
 806.33;  -52.933;  -53.267;    0.000; 0.33333
 806.58;  -63.400;  -92.133;    0.000;28.73333
 806.84;  -48.600;  -74.600;    0.000;26.00000
 807.09;  -41.333;  -81.733;    0.000;40.40000
 807.34;  -68.800;  -78.533;    0.000; 9.73333
 807.60;  -42.200;  -85.800;    0.000;43.60000
 807.85;  -44.133;  -53.200;    0.000; 9.06667
 808.11;  -51.133;  -83.467;    0.000;32.33333
 808.36;  -46.933;  -54.467;    0.000; 7.53333
 808.62;  -71.867;  -82.933;    0.000;11.06667
 808.87;  -58.933;  -80.800;    0.000;21.86667
 809.13;  -56.133;  -79.667;    0.000;23.53333
 809.38;  -34.800;  -63.467;    0.000;28.66667
 809.63;  -51.400;  -77.867;    0.000;26.46667
 809.89;  -50.533;  -70.467;    0.000;19.93333
 810.14;  -75.533;  -76.267;    0.000; 0.73334
 810.40;  -51.800;  -58.200;    0.000; 6.40000
 810.65;  -42.867;  -80.133;    0.000;37.26667
 810.91;  -63.533;  -97.200;    0.000;33.66666
 811.16;  -40.133;  -85.733;    0.000;45.59999
 811.41;  -43.333;  -79.067;    0.000;35.73333
 811.67;  -56.200;  -96.600;    0.000;40.40000
 811.92;  -61.867;  -75.333;    0.000;13.46667
 812.18;  -51.533;  -82.333;    0.000;30.80000
 812.43;  -54.667;  -66.800;    0.000;12.13334
 812.68;  -47.467;  -89.200;    0.000;41.73333
 812.94;  -76.000;  -81.467;    0.000; 5.46667
 813.19;  -49.600;  -76.067;    0.000;26.46667
 813.45;   -5.133;  -50.667;    0.000;45.53333
 813.70;  -38.600;  -94.467;    0.000;55.86667
 813.95;  -41.200;  -77.867;    0.000;36.66667
 814.21;  -50.000;  -87.000;    0.000;37.00000
 814.46;  -70.800;  -68.400;    0.000;-2.40000
 814.71;  -65.733;  -83.800;    0.000;18.06667
 814.97;  -67.400;  -81.467;    0.000;14.06667
 815.22;  -66.333;  -92.333;    0.000;26.00000
 815.48;  -49.800;  -88.133;    0.000;38.33333
 815.73;   14.200;  -23.800;    0.000;38.00000
 815.98;  -57.133;  -83.267;    0.000;26.13334
 816.24;  -69.800;  -76.133;    0.000; 6.33333
 816.49;  -40.867;  -65.733;    0.000;24.86666
 816.74;  -47.267;  -83.067;    0.000;35.80000
 817.00;  -42.000;  -54.667;    0.000;12.66667
 817.25;  -51.600;  -65.600;    0.000;14.00000
 817.50;  -56.467;  -81.200;    0.000;24.73333
 817.76;  -75.933;  -80.000;    0.000; 4.06667
 818.01;  -69.467;  -79.267;    0.000; 9.80000
 818.26;  -48.533;  -92.867;    0.000;44.33334
 818.52;  -51.200;  -93.133;    0.000;41.93333
 818.77;  -47.200;  -87.467;    0.000;40.26667
 819.02;  152.000;  -43.200;    0.000;195.20000
 819.28;  -65.267;  -80.267;    0.000;15.00000
 819.53;  -66.333;  -66.467;    0.000; 0.13333
 819.78;  -47.267;  -76.533;    0.000;29.26667
 820.04;  -69.467;  -64.600;    0.000;-4.86667
 820.29;  -64.933;  -85.733;    0.000;20.80000
 820.54;  -50.667;  -54.867;    0.000; 4.20000
 820.79;  -49.667;  -63.867;    0.000;14.20000
 821.05;  -70.267;  -89.800;    0.000;19.53333
 821.30;  -16.667;  -71.200;    0.000;54.53333
 821.55;  -33.400;  -61.333;    0.000;27.93333
 821.81;  -55.333;  -73.800;    0.000;18.46667
 822.06;  -49.133;  -67.533;    0.000;18.40000
 822.31;  -32.667;  -61.867;    0.000;29.20000
 822.56;  -55.467;  -84.533;    0.000;29.06667
 822.82;  -59.667;  -95.533;    0.000;35.86666
 823.07;  -50.867;  -64.267;    0.000;13.40001
 823.32;  -63.933;  -90.067;    0.000;26.13333
 823.58;  -34.600;  -71.667;    0.000;37.06667
 823.83;  -72.200;  -79.600;    0.000; 7.40000
 824.08;  -69.867;  -79.800;    0.000; 9.93333
 824.33;  -48.933;  -86.000;    0.000;37.06667
 824.59;  -81.267;  -79.667;    0.000;-1.60001
 824.84;  -63.933;  -78.400;    0.000;14.46667
 825.09;  -69.467;  -79.400;    0.000; 9.93333
 825.34;  -66.867;  -82.067;    0.000;15.20000
 825.60;  -75.200;  -83.800;    0.000; 8.60001
 825.85;  -49.267;  -82.667;    0.000;33.40000
 826.10;  -88.133;  -86.600;    0.000;-1.53333
 826.35;  -44.333;  -70.933;    0.000;26.60000
 826.61;  -75.400;  -69.133;    0.000;-6.26667
 826.86;  -74.533;  -95.867;    0.000;21.33334
 827.11;  -68.467;  -79.067;    0.000;10.60000
 827.36;  -67.467;  -90.333;    0.000;22.86667
 827.61;  -68.933;  -96.067;    0.000;27.13333
 827.87;  -65.400;  -92.067;    0.000;26.66666
 828.12;  -76.600;  -73.533;    0.000;-3.06667
 828.37;  -59.067;  -80.867;    0.000;21.80000
 828.62;  -63.867;  -94.400;    0.000;30.53334
 828.88;  -52.467;  -92.800;    0.000;40.33334
 829.13;  -48.867;  -86.400;    0.000;37.53334
 829.38;  -48.533;  -82.733;    0.000;34.20000
 829.63;  -66.400;  -81.467;    0.000;15.06667
 829.88;  -70.200;  -70.800;    0.000; 0.60001
 830.14;  -67.933;  -92.600;    0.000;24.66666
 830.39;  -40.733;  -65.867;    0.000;25.13334
 830.64;  -84.600;  -86.867;    0.000; 2.26667
 830.89;  -54.533;  -72.333;    0.000;17.80000
 831.14;  -58.133;  -71.667;    0.000;13.53333
 831.39;  -74.067;  -87.867;    0.000;13.80000
 831.65;  -68.267;  -88.267;    0.000;20.00000
 831.90;  -61.000;  -91.733;    0.000;30.73333
 832.15;  -63.933;  -81.267;    0.000;17.33334
 832.40;  -58.267;  -66.533;    0.000; 8.26667
 832.65;  -60.067;  -77.733;    0.000;17.66666
 832.90;  -70.467;  -97.933;    0.000;27.46667
 833.16;  -80.067;  -75.400;    0.000;-4.66666
 833.41;  -55.200;  -72.800;    0.000;17.60000
 833.66;  -65.867;  -86.533;    0.000;20.66666
 833.91;  -68.933;  -85.667;    0.000;16.73333
 834.16;  -78.000;  -87.267;    0.000; 9.26667
 834.41;  -77.067;  -84.800;    0.000; 7.73334
 834.66;  -71.733;  -62.600;    0.000;-9.13333
 834.92;  -70.133;  -78.933;    0.000; 8.80000
 835.17;  -77.733;  -94.267;    0.000;16.53334
 835.42;  -52.000;  -66.067;    0.000;14.06667
 835.67;  -60.133;  -67.467;    0.000; 7.33333
 835.92;  -60.200;  -68.333;    0.000; 8.13334
 836.17;  -71.933;  -91.667;    0.000;19.73333
 836.42;  -77.133;  -91.400;    0.000;14.26667
 836.67;  -92.133;  -82.200;    0.000;-9.93333
 836.93;  -62.533; -102.267;    0.000;39.73334
 837.18;  -63.800;  -63.800;    0.000; 0.00000
 837.43;  -62.733;  -82.667;    0.000;19.93333
 837.68;  -73.800;  -70.200;    0.000;-3.60001
 837.93;  -83.200;  -81.667;    0.000;-1.53333
 838.18;  -73.933; -103.200;    0.000;29.26666
 838.43;  -64.933; -100.600;    0.000;35.66666
 838.68;  -65.867;  -82.200;    0.000;16.33333
 838.93;  -68.067;  -79.533;    0.000;11.46667
 839.18;  -63.600;  -82.600;    0.000;19.00000
 839.43;  -67.533;  -67.000;    0.000;-0.53333
 839.69;  -79.000;  -80.200;    0.000; 1.20000
 839.94;  -64.667;  -93.667;    0.000;29.00000
 840.19;  -71.933;  -92.267;    0.000;20.33334
 840.44;  -54.133; -100.933;    0.000;46.80000
 840.69;  -49.667;  -60.933;    0.000;11.26667
 840.94;  -56.533;  -78.467;    0.000;21.93333
 841.19;  -41.400;  -51.467;    0.000;10.06667
 841.44;  -49.800;  -72.667;    0.000;22.86666
 841.69;  -53.867;  -60.533;    0.000; 6.66667
 841.94;  -48.867;  -85.200;    0.000;36.33333
 842.19;  -74.267;  -64.267;    0.000;-10.00000
 842.44;  -74.467;  -94.800;    0.000;20.33334
 842.69;  -70.733;  -88.400;    0.000;17.66667
 842.94;  -65.000;  -80.400;    0.000;15.40000
 843.19;  -80.667;  -79.267;    0.000;-1.39999
 843.44;  -78.333;  -82.067;    0.000; 3.73333
 843.69;  -77.533;  -88.533;    0.000;11.00000
 843.94;  -17.267;  -36.333;    0.000;19.06667
 844.19;  -90.067;  -87.067;    0.000;-3.00000
 844.44;  -60.000;  -78.800;    0.000;18.80000
 844.69;  -82.467;  -79.867;    0.000;-2.60000
 844.95;  -61.800;  -94.067;    0.000;32.26667
 845.20;  -92.600;  -83.733;    0.000;-8.86667
 845.45;  -42.800;  -74.200;    0.000;31.40000
 845.70;  -63.667;  -73.400;    0.000; 9.73333
 845.95;  -51.800;  -87.600;    0.000;35.80000
 846.20;  -79.333;  -67.133;    0.000;-12.20000
 846.45;  -71.400;  -83.467;    0.000;12.06667
 846.70;  -65.067;  -72.400;    0.000; 7.33334
 846.95;  -60.933;  -84.333;    0.000;23.40000
 847.20;  -79.267;  -82.067;    0.000; 2.80000
 847.44;  -33.600;  -51.400;    0.000;17.80000
 847.69;  -83.067;  -81.067;    0.000;-2.00000
 847.94;  -55.533;  -67.533;    0.000;12.00000
 848.19;  -73.933;  -81.067;    0.000; 7.13333
 848.44;  -54.333;  -74.867;    0.000;20.53334
 848.69;  -73.600;  -81.267;    0.000; 7.66667
 848.94;  -52.933;  -76.267;    0.000;23.33334
 849.19;  -79.133;  -82.667;    0.000; 3.53333
 849.44;  -69.267;  -88.733;    0.000;19.46666
 849.69;  -64.067;  -50.067;    0.000;-14.00000
 849.94;  -72.867; -100.067;    0.000;27.20000
 850.19;  -65.000;  -66.067;    0.000; 1.06667
 850.44;  -74.000;  -72.000;    0.000;-2.00000
 850.69;  -87.733;  -77.733;    0.000;-10.00000
 850.94;  -70.467;  -89.600;    0.000;19.13333
 851.19;  -64.067;  -80.133;    0.000;16.06667
 851.44;  -67.467;  -87.667;    0.000;20.20000
 851.69;  -81.400;  -82.667;    0.000; 1.26666
 851.94;  -63.733;  -72.533;    0.000; 8.80000
 852.19;  -66.000;  -83.067;    0.000;17.06667
 852.44;  -60.267;  -98.333;    0.000;38.06667
 852.68;  -71.800;  -80.467;    0.000; 8.66666
 852.93;  -55.600;  -80.000;    0.000;24.40000
 853.18;  -68.200;  -89.400;    0.000;21.20000
 853.43;  -71.867;  -83.133;    0.000;11.26666
 853.68;  -80.667;  -77.933;    0.000;-2.73333
 853.93;  -55.800;  -78.667;    0.000;22.86666
 854.18;  -54.400;  -72.267;    0.000;17.86667
 854.43;  -68.200;  -84.733;    0.000;16.53333
 854.68;  -71.400;  -70.467;    0.000;-0.93333
 854.93;  -58.467;  -69.933;    0.000;11.46667
 855.18;  -63.067;  -76.600;    0.000;13.53333
 855.42;  -51.733;  -77.600;    0.000;25.86666
 855.67;  -70.867;  -67.600;    0.000;-3.26667
 855.92;  -57.133;  -87.067;    0.000;29.93333
 856.17;  -59.067;  -65.800;    0.000; 6.73334
 856.42;  -66.000;  -92.533;    0.000;26.53333
 856.67;  -80.800;  -73.600;    0.000;-7.20000
 856.92;  -67.067;  -76.133;    0.000; 9.06667
 857.17;  -95.000;  -81.733;    0.000;-13.26667
 857.41;  -75.800;  -77.800;    0.000; 2.00000
 857.66;  -77.800;  -66.333;    0.000;-11.46667
 857.91;  -73.933;  -58.000;    0.000;-15.93333
 858.16;  -64.000;  -78.867;    0.000;14.86667
 858.41;  -73.867;  -79.267;    0.000; 5.40000
 858.66;  -62.667;  -80.000;    0.000;17.33333
 858.91;  -51.933;  -61.133;    0.000; 9.20000
 859.15;  -62.467;  -79.533;    0.000;17.06667
 859.40;  -45.600;  -68.533;    0.000;22.93333
 859.65;  -68.733;  -91.000;    0.000;22.26667
 859.90;  -85.533;  -87.133;    0.000; 1.60000
 860.15;  -61.267;  -74.200;    0.000;12.93333
 860.40;  -49.933;  -64.000;    0.000;14.06667
 860.64;  -64.400;  -57.867;    0.000;-6.53334
 860.89;  -72.067;  -91.867;    0.000;19.80000
 861.14;  -71.400;  -73.667;    0.000; 2.26666
 861.39;  -58.467;  -68.933;    0.000;10.46667
 861.64;  -67.400;  -73.667;    0.000; 6.26666
 861.88;  -62.600;  -73.933;    0.000;11.33334
 862.13;  -84.000;  -77.467;    0.000;-6.53333
 862.38;  -67.867;  -78.800;    0.000;10.93333
 862.63;  -80.667;  -87.067;    0.000; 6.40000
 862.88;  -70.867;  -81.067;    0.000;10.20000
 863.12;  -63.600;  -62.067;    0.000;-1.53333
 863.37;  -49.867;  -85.267;    0.000;35.40001
 863.62;  -80.400;  -86.000;    0.000; 5.60000
 863.87;  -68.867;  -80.067;    0.000;11.20000
 864.12;  -60.533;  -79.600;    0.000;19.06667
 864.36;  -53.800;  -79.933;    0.000;26.13334
 864.61;  -64.400;  -70.133;    0.000; 5.73333
 864.86;  -73.867;  -92.467;    0.000;18.60000
 865.11;  -64.600;  -53.067;    0.000;-11.53333
 865.35;  -60.000;  -58.867;    0.000;-1.13334
 865.60;  -63.333;  -73.000;    0.000; 9.66667
 865.85;  -42.933;  -60.800;    0.000;17.86666
 866.10;  -74.933;  -80.467;    0.000; 5.53333
 866.34;  -53.333;  -78.133;    0.000;24.80000
 866.59;  -55.933;  -46.200;    0.000;-9.73333
 866.84;  -70.067;  -86.467;    0.000;16.40000
 867.09;  -60.067;  -71.000;    0.000;10.93333
 867.33;  -67.467;  -98.600;    0.000;31.13333
 867.58;  -61.067;  -60.400;    0.000;-0.66666
 867.83;  -74.200;  -82.533;    0.000; 8.33334
 868.08;  -58.400;  -60.733;    0.000; 2.33333
 868.32;  -61.133;  -82.067;    0.000;20.93333
 868.57;  -82.200;  -69.667;    0.000;-12.53333
 868.82;  -60.267;  -62.533;    0.000; 2.26667
 869.07;  -74.667;  -86.800;    0.000;12.13334
 869.31;  -50.467;  -74.067;    0.000;23.60000
 869.56;  -83.933;  -80.867;    0.000;-3.06667
 869.81;  -69.000;  -90.933;    0.000;21.93333
 870.05;  -80.400;  -86.067;    0.000; 5.66666
 870.30;  -59.200;  -63.600;    0.000; 4.40000
 870.55;  -54.333;  -62.600;    0.000; 8.26667
 870.80;  -63.200;  -58.000;    0.000;-5.20000
 871.04;  -55.800;  -54.933;    0.000;-0.86666
 871.29;  -63.133;  -87.000;    0.000;23.86666
 871.54;  -66.333;  -79.733;    0.000;13.39999
 871.78;  -57.067;  -82.267;    0.000;25.20000
 872.03;  -82.000;  -57.667;    0.000;-24.33333
 872.28;  -58.733;  -72.333;    0.000;13.60000
 872.52;  -73.200;  -81.533;    0.000; 8.33334
 872.77;  -65.933;  -95.400;    0.000;29.46667
 873.02;  -87.333;  -87.533;    0.000; 0.20000
 873.26;  -71.600;  -88.267;    0.000;16.66667
 873.51;  -60.200;  -64.400;    0.000; 4.20000
 873.76;  -51.000;  -66.533;    0.000;15.53333
 874.00;  -54.867;  -61.267;    0.000; 6.40000
 874.25;  -67.200;  -98.000;    0.000;30.80000
 874.50;  -63.333;  -72.733;    0.000; 9.40000
 874.74;  -82.267;  -71.533;    0.000;-10.73334
 874.99;  -55.067;  -62.333;    0.000; 7.26667
 875.24;  -37.533;  -39.667;    0.000; 2.13334
 875.48;  -58.267;  -65.200;    0.000; 6.93333
 875.73;  -43.400;  -71.733;    0.000;28.33333
 875.98;  -69.533;  -78.067;    0.000; 8.53333
 876.22;  -60.533;  -78.533;    0.000;18.00000
 876.47;  -56.667;  -48.267;    0.000;-8.40000
 876.71;  -62.400;  -64.200;    0.000; 1.80000
 876.96;  -15.200;  -29.200;    0.000;14.00000
 877.21;  -59.133;  -74.867;    0.000;15.73333
 877.45;  -79.867;  -79.200;    0.000;-0.66667
 877.70;  -49.600;  -56.933;    0.000; 7.33334
 877.95;  -53.400;  -38.600;    0.000;-14.80000
 878.19;  -49.533;  -50.600;    0.000; 1.06667
 878.44;  -72.000;  -66.267;    0.000;-5.73333
 878.68;  -18.133;  -39.333;    0.000;21.20000
 878.93;  -46.600;  -64.867;    0.000;18.26667
 879.18;  -58.867;  -76.933;    0.000;18.06667
 879.42;  -60.000;  -62.067;    0.000; 2.06667
 879.67;  -65.667;  -71.933;    0.000; 6.26667
 879.91;  -60.533;  -48.067;    0.000;-12.46667
 880.16;  -46.467;  -52.467;    0.000; 6.00000
 880.40;  -65.533;  -58.200;    0.000;-7.33333
 880.65;  -39.133;  -50.600;    0.000;11.46666
 880.90;  -43.933;  -48.333;    0.000; 4.40000
 881.14;  -40.467;  -53.200;    0.000;12.73333
 881.39;  -52.600;  -59.867;    0.000; 7.26667
 881.63;  -60.400;  -75.133;    0.000;14.73333
 881.88;  -51.200;  -81.467;    0.000;30.26667
 882.12;  -57.533;  -63.667;    0.000; 6.13334
 882.37;  -64.200;  -47.333;    0.000;-16.86666
 882.62;  -58.600;  -64.667;    0.000; 6.06667
 882.86;  -56.867;  -67.533;    0.000;10.66667
 883.11;  -43.200;  -61.400;    0.000;18.20000
 883.35;  -47.267;  -52.667;    0.000; 5.40000
 883.60;  -28.467;  -31.067;    0.000; 2.60000
 883.84;  -51.267;  -62.400;    0.000;11.13334
 884.09;  -40.200;  -52.000;    0.000;11.80000
 884.33;  -62.467;  -51.600;    0.000;-10.86667
 884.58;  -53.800;  -59.533;    0.000; 5.73333
 884.82;  -59.000;  -59.667;    0.000; 0.66667
 885.07;  -41.333;  -68.067;    0.000;26.73333
 885.31;  -49.867;  -39.533;    0.000;-10.33333
 885.56;  -30.600;  -58.067;    0.000;27.46667
 885.80;  -77.400;  -72.133;    0.000;-5.26667
 886.05;  -55.400;  -65.533;    0.000;10.13333
 886.29;  -49.133;  -44.400;    0.000;-4.73333
 886.54;  -60.533;  -63.333;    0.000; 2.80000
 886.78;  -41.800;  -55.533;    0.000;13.73333
 887.03;  -34.200;  -63.667;    0.000;29.46667
 887.27;  -16.533;  -25.200;    0.000; 8.66667
 887.52;  -49.333;  -46.933;    0.000;-2.40000
 887.76;  -52.667;  -55.133;    0.000; 2.46667
 888.01;  -31.000;  -59.267;    0.000;28.26667
 888.25;  -44.200;  -59.200;    0.000;15.00000
 888.50;  -22.867;  -40.667;    0.000;17.80000
 888.74;  -50.467;  -43.467;    0.000;-7.00000
 888.99;  -37.867;  -50.267;    0.000;12.40000
 889.23;  -45.067;  -47.667;    0.000; 2.60000
 889.48;  -44.000;  -54.600;    0.000;10.60000
 889.72;  -39.800;  -39.733;    0.000;-0.06667
 889.97;  -22.267;  -46.267;    0.000;24.00000
 890.21;  -25.933;  -31.267;    0.000; 5.33333
 890.46;  -31.133;  -38.800;    0.000; 7.66667
 890.70;  -22.267;  -54.933;    0.000;32.66667
 890.94;  -30.000;  -51.533;    0.000;21.53333
 891.19;  -35.067;  -44.067;    0.000; 9.00000
 891.43;   -9.000;  -44.200;    0.000;35.20000
 891.68;  -17.667;  -36.867;    0.000;19.20000
 891.92;  -23.667;  -59.800;    0.000;36.13333
 892.17;  -49.533;  -51.333;    0.000; 1.80000
 892.41;  -35.600;  -53.200;    0.000;17.60000
 892.66;  -41.800;  -42.400;    0.000; 0.60000
 892.90;   21.667;  -26.933;    0.000;48.60000
 893.14;  -31.867;  -28.000;    0.000;-3.86667
 893.39;  -16.467;  -29.600;    0.000;13.13333
 893.63;  -39.733;  -46.800;    0.000; 7.06667
 893.88;  -43.667;  -47.333;    0.000; 3.66666
 894.12;  -39.933;  -31.533;    0.000;-8.40000
 894.36;  -22.200;  -43.800;    0.000;21.60000
 894.61;  -20.400;  -41.000;    0.000;20.60000
 894.85;   -2.333;  -24.667;    0.000;22.33333
 895.10;  -17.333;  -24.267;    0.000; 6.93333
 895.34;  -10.667;  -39.333;    0.000;28.66667
 895.58;  -23.067;  -28.000;    0.000; 4.93333
 895.83;   -8.133;  -29.267;    0.000;21.13333
 896.07;   -7.933;  -37.333;    0.000;29.40000
 896.32;   -8.467;  -41.800;    0.000;33.33333
 896.56;   -5.733;  -28.467;    0.000;22.73333
 896.80;  -15.000;  -32.933;    0.000;17.93333
 897.05;  -23.333;  -27.733;    0.000; 4.40000
 897.29;    7.000;  -14.200;    0.000;21.20000
 897.53;  -16.600;  -10.067;    0.000;-6.53333
 897.78;  -10.467;  -15.333;    0.000; 4.86667
 898.02;    8.733;    7.400;    0.000; 1.33333
 898.26;   -5.600;   -7.933;    0.000; 2.33333
 898.51;  -11.000;    0.533;    0.000;-11.53333
 898.75;   -4.667;   -7.133;    0.000; 2.46667
 898.99;   -1.333;    9.600;    0.000;-10.93333
 899.24;    2.333;  -18.067;    0.000;20.40000
 899.48;    0.467;   11.267;    0.000;-10.80000
 899.73;    7.000;  -25.333;    0.000;32.33333
 899.97;   26.933;    6.467;    0.000;20.46667
 900.21;   35.867;   10.533;    0.000;25.33333
 900.46;   20.933;   25.933;    0.000;-5.00000
 900.70;   48.667;   19.600;    0.000;29.06667
 900.94;   15.067;  -12.400;    0.000;27.46667
 901.18;   26.800;   41.067;    0.000;-14.26667
 901.43;   48.400;   44.133;    0.000; 4.26667
 901.67;   44.067;   40.000;    0.000; 4.06667
 901.91;   41.133;   30.800;    0.000;10.33334
 902.16;   49.333;   32.733;    0.000;16.60000
 902.40;   72.667;   68.067;    0.000; 4.60000
 902.64;   76.333;   43.267;    0.000;33.06667
 902.89;   87.400;   63.400;    0.000;24.00000
 903.13;  107.133;   87.933;    0.000;19.20000
 903.37;  111.133;  118.667;    0.000;-7.53333
 903.61;  130.333;  126.733;    0.000; 3.60000
 903.86;  139.267;  117.467;    0.000;21.80000
 904.10;  169.800;  131.933;    0.000;37.86667
 904.34;  164.067;  167.667;    0.000;-3.60001
 904.59;  195.867;  192.933;    0.000; 2.93333
 904.83;  204.267;  198.667;    0.000; 5.59999
 905.07;  250.867;  244.067;    0.000; 6.80000
 905.31;  280.267;  300.133;    0.000;-19.86667
 905.56;  328.733;  270.800;    0.000;57.93335
 905.80;  379.467;  346.467;    0.000;33.00000

