point5
Integration time [ms]:  15.000
Averaging Nr. [scans]: 15
Smoothing Nr. [pixels]: 0
Data measured with spectrometer [name]: 1307078U2
Wave   ;Sample   ;Dark     ;Reference;Scope Corrected for Dark
[nm]   ;[counts] ;[counts] ;[counts] 

 351.07;    9.667;   23.733;    0.000;-14.06667
 351.37;   11.400;   -4.467;    0.000;15.86667
 351.66;   25.200;    3.333;    0.000;21.86667
 351.95;   33.133;  -13.467;    0.000;46.60000
 352.24;  -10.333;   -8.067;    0.000;-2.26667
 352.54;    7.000;  -24.200;    0.000;31.20000
 352.83;   -6.200;    0.267;    0.000;-6.46667
 353.12;    2.867;   -2.733;    0.000; 5.60000
 353.42;   -4.333;  -10.267;    0.000; 5.93333
 353.71;   15.333;   -6.533;    0.000;21.86667
 354.00;    3.200;    1.600;    0.000; 1.60000
 354.30;   -5.533;  -21.333;    0.000;15.80000
 354.59;   13.933;  -15.133;    0.000;29.06667
 354.88;   10.667;    2.333;    0.000; 8.33333
 355.17;  -11.667;   -5.867;    0.000;-5.80000
 355.47;  -11.400;  -19.600;    0.000; 8.20000
 355.76;   20.467;    0.867;    0.000;19.60000
 356.05;   -2.333;  -12.333;    0.000;10.00000
 356.35;   -6.533;   -0.533;    0.000;-6.00000
 356.64;   10.467;   13.200;    0.000;-2.73333
 356.93;   19.000;   -4.933;    0.000;23.93333
 357.22;   25.000;   -8.133;    0.000;33.13333
 357.52;   11.600;   -2.867;    0.000;14.46667
 357.81;    3.933;  -14.600;    0.000;18.53333
 358.10;   11.267;  -13.533;    0.000;24.80000
 358.39;   15.733;  -12.400;    0.000;28.13333
 358.69;   -0.867;   -6.000;    0.000; 5.13333
 358.98;    3.533;  -19.267;    0.000;22.80000
 359.27;   -2.867;    6.000;    0.000;-8.86667
 359.57;    1.733;   15.333;    0.000;-13.60000
 359.86;   -7.933;  -22.333;    0.000;14.40000
 360.15;   -0.733;   10.667;    0.000;-11.40000
 360.44;    6.133;  -15.000;    0.000;21.13333
 360.74;   19.867;   -6.000;    0.000;25.86667
 361.03;    2.400;    4.867;    0.000;-2.46667
 361.32;   12.533;   -6.333;    0.000;18.86667
 361.61;    1.933;   -5.067;    0.000; 7.00000
 361.91;    5.200;   -3.533;    0.000; 8.73333
 362.20;    4.400;  -19.200;    0.000;23.60000
 362.49;   10.533;  -10.067;    0.000;20.60000
 362.78;   -1.333;    3.733;    0.000;-5.06667
 363.08;    4.133;  -33.667;    0.000;37.80000
 363.37;   -3.133;   -8.200;    0.000; 5.06667
 363.66;   20.067;   14.267;    0.000; 5.80000
 363.95;    2.267;    1.400;    0.000; 0.86667
 364.24;   13.467;   -9.667;    0.000;23.13333
 364.54;    7.133;   -8.333;    0.000;15.46667
 364.83;    1.200;   -9.533;    0.000;10.73333
 365.12;  -17.533;  -10.600;    0.000;-6.93333
 365.41;   16.533;   -6.533;    0.000;23.06667
 365.71;   13.333;  -12.133;    0.000;25.46667
 366.00;    6.067;  -10.667;    0.000;16.73333
 366.29;   -7.133;    0.933;    0.000;-8.06667
 366.58;    1.467;   -8.133;    0.000; 9.60000
 366.87;   -1.667;  -14.333;    0.000;12.66667
 367.17;   11.000;   -6.467;    0.000;17.46667
 367.46;   13.467;  -11.133;    0.000;24.60000
 367.75;    7.733;  -16.000;    0.000;23.73333
 368.04;    4.000;  -20.533;    0.000;24.53333
 368.34;    5.333;  -21.467;    0.000;26.80000
 368.63;    0.867;    3.133;    0.000;-2.26667
 368.92;    6.067;    7.000;    0.000;-0.93333
 369.21;   20.333;   -1.933;    0.000;22.26667
 369.50;   20.267;  -17.667;    0.000;37.93333
 369.80;   -1.867;    5.467;    0.000;-7.33333
 370.09;   -8.200;   -1.067;    0.000;-7.13333
 370.38;    3.800;  -19.733;    0.000;23.53333
 370.67;    7.933;   -4.800;    0.000;12.73333
 370.96;   -2.600;   -1.533;    0.000;-1.06667
 371.26;   14.800;   -6.267;    0.000;21.06667
 371.55;    7.600;   -8.933;    0.000;16.53333
 371.84;    4.200;  -14.600;    0.000;18.80000
 372.13;  -10.467;  -14.067;    0.000; 3.60000
 372.42;   23.733;  -10.600;    0.000;34.33333
 372.71;   -3.600;    2.800;    0.000;-6.40000
 373.01;   22.133;  -12.133;    0.000;34.26667
 373.30;   -2.200;   -0.067;    0.000;-2.13333
 373.59;   16.133;  -20.200;    0.000;36.33333
 373.88;    1.400;  -15.133;    0.000;16.53333
 374.17;    4.200;   -1.800;    0.000; 6.00000
 374.46;   11.600;  -18.200;    0.000;29.80000
 374.76;    6.933;    7.667;    0.000;-0.73333
 375.05;    4.000;   29.000;    0.000;-25.00000
 375.34;    9.400;   -8.467;    0.000;17.86667
 375.63;    1.067;    0.467;    0.000; 0.60000
 375.92;   16.200;   -0.533;    0.000;16.73333
 376.21;   -1.733;   -4.600;    0.000; 2.86667
 376.51;   -7.333;  -11.000;    0.000; 3.66667
 376.80;   -0.267;  -11.800;    0.000;11.53333
 377.09;  -21.000;  -11.600;    0.000;-9.40000
 377.38;    5.400;    0.067;    0.000; 5.33333
 377.67;    6.467;  -11.067;    0.000;17.53333
 377.96;   17.867;  -10.933;    0.000;28.80000
 378.25;    6.000;    1.467;    0.000; 4.53333
 378.55;  -10.933;  -17.800;    0.000; 6.86667
 378.84;   -5.733;  -23.933;    0.000;18.20000
 379.13;   14.800;   -1.000;    0.000;15.80000
 379.42;   19.400;  -29.667;    0.000;49.06667
 379.71;    1.867;  -16.400;    0.000;18.26667
 380.00;   34.267;   -1.400;    0.000;35.66667
 380.29;  -12.400;    7.000;    0.000;-19.40000
 380.59;   -8.667;   -4.800;    0.000;-3.86667
 380.88;   -3.800;  -16.400;    0.000;12.60000
 381.17;  -10.333;  -15.867;    0.000; 5.53333
 381.46;    5.333;    2.800;    0.000; 2.53333
 381.75;    5.267;   -2.533;    0.000; 7.80000
 382.04;   17.400;   -7.067;    0.000;24.46667
 382.33;    0.600;  -27.667;    0.000;28.26667
 382.62;  -15.200;  -12.533;    0.000;-2.66667
 382.91;   12.933;   -2.667;    0.000;15.60000
 383.21;    5.067;   -2.067;    0.000; 7.13333
 383.50;   11.800;  -13.133;    0.000;24.93333
 383.79;   10.000;  -19.600;    0.000;29.60000
 384.08;    4.600;  -20.467;    0.000;25.06667
 384.37;    6.667;  -20.000;    0.000;26.66667
 384.66;  -17.933;  -16.867;    0.000;-1.06667
 384.95;    7.733;   -5.000;    0.000;12.73333
 385.24;    8.400;  -13.133;    0.000;21.53333
 385.53;    1.933;  -11.800;    0.000;13.73333
 385.83;    2.333;   -2.400;    0.000; 4.73333
 386.12;    8.600;  -12.467;    0.000;21.06667
 386.41;   -1.733;  -16.933;    0.000;15.20000
 386.70;    3.733;  -12.933;    0.000;16.66667
 386.99;    8.133;  -20.533;    0.000;28.66667
 387.28;    9.067;    1.800;    0.000; 7.26667
 387.57;   15.000;   -9.267;    0.000;24.26667
 387.86;    3.267;   -3.333;    0.000; 6.60000
 388.15;   24.800;  -25.200;    0.000;50.00000
 388.44;   13.667;   -7.200;    0.000;20.86667
 388.73;   13.800;  -13.400;    0.000;27.20000
 389.02;   -0.400;    3.467;    0.000;-3.86667
 389.31;  -17.000;  -10.667;    0.000;-6.33333
 389.61;   -1.867;  -10.667;    0.000; 8.80000
 389.90;    7.533;  -24.733;    0.000;32.26667
 390.19;  -20.600;   -9.733;    0.000;-10.86667
 390.48;   10.867;  -27.600;    0.000;38.46667
 390.77;    4.400;    6.467;    0.000;-2.06667
 391.06;   -9.000;   -7.800;    0.000;-1.20000
 391.35;   11.733;  -22.800;    0.000;34.53333
 391.64;   19.333;    1.133;    0.000;18.20000
 391.93;   -8.867;    0.000;    0.000;-8.86667
 392.22;    7.400;  -13.533;    0.000;20.93333
 392.51;   -4.000;  -10.933;    0.000; 6.93333
 392.80;   -4.467;   -6.733;    0.000; 2.26667
 393.09;   -6.667;  -27.333;    0.000;20.66667
 393.38;   -5.133;  -14.467;    0.000; 9.33333
 393.67;   -5.933;  -32.867;    0.000;26.93333
 393.96;   -7.800;  -11.133;    0.000; 3.33333
 394.25;    4.000;  -28.800;    0.000;32.80000
 394.54;   16.400;  -18.867;    0.000;35.26667
 394.83;    4.467;  -16.333;    0.000;20.80000
 395.13;    7.733;  -12.333;    0.000;20.06667
 395.42;    1.933;  -11.733;    0.000;13.66667
 395.71;   13.467;  -31.733;    0.000;45.20000
 396.00;   10.533;  -13.667;    0.000;24.20000
 396.29;   -3.933;   -4.733;    0.000; 0.80000
 396.58;  -25.933;   -9.467;    0.000;-16.46667
 396.87;    4.067;    1.200;    0.000; 2.86667
 397.16;   -0.800;  -10.133;    0.000; 9.33333
 397.45;    4.133;  -20.333;    0.000;24.46667
 397.74;  -11.067;  -15.200;    0.000; 4.13333
 398.03;   20.133;  -30.000;    0.000;50.13333
 398.32;  -13.133;  -18.733;    0.000; 5.60000
 398.61;    2.867;  -19.667;    0.000;22.53333
 398.90;    5.800;  -10.733;    0.000;16.53333
 399.19;   -2.133;  -27.000;    0.000;24.86667
 399.48;   10.000;  -15.533;    0.000;25.53333
 399.77;   27.667;  -12.733;    0.000;40.40000
 400.06;    8.333;  -10.667;    0.000;19.00000
 400.35;    1.400;   -8.200;    0.000; 9.60000
 400.64;    9.467;    6.733;    0.000; 2.73333
 400.93;   26.333;  -24.533;    0.000;50.86667
 401.22;   12.067;   -5.467;    0.000;17.53333
 401.51;   22.667;  -10.600;    0.000;33.26667
 401.80;    4.267;  -23.667;    0.000;27.93333
 402.09;  -11.800;  -12.067;    0.000; 0.26667
 402.38;   -0.467;  -16.667;    0.000;16.20000
 402.67;   23.600;    6.600;    0.000;17.00000
 402.96;    3.600;  -22.933;    0.000;26.53333
 403.25;   31.533;  -26.200;    0.000;57.73333
 403.54;  -16.133;  -16.467;    0.000; 0.33333
 403.83;    9.800;   -0.200;    0.000;10.00000
 404.12;   15.867;  -10.000;    0.000;25.86667
 404.41;   -3.200;  -15.067;    0.000;11.86667
 404.70;    3.467;    0.533;    0.000; 2.93333
 404.98;   -0.600;   -0.333;    0.000;-0.26667
 405.27;   -5.867;  -23.267;    0.000;17.40000
 405.56;   32.200;   -3.867;    0.000;36.06667
 405.85;   10.000;  -32.400;    0.000;42.40000
 406.14;   -3.467;  -28.400;    0.000;24.93333
 406.43;   20.933;  -25.933;    0.000;46.86666
 406.72;   -8.333;   -6.400;    0.000;-1.93333
 407.01;  -12.800;  -17.733;    0.000; 4.93333
 407.30;   16.267;  -23.733;    0.000;40.00000
 407.59;   14.867;  -14.200;    0.000;29.06667
 407.88;    2.800;  -23.067;    0.000;25.86667
 408.17;  -10.400;   -4.600;    0.000;-5.80000
 408.46;   16.800;   -9.933;    0.000;26.73333
 408.75;   38.533;   -1.533;    0.000;40.06667
 409.04;   10.533;  -16.533;    0.000;27.06667
 409.33;    2.267;  -28.200;    0.000;30.46667
 409.62;   11.200;  -19.267;    0.000;30.46667
 409.91;   -3.800;  -12.400;    0.000; 8.60000
 410.20;    1.267;  -31.000;    0.000;32.26667
 410.48;   29.733;   -4.467;    0.000;34.20000
 410.77;   -0.533;  -27.000;    0.000;26.46667
 411.06;   21.467;  -23.000;    0.000;44.46667
 411.35;   24.600;    5.667;    0.000;18.93333
 411.64;   -5.133;   -7.933;    0.000; 2.80000
 411.93;    7.000;  -26.000;    0.000;33.00000
 412.22;   -5.200;  -21.533;    0.000;16.33333
 412.51;   16.533;   -4.467;    0.000;21.00000
 412.80;   -5.333;    2.467;    0.000;-7.80000
 413.09;   25.533;  -26.667;    0.000;52.20000
 413.38;   20.467;    3.067;    0.000;17.40000
 413.67;    3.333;  -30.467;    0.000;33.80000
 413.96;   20.333;  -31.400;    0.000;51.73333
 414.24;   16.400;   -9.733;    0.000;26.13333
 414.53;   22.867;    5.933;    0.000;16.93333
 414.82;   28.600;    2.000;    0.000;26.60000
 415.11;   10.467;   11.667;    0.000;-1.20000
 415.40;   15.867;  -18.067;    0.000;33.93333
 415.69;    6.867;   -9.733;    0.000;16.60000
 415.98;   20.000;   -1.600;    0.000;21.60000
 416.27;  -14.267;  -16.267;    0.000; 2.00000
 416.56;    5.667;  -38.667;    0.000;44.33333
 416.84;   15.133;   -7.600;    0.000;22.73333
 417.13;   -3.133;  -12.867;    0.000; 9.73333
 417.42;    0.267;   -7.067;    0.000; 7.33333
 417.71;   12.733;  -20.667;    0.000;33.40000
 418.00;    0.267;  -17.733;    0.000;18.00000
 418.29;    4.200;  -14.600;    0.000;18.80000
 418.58;   12.533;  -36.267;    0.000;48.80000
 418.87;   12.867;  -16.000;    0.000;28.86667
 419.15;    1.467;  -19.800;    0.000;21.26667
 419.44;   13.667;  -11.533;    0.000;25.20000
 419.73;    6.667;  -24.200;    0.000;30.86667
 420.02;   14.133;  -34.533;    0.000;48.66667
 420.31;   13.667;   -7.800;    0.000;21.46667
 420.60;   19.933;   -0.667;    0.000;20.60000
 420.89;    2.533;  -25.200;    0.000;27.73333
 421.18;   20.133;  -17.533;    0.000;37.66667
 421.46;   10.400;  -29.267;    0.000;39.66667
 421.75;    5.267;  -25.333;    0.000;30.60000
 422.04;   13.533;  -29.333;    0.000;42.86667
 422.33;   18.867;   -3.800;    0.000;22.66667
 422.62;   25.000;  -12.867;    0.000;37.86667
 422.91;   17.733;  -28.933;    0.000;46.66667
 423.19;   18.267;  -30.533;    0.000;48.80000
 423.48;   17.667;   -8.200;    0.000;25.86667
 423.77;   14.400;  -16.533;    0.000;30.93333
 424.06;   12.400;  -32.667;    0.000;45.06667
 424.35;   20.800;  -29.533;    0.000;50.33333
 424.64;   36.067;  -11.667;    0.000;47.73333
 424.93;  -17.067;  -10.267;    0.000;-6.80000
 425.21;   -2.467;  -34.267;    0.000;31.80000
 425.50;    5.867;  -15.733;    0.000;21.60000
 425.79;   29.267;  -21.533;    0.000;50.80000
 426.08;   11.733;  -24.467;    0.000;36.20000
 426.37;   30.667;   -5.533;    0.000;36.20000
 426.65;    3.000;   -9.733;    0.000;12.73333
 426.94;   12.200;  -21.000;    0.000;33.20000
 427.23;   29.933;  -24.133;    0.000;54.06667
 427.52;   15.800;  -27.333;    0.000;43.13333
 427.81;    4.267;  -22.067;    0.000;26.33333
 428.10;   27.400;   -2.667;    0.000;30.06667
 428.38;   -3.333;  -44.067;    0.000;40.73333
 428.67;   31.933;  -13.733;    0.000;45.66667
 428.96;    5.800;  -38.867;    0.000;44.66667
 429.25;   25.667;   -4.400;    0.000;30.06667
 429.54;   30.400;  -29.933;    0.000;60.33333
 429.82;   30.533;   -8.533;    0.000;39.06667
 430.11;   -4.467;    5.867;    0.000;-10.33333
 430.40;    5.467;   -2.400;    0.000; 7.86667
 430.69;   16.400;  -11.200;    0.000;27.60000
 430.98;   25.667;  -23.667;    0.000;49.33333
 431.26;   15.533;  -13.867;    0.000;29.40000
 431.55;    9.533;   -3.400;    0.000;12.93333
 431.84;    3.333;  -21.000;    0.000;24.33333
 432.13;   15.267;  -11.267;    0.000;26.53333
 432.41;   18.133;  -24.200;    0.000;42.33333
 432.70;   -7.867;  -20.200;    0.000;12.33333
 432.99;   17.000;  -17.533;    0.000;34.53333
 433.28;   19.800;  -16.933;    0.000;36.73333
 433.57;   14.933;  -16.867;    0.000;31.80000
 433.85;   10.133;  -10.267;    0.000;20.40000
 434.14;   -3.200;   -4.267;    0.000; 1.06667
 434.43;   29.333;  -14.400;    0.000;43.73333
 434.72;    4.667;  -18.600;    0.000;23.26667
 435.00;   17.133;   -6.200;    0.000;23.33333
 435.29;   14.600;  -15.933;    0.000;30.53333
 435.58;   33.667;   -0.067;    0.000;33.73333
 435.87;   21.067;   -7.533;    0.000;28.60000
 436.15;   18.467;  -29.000;    0.000;47.46667
 436.44;   -7.667;  -13.200;    0.000; 5.53333
 436.73;    8.933;  -17.133;    0.000;26.06667
 437.02;   19.533;  -12.267;    0.000;31.80000
 437.30;   42.933;  -12.200;    0.000;55.13333
 437.59;    3.333;  -14.933;    0.000;18.26667
 437.88;   22.867;  -27.667;    0.000;50.53333
 438.17;   23.733;  -28.000;    0.000;51.73333
 438.45;    7.600;  -13.267;    0.000;20.86667
 438.74;    5.600;  -10.533;    0.000;16.13333
 439.03;   17.867;  -16.933;    0.000;34.80000
 439.32;   12.600;   -0.133;    0.000;12.73333
 439.60;    6.333;  -37.000;    0.000;43.33333
 439.89;   18.467;  -11.200;    0.000;29.66667
 440.18;    3.133;   -8.200;    0.000;11.33333
 440.46;    5.600;  -26.800;    0.000;32.40000
 440.75;   28.267;  -19.133;    0.000;47.40000
 441.04;    8.733;  -17.400;    0.000;26.13333
 441.33;   22.333;  -25.000;    0.000;47.33333
 441.61;  -12.267;  -16.467;    0.000; 4.20000
 441.90;   18.733;  -10.267;    0.000;29.00000
 442.19;   -5.600;  -40.133;    0.000;34.53334
 442.47;   13.467;  -10.667;    0.000;24.13333
 442.76;    4.333;  -27.267;    0.000;31.60000
 443.05;   25.467;  -13.467;    0.000;38.93333
 443.34;    5.400;  -29.267;    0.000;34.66667
 443.62;   27.133;  -16.333;    0.000;43.46667
 443.91;   -6.067;  -30.600;    0.000;24.53333
 444.20;   34.800;   -2.067;    0.000;36.86667
 444.48;   11.933;  -20.600;    0.000;32.53333
 444.77;   26.933;  -12.200;    0.000;39.13333
 445.06;   -7.600;  -28.733;    0.000;21.13333
 445.34;   14.800;  -19.200;    0.000;34.00000
 445.63;   27.467;  -32.333;    0.000;59.80000
 445.92;   56.733;    6.733;    0.000;50.00000
 446.21;   24.533;   -4.533;    0.000;29.06667
 446.49;   19.200;  -22.600;    0.000;41.80000
 446.78;   26.800;   -2.867;    0.000;29.66667
 447.07;    6.867;  -26.067;    0.000;32.93333
 447.35;   15.400;  -17.200;    0.000;32.60000
 447.64;   11.267;  -19.267;    0.000;30.53333
 447.93;   17.267;  -10.133;    0.000;27.40000
 448.21;    4.267;  -11.400;    0.000;15.66667
 448.50;    9.733;    1.933;    0.000; 7.80000
 448.79;   12.267;   -7.267;    0.000;19.53333
 449.07;   19.933;  -19.667;    0.000;39.60000
 449.36;    3.067;  -32.133;    0.000;35.20000
 449.65;   26.267;  -27.000;    0.000;53.26667
 449.93;   17.200;  -13.200;    0.000;30.40000
 450.22;    8.267;  -10.067;    0.000;18.33333
 450.51;    0.067;  -36.933;    0.000;37.00000
 450.79;   18.733;  -24.267;    0.000;43.00000
 451.08;   19.000;  -18.000;    0.000;37.00000
 451.36;    8.067;  -16.533;    0.000;24.60000
 451.65;   23.933;  -11.267;    0.000;35.20000
 451.94;    2.467;  -22.400;    0.000;24.86667
 452.22;   -3.400;  -16.533;    0.000;13.13333
 452.51;    5.533;   -6.400;    0.000;11.93333
 452.80;    1.600;  -17.333;    0.000;18.93333
 453.08;    4.667;  -30.000;    0.000;34.66667
 453.37;   43.533;   -1.267;    0.000;44.80000
 453.66;   24.933;  -25.933;    0.000;50.86666
 453.94;   13.667;  -22.667;    0.000;36.33333
 454.23;  -10.867;  -12.867;    0.000; 2.00000
 454.51;   19.133;    6.200;    0.000;12.93333
 454.80;   10.133;   -8.933;    0.000;19.06667
 455.09;   15.400;  -27.800;    0.000;43.20000
 455.37;   28.667;    3.867;    0.000;24.80000
 455.66;   11.067;  -26.733;    0.000;37.80000
 455.95;   14.600;  -10.000;    0.000;24.60000
 456.23;   41.267;   -9.800;    0.000;51.06667
 456.52;    6.600;  -28.867;    0.000;35.46667
 456.80;   10.467;  -19.933;    0.000;30.40000
 457.09;   23.067;  -14.933;    0.000;38.00000
 457.38;   48.333;  -15.400;    0.000;63.73333
 457.66;    3.933;  -12.000;    0.000;15.93333
 457.95;   21.733;  -26.867;    0.000;48.60000
 458.23;    6.200;  -16.133;    0.000;22.33333
 458.52;   33.067;  -23.467;    0.000;56.53333
 458.81;   26.200;  -14.733;    0.000;40.93333
 459.09;   22.067;   -9.200;    0.000;31.26667
 459.38;   18.400;  -16.133;    0.000;34.53333
 459.66;   18.533;  -27.267;    0.000;45.80000
 459.95;    5.533;  -29.133;    0.000;34.66667
 460.23;   29.133;   -0.267;    0.000;29.40000
 460.52;    6.333;  -27.733;    0.000;34.06667
 460.81;   24.467;  -15.067;    0.000;39.53333
 461.09;    4.800;  -25.600;    0.000;30.40000
 461.38;   25.733;  -19.333;    0.000;45.06667
 461.66;  -11.600;  -25.000;    0.000;13.40000
 461.95;   18.533;  -13.400;    0.000;31.93333
 462.23;    9.667;  -27.133;    0.000;36.80000
 462.52;   11.267;  -35.933;    0.000;47.20000
 462.81;   -0.133;  -28.667;    0.000;28.53333
 463.09;   22.400;  -41.667;    0.000;64.06667
 463.38;   10.133;   -7.533;    0.000;17.66667
 463.66;   -7.067;  -18.933;    0.000;11.86667
 463.95;   14.733;  -17.133;    0.000;31.86667
 464.23;    3.733;  -19.400;    0.000;23.13333
 464.52;   18.467;   -7.133;    0.000;25.60000
 464.80;    4.867;  -33.333;    0.000;38.20000
 465.09;   17.600;  -11.733;    0.000;29.33333
 465.38;   19.733;  -27.067;    0.000;46.80000
 465.66;   10.333;  -25.733;    0.000;36.06667
 465.95;   18.333;  -32.133;    0.000;50.46667
 466.23;   -1.400;   -8.467;    0.000; 7.06667
 466.52;   10.600;  -31.200;    0.000;41.80000
 466.80;   39.467;   -1.533;    0.000;41.00000
 467.09;   31.467;  -19.267;    0.000;50.73333
 467.37;   24.533;  -20.667;    0.000;45.20000
 467.66;   29.267;  -14.933;    0.000;44.20000
 467.94;  -13.867;  -17.933;    0.000; 4.06667
 468.23;  -10.267;   -7.000;    0.000;-3.26667
 468.51;   25.067;    6.867;    0.000;18.20000
 468.80;   23.267;  -37.867;    0.000;61.13333
 469.08;   26.067;   -5.400;    0.000;31.46667
 469.37;   10.600;  -31.733;    0.000;42.33333
 469.66;   22.933;  -10.933;    0.000;33.86667
 469.94;   13.333;  -26.933;    0.000;40.26667
 470.23;    7.200;  -12.267;    0.000;19.46667
 470.51;   18.800;  -24.800;    0.000;43.60000
 470.80;   34.533;   -1.000;    0.000;35.53333
 471.08;   16.800;  -32.600;    0.000;49.40000
 471.37;   24.333;  -23.133;    0.000;47.46667
 471.65;   34.333;  -20.067;    0.000;54.40000
 471.94;   12.467;  -35.333;    0.000;47.80000
 472.22;   11.133;  -27.333;    0.000;38.46667
 472.51;   22.800;  -18.733;    0.000;41.53333
 472.79;   40.667;  -22.667;    0.000;63.33333
 473.08;   28.267;  -10.600;    0.000;38.86667
 473.36;   46.733;  -13.333;    0.000;60.06667
 473.64;   41.600;  -12.667;    0.000;54.26667
 473.93;   58.333;  -45.933;    0.000;104.26667
 474.21;   19.267;  -34.267;    0.000;53.53333
 474.50;   42.267;  -14.200;    0.000;56.46667
 474.78;   62.667;    2.867;    0.000;59.80000
 475.07;   68.867;  -25.133;    0.000;94.00000
 475.35;   70.800;  -12.400;    0.000;83.20000
 475.64;   61.000;  -35.800;    0.000;96.80000
 475.92;   62.933;  -18.267;    0.000;81.20000
 476.21;   84.333;  -48.467;    0.000;132.80000
 476.49;  101.200;  -20.267;    0.000;121.46666
 476.78;  114.000;  -10.400;    0.000;124.40000
 477.06;  101.933;  -14.067;    0.000;116.00000
 477.35;  125.867;  -21.667;    0.000;147.53333
 477.63;  113.867;  -24.067;    0.000;137.93334
 477.91;  124.067;  -36.000;    0.000;160.06667
 478.20;  150.667;  -21.667;    0.000;172.33334
 478.48;  182.800;    1.667;    0.000;181.13334
 478.77;  179.733;  -30.667;    0.000;210.40000
 479.05;  173.933;  -41.600;    0.000;215.53333
 479.34;  190.933;  -23.267;    0.000;214.20000
 479.62;  211.400;  -38.733;    0.000;250.13333
 479.91;  256.067;  -13.333;    0.000;269.40001
 480.19;  252.600;   -9.467;    0.000;262.06667
 480.47;  247.133;  -29.733;    0.000;276.86666
 480.76;  302.533;  -50.333;    0.000;352.86666
 481.04;  294.000;  -16.933;    0.000;310.93333
 481.33;  356.400;   -1.133;    0.000;357.53333
 481.61;  341.533;  -12.067;    0.000;353.59999
 481.90;  410.200;  -21.333;    0.000;431.53335
 482.18;  429.733;  -26.600;    0.000;456.33334
 482.46;  474.733;  -22.867;    0.000;497.60000
 482.75;  478.800;  -25.400;    0.000;504.19999
 483.03;  520.667;  -30.267;    0.000;550.93335
 483.32;  538.867;  -45.200;    0.000;584.06664
 483.60;  608.667;  -27.000;    0.000;635.66669
 483.88;  633.133;  -24.200;    0.000;657.33336
 484.17;  696.667;  -13.533;    0.000;710.20002
 484.45;  694.733;  -28.267;    0.000;723.00000
 484.74;  769.867;  -40.400;    0.000;810.26664
 485.02;  811.467;   -2.800;    0.000;814.26667
 485.30;  862.733;  -25.533;    0.000;888.26667
 485.59;  881.800;  -57.333;    0.000;939.13332
 485.87;  969.667;  -13.667;    0.000;983.33335
 486.16; 1014.200;  -24.000;    0.000;1038.20001
 486.44; 1074.733;  -33.533;    0.000;1108.26661
 486.72; 1117.267;  -23.267;    0.000;1140.53339
 487.01; 1166.867;  -40.867;    0.000;1207.73336
 487.29; 1250.800;  -10.400;    0.000;1261.20005
 487.58; 1312.067;  -12.467;    0.000;1324.53332
 487.86; 1356.933;  -26.000;    0.000;1382.93335
 488.14; 1429.667;  -25.067;    0.000;1454.73329
 488.43; 1531.400;  -20.133;    0.000;1551.53336
 488.71; 1613.467;  -11.467;    0.000;1624.93334
 488.99; 1647.467;   -9.400;    0.000;1656.86667
 489.28; 1717.200;  -34.467;    0.000;1751.66662
 489.56; 1787.267;  -15.267;    0.000;1802.53339
 489.85; 1882.133;  -31.600;    0.000;1913.73330
 490.13; 1968.400;  -28.600;    0.000;1997.00002
 490.41; 2011.000;  -14.733;    0.000;2025.73333
 490.70; 2161.200;  -21.400;    0.000;2182.59995
 490.98; 2181.267;  -39.400;    0.000;2220.66660
 491.26; 2317.267;  -27.133;    0.000;2344.39993
 491.55; 2367.733;  -28.067;    0.000;2395.80007
 491.83; 2510.267;  -30.133;    0.000;2540.39993
 492.11; 2542.600;  -30.467;    0.000;2573.06676
 492.40; 2659.933;  -14.600;    0.000;2674.53335
 492.68; 2758.800;  -22.333;    0.000;2781.13338
 492.96; 2829.000;  -32.133;    0.000;2861.13334
 493.25; 2932.133;  -23.267;    0.000;2955.39997
 493.53; 3052.133;  -17.667;    0.000;3069.79997
 493.81; 3158.667;  -42.667;    0.000;3201.33342
 494.10; 3254.133;  -42.467;    0.000;3296.59997
 494.38; 3367.800;  -37.733;    0.000;3405.53338
 494.66; 3435.667;  -12.867;    0.000;3448.53341
 494.95; 3623.333;  -26.000;    0.000;3649.33325
 495.23; 3710.800;   -7.933;    0.000;3718.73338
 495.51; 3778.600;  -10.867;    0.000;3789.46676
 495.80; 3921.867;  -34.067;    0.000;3955.93336
 496.08; 4002.800;    3.400;    0.000;3999.40005
 496.36; 4144.733;   -5.867;    0.000;4150.60007
 496.65; 4269.467;  -15.067;    0.000;4284.53346
 496.93; 4382.200;   -8.467;    0.000;4390.66686
 497.21; 4489.667;  -46.667;    0.000;4536.33317
 497.50; 4539.533;   -9.600;    0.000;4549.13320
 497.78; 4758.800;  -32.000;    0.000;4790.79980
 498.06; 4810.933;  -32.733;    0.000;4843.66644
 498.34; 4954.933;  -25.067;    0.000;4979.99977
 498.63; 5036.933;  -34.667;    0.000;5071.59977
 498.91; 5224.400;  -20.067;    0.000;5244.46657
 499.19; 5339.933;  -33.800;    0.000;5373.73310
 499.48; 5522.600;  -31.467;    0.000;5554.06676
 499.76; 5630.067;   -4.533;    0.000;5634.60023
 500.04; 5673.933;  -35.867;    0.000;5709.79977
 500.32; 5848.200;  -14.000;    0.000;5862.20020
 500.61; 5995.533;  -29.133;    0.000;6024.66654
 500.89; 6064.000;  -24.733;    0.000;6088.73333
 501.17; 6187.200;  -13.533;    0.000;6200.73353
 501.46; 6338.667;  -10.867;    0.000;6349.53317
 501.74; 6411.733;  -28.533;    0.000;6440.26673
 502.02; 6560.733;    0.867;    0.000;6559.86673
 502.30; 6698.533;  -20.800;    0.000;6719.33320
 502.59; 6820.200;  -19.533;    0.000;6839.73353
 502.87; 6950.933;  -38.067;    0.000;6988.99977
 503.15; 7066.000;  -39.733;    0.000;7105.73333
 503.43; 7199.067;  -29.867;    0.000;7228.93356
 503.72; 7346.800;  -33.867;    0.000;7380.66647
 504.00; 7547.667;  -34.067;    0.000;7581.73317
 504.28; 7552.933;  -26.733;    0.000;7579.66644
 504.56; 7765.533;  -31.600;    0.000;7797.13320
 504.85; 7864.600;  -20.533;    0.000;7885.13343
 505.13; 7965.733;  -27.333;    0.000;7993.06673
 505.41; 8125.600;  -26.333;    0.000;8151.93343
 505.69; 8265.533;  -13.467;    0.000;8278.99987
 505.98; 8357.066;  -13.267;    0.000;8370.33307
 506.26; 8455.733;  -33.133;    0.000;8488.86673
 506.54; 8565.800;  -28.000;    0.000;8593.79980
 506.82; 8766.400;  -24.600;    0.000;8791.00039
 507.11; 8887.200;   -3.800;    0.000;8891.00020
 507.39; 8887.400;  -29.533;    0.000;8916.93372
 507.67; 9091.733;  -25.733;    0.000;9117.46673
 507.95; 9215.200;  -31.000;    0.000;9246.20020
 508.23; 9355.600;  -38.400;    0.000;9393.99961
 508.52; 9522.533;  -20.067;    0.000;9542.59987
 508.80; 9622.400;  -18.467;    0.000;9640.86706
 509.08; 9764.600;  -27.067;    0.000;9791.66628
 509.36; 9905.267;   -8.667;    0.000;9913.93327
 509.65; 9986.733;  -20.333;    0.000;10007.06673
 509.93;10073.667;  -28.067;    0.000;10101.73366
 510.21;10115.934;  -12.467;    0.000;10128.40026
 510.49;10382.467;  -18.067;    0.000;10400.53346
 510.77;10435.267;  -32.933;    0.000;10468.19994
 511.06;10534.467;  -41.400;    0.000;10575.86680
 511.34;10673.333;   -9.267;    0.000;10682.59967
 511.62;10838.134;   -9.533;    0.000;10847.66712
 511.90;10955.600;  -30.133;    0.000;10985.73294
 512.18;10973.934;   -8.333;    0.000;10982.26693
 512.47;11212.400;  -28.133;    0.000;11240.53372
 512.75;11201.533;  -11.067;    0.000;11212.59987
 513.03;11360.533;  -10.267;    0.000;11370.79987
 513.31;11496.600;  -43.867;    0.000;11540.46627
 513.59;11594.667;  -23.000;    0.000;11617.66699
 513.87;11776.200;  -11.000;    0.000;11787.20020
 514.16;11879.200;  -27.333;    0.000;11906.53353
 514.44;11920.533;  -23.400;    0.000;11943.93320
 514.72;12050.533;  -40.333;    0.000;12090.86654
 515.00;12224.866;   -5.467;    0.000;12230.33288
 515.28;12326.600;  -30.933;    0.000;12357.53294
 515.56;12359.200;  -17.133;    0.000;12376.33353
 515.85;12481.533;  -21.200;    0.000;12502.73320
 516.13;12541.267;  -16.200;    0.000;12557.46660
 516.41;12814.000;  -50.467;    0.000;12864.46667
 516.69;12774.333;  -20.533;    0.000;12794.86634
 516.97;12940.134;   -2.733;    0.000;12942.86712
 517.25;13038.600;  -22.267;    0.000;13060.86628
 517.54;13080.333;  -30.000;    0.000;13110.33301
 517.82;13252.667;  -31.000;    0.000;13283.66699
 518.10;13412.467;  -10.600;    0.000;13423.06680
 518.38;13496.134;  -16.400;    0.000;13512.53379
 518.66;13588.267;   -7.933;    0.000;13596.19993
 518.94;13722.400;  -20.133;    0.000;13742.53372
 519.22;13825.800;  -13.000;    0.000;13838.79980
 519.51;13900.667;   10.000;    0.000;13890.66699
 519.79;13953.934;  -17.533;    0.000;13971.46693
 520.07;14042.800;  -16.067;    0.000;14058.86647
 520.35;14245.667;  -29.467;    0.000;14275.13366
 520.63;14327.667;  -20.000;    0.000;14347.66699
 520.91;14431.134;  -27.867;    0.000;14459.00046
 521.19;14535.333;  -34.400;    0.000;14569.73301
 521.47;14549.000;  -16.867;    0.000;14565.86667
 521.75;14784.600;  -26.133;    0.000;14810.73294
 522.04;14639.733;  -21.333;    0.000;14661.06673
 522.32;14764.467;  -36.867;    0.000;14801.33346
 522.60;14884.267;  -30.933;    0.000;14915.19993
 522.88;15022.733;  -24.267;    0.000;15047.00006
 523.16;15162.467;  -42.667;    0.000;15205.13346
 523.44;15231.467;  -20.867;    0.000;15252.33346
 523.72;15217.866;  -24.400;    0.000;15242.26621
 524.00;15307.000;  -13.733;    0.000;15320.73333
 524.28;15426.800;  -11.667;    0.000;15438.46647
 524.57;15508.533;  -14.000;    0.000;15522.53320
 524.85;15640.267;  -31.600;    0.000;15671.86660
 525.13;15659.600;   -3.933;    0.000;15663.53294
 525.41;15859.667;  -35.533;    0.000;15895.20033
 525.69;16051.667;  -23.133;    0.000;16074.80033
 525.97;15997.134;  -10.467;    0.000;16007.60046
 526.25;15896.400;  -24.800;    0.000;15921.20039
 526.53;16180.600;  -41.467;    0.000;16222.06628
 526.81;16144.733;  -43.667;    0.000;16188.40007
 527.09;16221.134;    1.000;    0.000;16220.13379
 527.37;16287.333;  -13.333;    0.000;16300.66634
 527.65;16378.134;  -28.200;    0.000;16406.33379
 527.93;16511.533;  -33.067;    0.000;16544.59987
 528.22;16585.867;  -25.733;    0.000;16611.60052
 528.50;16633.400;  -23.067;    0.000;16656.46706
 528.78;16601.666;  -35.733;    0.000;16637.39935
 529.06;16809.334;  -14.800;    0.000;16824.13398
 529.34;16900.400;  -35.133;    0.000;16935.53373
 529.62;16814.066;  -19.933;    0.000;16833.99974
 529.90;17006.467;  -17.200;    0.000;17023.66680
 530.18;16953.934;    8.533;    0.000;16945.40026
 530.46;17121.600;  -13.333;    0.000;17134.93294
 530.74;17186.732;   -3.333;    0.000;17190.06576
 531.02;17298.467;  -20.133;    0.000;17318.60013
 531.30;17370.867;  -11.467;    0.000;17382.33385
 531.58;17366.732;  -21.933;    0.000;17388.66575
 531.86;17606.533;   -6.467;    0.000;17612.99987
 532.14;17583.801;  -28.667;    0.000;17612.46745
 532.42;17668.400;  -19.800;    0.000;17688.20039
 532.70;17574.400;  -16.733;    0.000;17591.13372
 532.98;17667.801;   -9.867;    0.000;17677.66745
 533.26;17885.000;  -23.533;    0.000;17908.53333
 533.54;17821.867;   -9.067;    0.000;17830.93385
 533.82;17913.133;  -39.467;    0.000;17952.59948
 534.10;17835.666;  -23.533;    0.000;17859.19935
 534.38;17961.066;  -44.267;    0.000;18005.33307
 534.66;18023.199;  -21.267;    0.000;18044.46589
 534.94;18341.066;  -11.467;    0.000;18352.53307
 535.22;18134.199;  -18.267;    0.000;18152.46589
 535.50;18301.666;  -22.600;    0.000;18324.26602
 535.78;18169.400;  -21.933;    0.000;18191.33372
 536.06;18312.600;  -16.533;    0.000;18329.13294
 536.34;18360.666;  -14.600;    0.000;18375.26602
 536.62;18422.199;  -26.733;    0.000;18448.93255
 536.90;18529.268;  -11.867;    0.000;18541.13424
 537.18;18645.600;  -16.667;    0.000;18662.26628
 537.46;18670.400;  -27.867;    0.000;18698.26706
 537.74;18646.533;  -36.200;    0.000;18682.73320
 538.02;18739.334;  -19.800;    0.000;18759.13398
 538.30;18781.066;  -10.533;    0.000;18791.59974
 538.58;18746.133;  -33.733;    0.000;18779.86615
 538.86;18910.666;   -2.267;    0.000;18912.93268
 539.14;18807.666;  -26.667;    0.000;18834.33268
 539.42;19033.666;   -6.000;    0.000;19039.66602
 539.70;19028.334;  -13.933;    0.000;19042.26732
 539.98;19045.600;  -11.067;    0.000;19056.66628
 540.26;19025.133;  -38.400;    0.000;19063.53281
 540.54;19147.467;  -39.333;    0.000;19186.80013
 540.82;19214.000;  -21.133;    0.000;19235.13333
 541.10;19357.268;  -28.733;    0.000;19386.00091
 541.38;19286.801;   -5.867;    0.000;19292.66745
 541.66;19382.334;  -23.200;    0.000;19405.53399
 541.94;19274.934;  -26.200;    0.000;19301.13359
 542.22;19406.533;  -32.267;    0.000;19438.79987
 542.50;19381.467;  -34.133;    0.000;19415.60013
 542.78;19452.000;  -28.000;    0.000;19480.00000
 543.06;19533.801;  -27.867;    0.000;19561.66745
 543.34;19574.268;  -34.333;    0.000;19608.60091
 543.62;19547.867;  -18.867;    0.000;19566.73385
 543.90;19649.934;  -16.733;    0.000;19666.66693
 544.17;19634.867;  -32.067;    0.000;19666.93385
 544.45;19695.066;  -34.933;    0.000;19729.99974
 544.73;19643.400;    3.533;    0.000;19639.86706
 545.01;19832.801;  -33.000;    0.000;19865.80078
 545.29;19805.732;  -26.667;    0.000;19832.39909
 545.57;19745.801;  -20.000;    0.000;19765.80078
 545.85;19888.666;  -18.467;    0.000;19907.13268
 546.13;19975.533;  -32.667;    0.000;20008.19987
 546.41;19928.066;  -30.400;    0.000;19958.46641
 546.69;20048.066;  -21.400;    0.000;20069.46641
 546.97;20005.533;  -38.467;    0.000;20043.99987
 547.25;20085.066;  -31.667;    0.000;20116.73307
 547.52;19958.732;  -20.933;    0.000;19979.66575
 547.80;20050.600;  -19.800;    0.000;20070.39961
 548.08;20125.334;  -16.533;    0.000;20141.86732
 548.36;20075.600;  -24.133;    0.000;20099.73294
 548.64;20147.334;  -14.133;    0.000;20161.46732
 548.92;20202.400;  -20.867;    0.000;20223.26706
 549.20;20301.334;   -5.067;    0.000;20306.40065
 549.48;20183.867;   -7.667;    0.000;20191.53385
 549.76;20367.000;   -8.867;    0.000;20375.86667
 550.04;20307.467;  -31.133;    0.000;20338.60013
 550.31;20199.467;  -20.133;    0.000;20219.60013
 550.59;20291.867;  -35.533;    0.000;20327.40052
 550.87;20207.533;  -23.067;    0.000;20230.59987
 551.15;20291.666;   -9.733;    0.000;20301.39935
 551.43;20234.066;  -14.667;    0.000;20248.73307
 551.71;20224.934;  -29.667;    0.000;20254.60026
 551.99;20257.400;   -8.400;    0.000;20265.80039
 552.27;20409.533;  -38.267;    0.000;20447.79987
 552.54;20385.268;   -6.667;    0.000;20391.93424
 552.82;20401.934;  -19.200;    0.000;20421.13359
 553.10;20453.133;  -25.533;    0.000;20478.66615
 553.38;20470.600;   -9.933;    0.000;20480.53294
 553.66;20365.000;  -42.867;    0.000;20407.86666
 553.94;20412.133;  -23.200;    0.000;20435.33281
 554.22;20523.934;  -16.733;    0.000;20540.66693
 554.49;20507.133;  -28.533;    0.000;20535.66615
 554.77;20450.133;  -23.933;    0.000;20474.06614
 555.05;20430.666;   -9.133;    0.000;20439.79935
 555.33;20396.467;  -13.867;    0.000;20410.33346
 555.61;20343.066;  -11.267;    0.000;20354.33307
 555.89;20372.000;  -21.200;    0.000;20393.20000
 556.16;20404.133;  -23.400;    0.000;20427.53281
 556.44;20461.268;   -7.267;    0.000;20468.53425
 556.72;20518.066;  -11.200;    0.000;20529.26641
 557.00;20441.199;  -13.933;    0.000;20455.13255
 557.28;20382.334;   -9.867;    0.000;20392.20065
 557.56;20456.934;  -15.533;    0.000;20472.46693
 557.83;20379.801;  -11.267;    0.000;20391.06745
 558.11;20358.600;    1.067;    0.000;20357.53294
 558.39;20439.066;  -28.400;    0.000;20467.46641
 558.67;20346.133;   -8.333;    0.000;20354.46615
 558.95;20471.732;  -33.200;    0.000;20504.93242
 559.23;20396.199;  -15.000;    0.000;20411.19922
 559.50;20380.268;  -15.533;    0.000;20395.80091
 559.78;20344.066;    8.733;    0.000;20335.33307
 560.06;20284.867;  -13.133;    0.000;20298.00052
 560.34;20234.600;  -12.800;    0.000;20247.39961
 560.62;20387.600;  -28.733;    0.000;20416.33294
 560.89;20321.268;   -4.867;    0.000;20326.13424
 561.17;20254.467;  -27.600;    0.000;20282.06680
 561.45;20288.467;   -0.533;    0.000;20289.00013
 561.73;20189.334;  -26.267;    0.000;20215.60065
 562.00;20251.533;  -23.667;    0.000;20275.19987
 562.28;20182.732;  -24.867;    0.000;20207.59909
 562.56;20152.133;  -25.333;    0.000;20177.46615
 562.84;19968.867;  -18.533;    0.000;19987.40052
 563.12;20127.268;  -18.000;    0.000;20145.26758
 563.39;20150.801;  -25.533;    0.000;20176.33411
 563.67;20132.533;  -11.933;    0.000;20144.46654
 563.95;20070.066;  -12.400;    0.000;20082.46641
 564.23;20069.533;   13.067;    0.000;20056.46654
 564.50;19934.133;  -11.533;    0.000;19945.66615
 564.78;19954.801;  -11.467;    0.000;19966.26745
 565.06;19832.600;  -22.133;    0.000;19854.73294
 565.34;19867.600;   -8.467;    0.000;19876.06628
 565.61;19818.400;   -9.867;    0.000;19828.26706
 565.89;19819.334;   -9.667;    0.000;19829.00065
 566.17;19637.467;  -36.533;    0.000;19674.00013
 566.45;19642.533;  -10.333;    0.000;19652.86654
 566.73;19531.666;  -33.600;    0.000;19565.26601
 567.00;19561.268;  -34.133;    0.000;19595.40091
 567.28;19553.600;  -19.333;    0.000;19572.93294
 567.56;19663.732;  -21.933;    0.000;19685.66575
 567.83;19539.268;  -20.600;    0.000;19559.86758
 568.11;19521.268;  -26.333;    0.000;19547.60091
 568.39;19447.467;  -18.333;    0.000;19465.80013
 568.67;19442.867;   -8.267;    0.000;19451.13385
 568.94;19263.334;  -17.667;    0.000;19281.00065
 569.22;19319.533;  -18.600;    0.000;19338.13320
 569.50;19367.199;  -19.133;    0.000;19386.33255
 569.78;19256.934;    2.333;    0.000;19254.60026
 570.05;19284.934;  -11.067;    0.000;19296.00026
 570.33;19147.732;  -23.800;    0.000;19171.53242
 570.61;19086.934;  -14.800;    0.000;19101.73359
 570.88;18967.334;   -6.000;    0.000;18973.33398
 571.16;18996.133;  -15.600;    0.000;19011.73281
 571.44;18747.934;  -18.267;    0.000;18766.20026
 571.72;18944.801;  -21.333;    0.000;18966.13412
 571.99;18845.066;  -19.133;    0.000;18864.19974
 572.27;18857.732;  -27.133;    0.000;18884.86576
 572.55;18672.066;   -3.933;    0.000;18675.99974
 572.82;18642.867;  -28.733;    0.000;18671.60052
 573.10;18562.934;   -6.533;    0.000;18569.46693
 573.38;18455.334;  -38.067;    0.000;18493.40065
 573.65;18382.400;   19.800;    0.000;18362.60039
 573.93;18457.199;  -12.733;    0.000;18469.93255
 574.21;18385.467;   -0.600;    0.000;18386.06680
 574.48;18205.334;  -18.933;    0.000;18224.26732
 574.76;18260.467;  -19.667;    0.000;18280.13346
 575.04;18304.600;   -9.200;    0.000;18313.79961
 575.32;18090.934;  -16.933;    0.000;18107.86693
 575.59;17949.268;  -24.467;    0.000;17973.73425
 575.87;18099.666;  -26.400;    0.000;18126.06602
 576.15;17869.133;  -24.867;    0.000;17893.99948
 576.42;17781.934;   -8.933;    0.000;17790.86693
 576.70;17782.133;  -32.600;    0.000;17814.73281
 576.98;17672.867;   -6.000;    0.000;17678.86719
 577.25;17650.000;  -49.933;    0.000;17699.93333
 577.53;17676.533;   -0.933;    0.000;17677.46654
 577.80;17489.467;  -13.733;    0.000;17503.20013
 578.08;17450.199;  -31.800;    0.000;17481.99922
 578.36;17413.133;  -24.867;    0.000;17437.99948
 578.63;17278.133;  -31.000;    0.000;17309.13281
 578.91;17391.400;  -21.067;    0.000;17412.46706
 579.19;17255.666;  -19.000;    0.000;17274.66602
 579.46;17164.199;  -34.400;    0.000;17198.59922
 579.74;17071.334;  -27.333;    0.000;17098.66732
 580.02;16882.533;  -17.400;    0.000;16899.93320
 580.29;16904.066;  -13.333;    0.000;16917.39974
 580.57;16899.732;   -8.333;    0.000;16908.06575
 580.84;16782.000;  -18.400;    0.000;16800.40000
 581.12;16696.066;  -16.733;    0.000;16712.79974
 581.40;16582.867;  -18.533;    0.000;16601.40052
 581.67;16507.467;  -12.267;    0.000;16519.73346
 581.95;16416.732;  -27.867;    0.000;16444.59909
 582.23;16255.267;  -21.133;    0.000;16276.39993
 582.50;16339.800;  -15.933;    0.000;16355.73314
 582.78;16161.400;  -20.200;    0.000;16181.60039
 583.05;16165.000;  -24.867;    0.000;16189.86667
 583.33;16033.400;  -28.067;    0.000;16061.46706
 583.61;16004.066;   -1.533;    0.000;16005.59974
 583.88;15807.000;  -30.933;    0.000;15837.93333
 584.16;15786.000;   -7.600;    0.000;15793.60000
 584.43;15755.267;  -20.467;    0.000;15775.73327
 584.71;15728.333;  -21.400;    0.000;15749.73301
 584.99;15484.400;  -19.133;    0.000;15503.53372
 585.26;15402.467;   -4.400;    0.000;15406.86680
 585.54;15383.000;  -27.533;    0.000;15410.53333
 585.81;15243.600;  -35.200;    0.000;15278.79961
 586.09;15213.800;  -10.933;    0.000;15224.73314
 586.37;15175.267;  -20.267;    0.000;15195.53327
 586.64;15212.400;  -33.400;    0.000;15245.80039
 586.92;15003.400;  -39.000;    0.000;15042.40039
 587.19;15013.066;   -2.200;    0.000;15015.26641
 587.47;14881.066;  -15.000;    0.000;14896.06641
 587.74;14818.533;   -6.267;    0.000;14824.79987
 588.02;14711.800;  -27.000;    0.000;14738.79980
 588.30;14632.134;  -15.133;    0.000;14647.26712
 588.57;14712.134;  -23.133;    0.000;14735.26712
 588.85;14446.800;  -23.133;    0.000;14469.93314
 589.12;14331.134;  -28.400;    0.000;14359.53379
 589.40;14307.866;  -22.933;    0.000;14330.79954
 589.67;14208.066;  -28.933;    0.000;14236.99974
 589.95;14258.533;  -11.267;    0.000;14269.79987
 590.22;14189.200;  -16.867;    0.000;14206.06686
 590.50;13973.467;  -41.067;    0.000;14014.53346
 590.77;13960.600;  -11.667;    0.000;13972.26628
 591.05;13928.000;  -22.600;    0.000;13950.60000
 591.33;13775.667;  -24.733;    0.000;13800.40033
 591.60;13796.267;  -38.000;    0.000;13834.26660
 591.88;13540.333;  -12.333;    0.000;13552.66634
 592.15;13574.267;  -10.667;    0.000;13584.93327
 592.43;13369.667;  -27.533;    0.000;13397.20033
 592.70;13317.200;  -22.200;    0.000;13339.40020
 592.98;13257.533;  -26.733;    0.000;13284.26654
 593.25;13089.400;   -4.067;    0.000;13093.46706
 593.53;13159.400;  -29.200;    0.000;13188.60039
 593.80;13046.866;  -27.800;    0.000;13074.66621
 594.08;12990.267;  -18.267;    0.000;13008.53327
 594.35;12837.866;  -26.933;    0.000;12864.79954
 594.63;12805.934;  -21.800;    0.000;12827.73359
 594.90;12695.400;  -39.200;    0.000;12734.60039
 595.18;12615.866;   -0.467;    0.000;12616.33288
 595.45;12509.600;  -16.067;    0.000;12525.66628
 595.73;12398.667;  -38.733;    0.000;12437.40033
 596.00;12351.533;  -36.067;    0.000;12387.59987
 596.28;12203.934;  -26.200;    0.000;12230.13359
 596.55;12137.934;  -23.067;    0.000;12161.00026
 596.83;11993.333;  -18.533;    0.000;12011.86634
 597.10;12034.667;  -20.533;    0.000;12055.20033
 597.38;11890.400;  -13.400;    0.000;11903.80039
 597.65;11814.866;  -15.400;    0.000;11830.26621
 597.93;11706.800;  -38.400;    0.000;11745.19981
 598.20;11629.934;  -42.067;    0.000;11672.00026
 598.48;11543.600;  -37.533;    0.000;11581.13294
 598.75;11469.800;  -19.200;    0.000;11488.99981
 599.03;11530.800;  -47.800;    0.000;11578.59980
 599.30;11308.134;  -35.600;    0.000;11343.73379
 599.58;11264.000;  -19.400;    0.000;11283.40000
 599.85;11043.866;  -10.400;    0.000;11054.26621
 600.12;11068.134;  -10.200;    0.000;11078.33379
 600.40;11027.800;  -25.600;    0.000;11053.39981
 600.67;10885.134;  -21.467;    0.000;10906.60046
 600.95;10865.934;  -16.800;    0.000;10882.73359
 601.22;10672.866;  -11.533;    0.000;10684.39954
 601.50;10681.667;  -33.067;    0.000;10714.73366
 601.77;10660.667;   -7.400;    0.000;10668.06699
 602.05;10560.600;  -16.667;    0.000;10577.26628
 602.32;10409.333;   -4.800;    0.000;10414.13301
 602.59;10415.800;  -25.000;    0.000;10440.79980
 602.87;10282.134;  -37.000;    0.000;10319.13379
 603.14;10273.800;  -32.600;    0.000;10306.39980
 603.42;10212.000;  -15.667;    0.000;10227.66667
 603.69;10052.200;  -31.800;    0.000;10084.00019
 603.97; 9979.934;  -20.267;    0.000;10000.20026
 604.24; 9950.866;  -45.600;    0.000;9996.46621
 604.51; 9838.267;   -9.200;    0.000;9847.46660
 604.79; 9838.733;  -18.000;    0.000;9856.73340
 605.06; 9701.333;  -37.067;    0.000;9738.39967
 605.34; 9607.333;   -3.533;    0.000;9610.86634
 605.61; 9569.200;  -43.800;    0.000;9613.00019
 605.89; 9557.733;  -43.267;    0.000;9601.00006
 606.16; 9461.134;  -26.067;    0.000;9487.20046
 606.43; 9505.667;  -14.067;    0.000;9519.73366
 606.71; 9312.267;  -26.133;    0.000;9338.39993
 606.98; 9396.200;  -33.667;    0.000;9429.86686
 607.26; 9218.333;  -29.133;    0.000;9247.46634
 607.53; 9173.866;  -44.000;    0.000;9217.86621
 607.80; 9147.866;  -39.133;    0.000;9186.99955
 608.08; 9014.533;  -30.733;    0.000;9045.26654
 608.35; 9012.934;  -28.667;    0.000;9041.60026
 608.62; 8985.667;  -28.133;    0.000;9013.80033
 608.90; 8841.866;  -30.200;    0.000;8872.06621
 609.17; 8814.733;  -42.867;    0.000;8857.60006
 609.45; 8840.134;  -20.933;    0.000;8861.06712
 609.72; 8708.866;  -29.200;    0.000;8738.06621
 609.99; 8716.333;  -21.133;    0.000;8737.46634
 610.27; 8681.533;  -25.133;    0.000;8706.66654
 610.54; 8586.267;  -42.200;    0.000;8628.46660
 610.81; 8434.667;  -45.600;    0.000;8480.26699
 611.09; 8432.934;   -6.000;    0.000;8438.93359
 611.36; 8385.733;  -45.400;    0.000;8431.13340
 611.64; 8341.333;  -45.800;    0.000;8387.13301
 611.91; 8329.467;  -28.467;    0.000;8357.93346
 612.18; 8266.934;  -30.400;    0.000;8297.33359
 612.46; 8180.333;  -38.000;    0.000;8218.33350
 612.73; 8157.800;  -19.267;    0.000;8177.06647
 613.00; 8002.933;  -37.600;    0.000;8040.53310
 613.28; 8039.533;  -28.000;    0.000;8067.53320
 613.55; 7960.267;  -42.133;    0.000;8002.39994
 613.82; 7894.400;  -22.267;    0.000;7916.66657
 614.10; 7821.133;  -54.133;    0.000;7875.26664
 614.37; 7688.600;  -32.933;    0.000;7721.53343
 614.64; 7659.667;  -35.133;    0.000;7694.79984
 614.92; 7553.400;  -27.600;    0.000;7580.99990
 615.19; 7496.867;  -34.200;    0.000;7531.06670
 615.46; 7416.533;  -24.133;    0.000;7440.66654
 615.74; 7315.400;  -32.600;    0.000;7347.99990
 616.01; 7172.067;  -26.133;    0.000;7198.20023
 616.28; 7059.800;  -24.600;    0.000;7084.39981
 616.56; 6969.067;  -22.067;    0.000;6991.13356
 616.83; 6862.600;  -25.667;    0.000;6888.26676
 617.10; 6848.267;  -15.267;    0.000;6863.53327
 617.37; 6779.600;  -24.000;    0.000;6803.60010
 617.65; 6835.667;  -26.600;    0.000;6862.26650
 617.92; 6838.933;  -14.333;    0.000;6853.26644
 618.19; 6858.867;  -47.533;    0.000;6906.40003
 618.47; 6789.267;  -30.600;    0.000;6819.86660
 618.74; 6695.467;  -33.333;    0.000;6728.80013
 619.01; 6751.333;  -34.267;    0.000;6785.60016
 619.28; 6659.533;  -28.000;    0.000;6687.53320
 619.56; 6694.067;  -39.267;    0.000;6733.33356
 619.83; 6604.867;  -33.467;    0.000;6638.33337
 620.10; 6552.800;  -40.667;    0.000;6593.46647
 620.38; 6495.467;  -37.467;    0.000;6532.93346
 620.65; 6457.800;  -42.467;    0.000;6500.26647
 620.92; 6503.267;  -18.533;    0.000;6521.79993
 621.19; 6461.067;  -34.733;    0.000;6495.80023
 621.47; 6432.133;  -46.600;    0.000;6478.73330
 621.74; 6500.267;  -44.733;    0.000;6544.99994
 622.01; 6467.400;  -32.467;    0.000;6499.86657
 622.28; 6496.333;  -41.133;    0.000;6537.46683
 622.56; 6371.467;  -21.067;    0.000;6392.53346
 622.83; 6376.267;  -40.600;    0.000;6416.86660
 623.10; 6362.267;  -29.200;    0.000;6391.46660
 623.38; 6417.200;  -46.600;    0.000;6463.80019
 623.65; 6348.600;  -22.000;    0.000;6370.60010
 623.92; 6315.467;  -71.733;    0.000;6387.20013
 624.19; 6274.533;  -53.667;    0.000;6328.19987
 624.46; 6218.933;  -30.933;    0.000;6249.86644
 624.74; 6205.933;  -39.400;    0.000;6245.33311
 625.01; 6196.600;  -30.467;    0.000;6227.06676
 625.28; 6142.600;  -38.600;    0.000;6181.20010
 625.55; 6159.667;  -43.800;    0.000;6203.46650
 625.83; 5981.733;  -38.133;    0.000;6019.86673
 626.10; 6019.667;  -44.933;    0.000;6064.59984
 626.37; 6020.533;  -37.000;    0.000;6057.53320
 626.64; 6062.133;  -40.733;    0.000;6102.86663
 626.92; 5945.467;  -19.333;    0.000;5964.80013
 627.19; 5998.667;  -39.933;    0.000;6038.59984
 627.46; 5883.200;  -30.267;    0.000;5913.46686
 627.73; 5787.800;  -37.400;    0.000;5825.19981
 628.00; 5872.533;  -23.867;    0.000;5896.39987
 628.28; 5819.000;  -41.467;    0.000;5860.46667
 628.55; 5805.533;  -33.800;    0.000;5839.33320
 628.82; 5735.533;  -56.933;    0.000;5792.46654
 629.09; 5758.000;  -33.667;    0.000;5791.66667
 629.36; 5797.467;  -42.600;    0.000;5840.06680
 629.64; 5722.400;  -39.400;    0.000;5761.79990
 629.91; 5703.867;  -14.000;    0.000;5717.86670
 630.18; 5680.333;  -30.133;    0.000;5710.46683
 630.45; 5589.000;  -58.533;    0.000;5647.53333
 630.72; 5651.733;  -42.867;    0.000;5694.60006
 631.00; 5653.000;  -45.333;    0.000;5698.33333
 631.27; 5559.600;  -44.867;    0.000;5604.46676
 631.54; 5590.133;  -49.467;    0.000;5639.59997
 631.81; 5544.933;  -28.200;    0.000;5573.13311
 632.08; 5454.800;  -55.400;    0.000;5510.19981
 632.35; 5436.133;  -26.267;    0.000;5462.39997
 632.63; 5446.667;  -56.600;    0.000;5503.26650
 632.90; 5429.733;  -31.067;    0.000;5460.80007
 633.17; 5424.933;  -52.800;    0.000;5477.73310
 633.44; 5391.133;  -31.667;    0.000;5422.79997
 633.71; 5387.800;  -37.933;    0.000;5425.73314
 633.98; 5359.533;  -25.933;    0.000;5385.46654
 634.25; 5389.267;  -30.667;    0.000;5419.93327
 634.53; 5290.067;  -28.267;    0.000;5318.33356
 634.80; 5354.067;  -31.867;    0.000;5385.93356
 635.07; 5301.067;  -63.267;    0.000;5364.33356
 635.34; 5300.867;  -18.400;    0.000;5319.26670
 635.61; 5353.200;  -22.733;    0.000;5375.93353
 635.88; 5324.267;  -37.000;    0.000;5361.26660
 636.15; 5384.000;  -31.000;    0.000;5415.00000
 636.43; 5373.533;  -33.000;    0.000;5406.53320
 636.70; 5379.000;  -31.400;    0.000;5410.40000
 636.97; 5318.800;  -33.333;    0.000;5352.13314
 637.24; 5247.733;  -45.933;    0.000;5293.66673
 637.51; 5201.333;  -29.533;    0.000;5230.86683
 637.78; 5127.467;  -63.800;    0.000;5191.26680
 638.05; 5062.133;  -29.467;    0.000;5091.59997
 638.32; 5043.133;  -26.533;    0.000;5069.66663
 638.60; 4985.600;  -18.800;    0.000;5004.40010
 638.87; 4969.000;  -47.800;    0.000;5016.80000
 639.14; 4912.000;  -56.133;    0.000;4968.13334
 639.41; 4948.800;  -22.400;    0.000;4971.19980
 639.68; 4925.267;  -58.733;    0.000;4983.99994
 639.95; 4816.400;  -46.467;    0.000;4862.86657
 640.22; 4801.867;  -45.933;    0.000;4847.80003
 640.49; 4773.267;  -17.267;    0.000;4790.53327
 640.76; 4770.800;  -59.400;    0.000;4830.19981
 641.03; 4747.067;  -50.067;    0.000;4797.13356
 641.30; 4571.467;  -39.467;    0.000;4610.93346
 641.58; 4550.133;  -34.467;    0.000;4584.59997
 641.85; 4454.400;  -33.467;    0.000;4487.86657
 642.12; 4471.733;  -47.000;    0.000;4518.73340
 642.39; 4428.600;  -27.867;    0.000;4456.46676
 642.66; 4422.667;  -46.533;    0.000;4469.19984
 642.93; 4369.333;  -43.000;    0.000;4412.33350
 643.20; 4331.733;  -50.533;    0.000;4382.26673
 643.47; 4360.200;  -38.667;    0.000;4398.86686
 643.74; 4287.000;  -60.733;    0.000;4347.73333
 644.01; 4170.400;  -44.200;    0.000;4214.59990
 644.28; 4241.467;  -55.000;    0.000;4296.46680
 644.55; 4242.933;  -49.933;    0.000;4292.86644
 644.82; 4215.600;  -24.867;    0.000;4240.46676
 645.09; 4131.800;  -40.667;    0.000;4172.46647
 645.36; 4086.600;  -23.733;    0.000;4110.33343
 645.63; 4092.533;  -47.733;    0.000;4140.26678
 645.91; 4072.200;  -44.467;    0.000;4116.66662
 646.18; 4057.733;  -28.333;    0.000;4086.06673
 646.45; 3992.333;  -38.800;    0.000;4031.13325
 646.72; 3971.733;  -52.000;    0.000;4023.73340
 646.99; 3938.600;  -30.933;    0.000;3969.53343
 647.26; 3941.667;  -56.600;    0.000;3998.26675
 647.53; 4002.600;  -40.533;    0.000;4043.13343
 647.80; 3851.467;  -34.067;    0.000;3885.53322
 648.07; 3851.533;  -49.400;    0.000;3900.93345
 648.34; 3869.133;  -51.533;    0.000;3920.66663
 648.61; 3817.533;  -37.467;    0.000;3855.00011
 648.88; 3756.133;  -57.733;    0.000;3813.86663
 649.15; 3753.733;  -50.800;    0.000;3804.53340
 649.42; 3750.867;  -38.133;    0.000;3789.00003
 649.69; 3698.000;  -27.733;    0.000;3725.73333
 649.96; 3728.400;  -36.600;    0.000;3764.99990
 650.23; 3646.533;  -30.867;    0.000;3677.40011
 650.50; 3599.667;  -38.667;    0.000;3638.33342
 650.77; 3583.800;  -45.067;    0.000;3628.86671
 651.04; 3571.000;  -58.600;    0.000;3629.60000
 651.31; 3541.733;  -45.000;    0.000;3586.73340
 651.58; 3525.200;  -34.200;    0.000;3559.39995
 651.85; 3527.400;  -23.800;    0.000;3551.19990
 652.12; 3498.467;  -34.733;    0.000;3533.19989
 652.39; 3418.667;  -44.000;    0.000;3462.66675
 652.66; 3458.733;  -45.933;    0.000;3504.66673
 652.93; 3404.000;  -50.733;    0.000;3454.73333
 653.20; 3465.600;  -49.133;    0.000;3514.73343
 653.47; 3395.067;  -45.067;    0.000;3440.13332
 653.74; 3374.467;  -42.467;    0.000;3416.93322
 654.01; 3374.067;  -36.933;    0.000;3410.99998
 654.28; 3380.267;  -30.467;    0.000;3410.73327
 654.55; 3296.000;  -61.533;    0.000;3357.53333
 654.81; 3270.333;  -43.533;    0.000;3313.86658
 655.08; 3204.933;  -63.667;    0.000;3268.60002
 655.35; 3202.800;  -69.067;    0.000;3271.86671
 655.62; 3188.333;  -59.467;    0.000;3247.79992
 655.89; 3186.800;  -61.800;    0.000;3248.60005
 656.16; 3151.200;  -51.133;    0.000;3202.33329
 656.43; 3178.867;  -48.400;    0.000;3227.26670
 656.70; 3132.533;  -30.733;    0.000;3163.26678
 656.97; 3079.933;  -44.933;    0.000;3124.86668
 657.24; 2982.667;  -38.067;    0.000;3020.73341
 657.51; 3081.933;  -62.067;    0.000;3144.00002
 657.78; 2983.667;  -29.333;    0.000;3013.00008
 658.05; 2954.067;  -39.333;    0.000;2993.39998
 658.32; 2988.733;  -41.133;    0.000;3029.86673
 658.59; 2981.067;  -47.333;    0.000;3028.39998
 658.86; 2966.000;  -41.067;    0.000;3007.06667
 659.12; 2958.267;  -57.533;    0.000;3015.79993
 659.39; 2902.400;  -38.733;    0.000;2941.13324
 659.66; 2853.400;  -30.000;    0.000;2883.39990
 659.93; 2868.400;  -29.267;    0.000;2897.66657
 660.20; 2839.200;  -29.800;    0.000;2868.99995
 660.47; 2791.867;  -58.533;    0.000;2850.40003
 660.74; 2805.067;  -46.733;    0.000;2851.79998
 661.01; 2794.733;  -39.733;    0.000;2834.46673
 661.28; 2815.067;  -52.467;    0.000;2867.53332
 661.55; 2763.933;   -0.067;    0.000;2764.00002
 661.81; 2709.733;  -57.600;    0.000;2767.33340
 662.08; 2718.067;  -41.000;    0.000;2759.06665
 662.35; 2719.600;  -49.200;    0.000;2768.80010
 662.62; 2614.200;  -55.200;    0.000;2669.39995
 662.89; 2629.933;  -57.267;    0.000;2687.20002
 663.16; 2634.667;  -32.333;    0.000;2667.00008
 663.43; 2585.800;  -51.067;    0.000;2636.86671
 663.70; 2540.067;  -59.467;    0.000;2599.53332
 663.96; 2573.533;  -47.133;    0.000;2620.66678
 664.23; 2564.333;  -52.400;    0.000;2616.73325
 664.50; 2514.333;  -60.267;    0.000;2574.59992
 664.77; 2518.933;  -49.867;    0.000;2568.80001
 665.04; 2524.867;  -41.200;    0.000;2566.06670
 665.31; 2393.133;  -28.867;    0.000;2421.99997
 665.58; 2440.467;  -39.867;    0.000;2480.33322
 665.84; 2447.933;  -35.467;    0.000;2483.40002
 666.11; 2445.733;  -50.400;    0.000;2496.13340
 666.38; 2391.867;  -46.533;    0.000;2438.40003
 666.65; 2387.733;  -56.667;    0.000;2444.40007
 666.92; 2374.533;  -73.133;    0.000;2447.66678
 667.19; 2336.133;  -45.667;    0.000;2381.79997
 667.46; 2364.133;  -37.067;    0.000;2401.19997
 667.72; 2333.667;  -51.200;    0.000;2384.86675
 667.99; 2304.267;  -40.000;    0.000;2344.26660
 668.26; 2270.067;  -45.933;    0.000;2315.99998
 668.53; 2260.800;  -52.933;    0.000;2313.73338
 668.80; 2285.733;  -41.467;    0.000;2327.20007
 669.06; 2227.933;  -51.133;    0.000;2279.06668
 669.33; 2219.200;  -43.333;    0.000;2262.53328
 669.60; 2206.333;  -51.933;    0.000;2258.26659
 669.87; 2107.400;  -58.533;    0.000;2165.93324
 670.14; 2166.733;  -51.467;    0.000;2218.20007
 670.41; 2150.000;  -60.667;    0.000;2210.66667
 670.67; 2163.467;  -30.333;    0.000;2193.79989
 670.94; 2092.000;  -47.200;    0.000;2139.20000
 671.21; 2106.600;  -39.267;    0.000;2145.86676
 671.48; 2099.800;  -57.200;    0.000;2157.00005
 671.75; 2031.400;  -50.400;    0.000;2081.80003
 672.01; 2045.533;  -31.000;    0.000;2076.53333
 672.28; 2063.600;  -52.667;    0.000;2116.26677
 672.55; 2007.000;  -46.000;    0.000;2053.00000
 672.82; 1990.200;  -56.067;    0.000;2046.26662
 673.08; 1984.800;  -61.000;    0.000;2045.80005
 673.35; 1937.933;  -43.467;    0.000;1981.40002
 673.62; 1954.600;  -43.133;    0.000;1997.73331
 673.89; 1939.000;  -54.600;    0.000;1993.60000
 674.16; 1928.200;  -66.733;    0.000;1994.93328
 674.42; 1897.600;  -51.733;    0.000;1949.33331
 674.69; 1886.667;  -62.933;    0.000;1949.59996
 674.96; 1832.733;  -49.867;    0.000;1882.59994
 675.23; 1885.333;  -71.600;    0.000;1956.93337
 675.49; 1784.133;  -41.533;    0.000;1825.66663
 675.76; 1834.667;  -43.800;    0.000;1878.46663
 676.03; 1791.600;  -36.267;    0.000;1827.86664
 676.30; 1781.400;  -60.333;    0.000;1841.73336
 676.56; 1765.733;  -71.933;    0.000;1837.66661
 676.83; 1749.667;  -55.333;    0.000;1804.99996
 677.10; 1740.400;  -62.600;    0.000;1803.00002
 677.37; 1710.600;  -54.733;    0.000;1765.33331
 677.63; 1706.400;  -62.267;    0.000;1768.66669
 677.90; 1694.800;  -49.333;    0.000;1744.13338
 678.17; 1682.800;  -48.533;    0.000;1731.33338
 678.44; 1700.667;  -45.467;    0.000;1746.13329
 678.70; 1679.400;  -33.867;    0.000;1713.26669
 678.97; 1622.133;  -63.800;    0.000;1685.93330
 679.24; 1598.867;  -48.400;    0.000;1647.26670
 679.50; 1603.333;  -54.133;    0.000;1657.46671
 679.77; 1603.600;  -46.667;    0.000;1650.26664
 680.04; 1583.600;  -54.867;    0.000;1638.46664
 680.31; 1577.733;  -67.400;    0.000;1645.13328
 680.57; 1564.200;  -66.733;    0.000;1630.93328
 680.84; 1561.667;  -63.933;    0.000;1625.59996
 681.11; 1570.400;  -54.533;    0.000;1624.93336
 681.37; 1516.867;  -59.267;    0.000;1576.13337
 681.64; 1519.400;  -62.867;    0.000;1582.26669
 681.91; 1500.867;  -45.733;    0.000;1546.60003
 682.17; 1503.267;  -44.133;    0.000;1547.40006
 682.44; 1452.200;  -65.067;    0.000;1517.26662
 682.71; 1449.667;  -39.733;    0.000;1489.39996
 682.98; 1470.133;  -38.400;    0.000;1508.53330
 683.24; 1415.933;  -65.733;    0.000;1481.66668
 683.51; 1429.333;  -65.067;    0.000;1494.40004
 683.78; 1397.867;  -52.867;    0.000;1450.73336
 684.04; 1464.133;  -44.333;    0.000;1508.46663
 684.31; 1412.000;  -51.067;    0.000;1463.06667
 684.58; 1368.800;  -65.200;    0.000;1434.00005
 684.84; 1410.133;  -45.400;    0.000;1455.53330
 685.11; 1367.067;  -53.067;    0.000;1420.13332
 685.38; 1319.000;  -62.667;    0.000;1381.66667
 685.64; 1338.067;  -70.600;    0.000;1408.66665
 685.91; 1341.400;  -53.133;    0.000;1394.53336
 686.17; 1327.667;  -69.800;    0.000;1397.46663
 686.44; 1324.467;  -51.533;    0.000;1376.00001
 686.71; 1304.933;  -61.867;    0.000;1366.80001
 686.97; 1301.333;  -73.000;    0.000;1374.33337
 687.24; 1242.200;  -57.067;    0.000;1299.26662
 687.51; 1256.400;  -52.800;    0.000;1309.20002
 687.77; 1244.800;  -45.600;    0.000;1290.40005
 688.04; 1244.800;  -66.333;    0.000;1311.13338
 688.31; 1253.133;  -58.600;    0.000;1311.73330
 688.57; 1248.000;  -43.733;    0.000;1291.73333
 688.84; 1224.800;  -44.667;    0.000;1269.46672
 689.10; 1207.200;  -48.533;    0.000;1255.73328
 689.37; 1189.200;  -55.733;    0.000;1244.93328
 689.64; 1149.467;  -54.067;    0.000;1203.53334
 689.90; 1160.000;  -66.467;    0.000;1226.46667
 690.17; 1139.467;  -56.133;    0.000;1195.60001
 690.44; 1161.667;  -63.933;    0.000;1225.59996
 690.70; 1128.667;  -76.533;    0.000;1205.19996
 690.97; 1106.200;  -58.533;    0.000;1164.73328
 691.23; 1139.800;  -66.400;    0.000;1206.20005
 691.50; 1092.533;  -52.400;    0.000;1144.93333
 691.77; 1064.600;  -75.133;    0.000;1139.73331
 692.03; 1060.333;  -60.600;    0.000;1120.93337
 692.30; 1066.133;  -46.000;    0.000;1112.13330
 692.56; 1056.533;  -58.467;    0.000;1114.99999
 692.83; 1049.667;  -57.867;    0.000;1107.53329
 693.10; 1014.333;  -50.600;    0.000;1064.93331
 693.36; 1029.467;  -52.800;    0.000;1082.26667
 693.63; 1026.600;  -50.733;    0.000;1077.33331
 693.89;  984.867;  -52.333;    0.000;1037.19997
 694.16;  988.533;  -55.533;    0.000;1044.06666
 694.42;  995.867;  -55.467;    0.000;1051.33331
 694.69;  994.467;  -30.067;    0.000;1024.53334
 694.96;  966.067;  -40.333;    0.000;1006.39998
 695.22;  948.733;  -52.533;    0.000;1001.26667
 695.49;  966.667;  -28.200;    0.000;994.86669
 695.75;  916.600;  -59.933;    0.000;976.53331
 696.02;  909.733;  -61.200;    0.000;970.93334
 696.28;  908.800;  -50.533;    0.000;959.33332
 696.55;  873.600;  -61.000;    0.000;934.59998
 696.81;  894.533;  -50.933;    0.000;945.46666
 697.08;  879.067;  -71.667;    0.000;950.73331
 697.34;  844.867;  -50.667;    0.000;895.53331
 697.61;  861.733;  -49.400;    0.000;911.13334
 697.88;  811.000;  -49.933;    0.000;860.93333
 698.14;  819.600;  -59.467;    0.000;879.06664
 698.41;  819.333;  -52.000;    0.000;871.33331
 698.67;  819.200;  -59.133;    0.000;878.33335
 698.94;  775.333;  -69.400;    0.000;844.73331
 699.20;  792.267;  -58.600;    0.000;850.86666
 699.47;  787.533;  -69.800;    0.000;857.33333
 699.73;  754.400;  -56.800;    0.000;811.20002
 700.00;  733.800;  -38.200;    0.000;771.99999
 700.26;  752.867;  -59.267;    0.000;812.13330
 700.53;  744.867;  -35.600;    0.000;780.46664
 700.79;  745.267;  -45.600;    0.000;790.86666
 701.06;  734.400;  -60.133;    0.000;794.53336
 701.32;  721.533;  -54.133;    0.000;775.66666
 701.59;  693.533;  -60.800;    0.000;754.33332
 701.85;  694.467;  -52.133;    0.000;746.60001
 702.12;  683.933;  -62.333;    0.000;746.26668
 702.38;  661.400;  -51.333;    0.000;712.73336
 702.65;  662.600;  -43.600;    0.000;706.19997
 702.91;  685.067;  -37.133;    0.000;722.19999
 703.18;  646.533;  -38.600;    0.000;685.13332
 703.44;  648.000;  -65.533;    0.000;713.53333
 703.71;  613.200;  -58.000;    0.000;671.20001
 703.97;  586.867;  -62.133;    0.000;648.99997
 704.24;  622.467;  -57.267;    0.000;679.73334
 704.50;  571.400;  -68.933;    0.000;640.33336
 704.76;  564.067;  -52.200;    0.000;616.26665
 705.03;  570.000;  -69.133;    0.000;639.13333
 705.29;  556.267;  -57.067;    0.000;613.33333
 705.56;  559.200;  -51.133;    0.000;610.33335
 705.82;  538.267;  -69.067;    0.000;607.33333
 706.09;  544.933;  -49.600;    0.000;594.53335
 706.35;  512.800;  -68.267;    0.000;581.06666
 706.62;  521.867;  -52.200;    0.000;574.06664
 706.88;  483.333;  -76.333;    0.000;559.66668
 707.15;  477.867;  -68.133;    0.000;546.00000
 707.41;  501.933;  -73.600;    0.000;575.53332
 707.67;  454.200;  -78.000;    0.000;532.20001
 707.94;  491.667;  -51.933;    0.000;543.59999
 708.20;  496.400;  -61.733;    0.000;558.13333
 708.47;  456.867;  -50.933;    0.000;507.80000
 708.73;  453.000;  -72.667;    0.000;525.66666
 709.00;  455.733;  -44.333;    0.000;500.06667
 709.26;  445.933;  -54.200;    0.000;500.13332
 709.52;  413.667;  -56.067;    0.000;469.73332
 709.79;  423.933;  -62.600;    0.000;486.53332
 710.05;  389.333;  -55.600;    0.000;444.93334
 710.32;  399.267;  -52.800;    0.000;452.06666
 710.58;  380.067;  -71.933;    0.000;452.00002
 710.84;  372.333;  -51.067;    0.000;423.40001
 711.11;  382.400;  -61.467;    0.000;443.86666
 711.37;  387.000;  -62.000;    0.000;449.00000
 711.64;  369.933;  -62.600;    0.000;432.53332
 711.90;  386.133;  -55.333;    0.000;441.46666
 712.16;  365.667;  -57.267;    0.000;422.93332
 712.43;  344.533;  -69.533;    0.000;414.06666
 712.69;  336.067;  -56.467;    0.000;392.53335
 712.96;  326.000;  -77.067;    0.000;403.06667
 713.22;  347.067;  -44.467;    0.000;391.53335
 713.48;  342.067;  -98.333;    0.000;440.40002
 713.75;  346.667;  -45.133;    0.000;391.79999
 714.01;  343.533;  -67.867;    0.000;411.39999
 714.27;  347.133;  -58.400;    0.000;405.53333
 714.54;  314.800;  -54.733;    0.000;369.53332
 714.80;  314.600;  -51.533;    0.000;366.13334
 715.06;  307.067;  -64.067;    0.000;371.13335
 715.33;  309.133;  -62.200;    0.000;371.33333
 715.59;  300.067;  -68.000;    0.000;368.06668
 715.86;  293.600;  -61.800;    0.000;355.40001
 716.12;  295.200;  -75.800;    0.000;371.00002
 716.38;  302.467;  -36.400;    0.000;338.86668
 716.65;  291.933;  -64.400;    0.000;356.33332
 716.91;  288.800;  -73.867;    0.000;362.66666
 717.17;  302.267;  -60.067;    0.000;362.33333
 717.44;  295.267;  -39.533;    0.000;334.80000
 717.70;  266.667;  -58.267;    0.000;324.93332
 717.96;  275.400;  -42.467;    0.000;317.86666
 718.23;  279.400;  -60.667;    0.000;340.06666
 718.49;  276.133;  -71.267;    0.000;347.40000
 718.75;  281.267;  -50.867;    0.000;332.13333
 719.02;  275.267;  -51.333;    0.000;326.59999
 719.28;  274.933;  -74.800;    0.000;349.73332
 719.54;  237.133;  -62.600;    0.000;299.73333
 719.80;  255.800;  -65.667;    0.000;321.46667
 720.07;  243.933;  -39.533;    0.000;283.46667
 720.33;  268.667;  -64.933;    0.000;333.59999
 720.59;  266.467;  -75.400;    0.000;341.86668
 720.86;  267.667;  -81.533;    0.000;349.19999
 721.12;  262.000;  -60.533;    0.000;322.53333
 721.38;  270.667;  -69.667;    0.000;340.33332
 721.65;  247.533;  -68.667;    0.000;316.20000
 721.91;  266.467;  -65.200;    0.000;331.66667
 722.17;  257.133;  -62.000;    0.000;319.13333
 722.43;  250.733;  -66.733;    0.000;317.46667
 722.70;  205.133;  -63.000;    0.000;268.13333
 722.96;  251.133;  -55.133;    0.000;306.26667
 723.22;  266.067;  -64.467;    0.000;330.53335
 723.48;  250.933;  -55.467;    0.000;306.40000
 723.75;  247.467;  -58.667;    0.000;306.13333
 724.01;  245.067;  -63.933;    0.000;309.00000
 724.27;  244.333;  -68.733;    0.000;313.06666
 724.54;  238.800;  -61.467;    0.000;300.26667
 724.80;  231.000;  -74.000;    0.000;305.00000
 725.06;  236.133;  -69.133;    0.000;305.26666
 725.32;  239.400;  -56.800;    0.000;296.19999
 725.59;  234.667;  -58.867;    0.000;293.53334
 725.85;  251.067;  -76.600;    0.000;327.66666
 726.11;  224.333;  -58.733;    0.000;283.06666
 726.37;  240.467;  -54.933;    0.000;295.39999
 726.64;  260.933;  -50.800;    0.000;311.73332
 726.90;  250.333;  -48.267;    0.000;298.59999
 727.16;  237.533;  -66.933;    0.000;304.46667
 727.42;  214.467;  -63.400;    0.000;277.86666
 727.68;  243.267;  -52.267;    0.000;295.53333
 727.95;  206.533;  -70.600;    0.000;277.13334
 728.21;  252.933;  -58.733;    0.000;311.66667
 728.47;  236.067;  -52.867;    0.000;288.93333
 728.73;  223.867;  -45.667;    0.000;269.53334
 729.00;  224.200;  -48.000;    0.000;272.20000
 729.26;  230.333;  -47.000;    0.000;277.33333
 729.52;  228.667;  -61.800;    0.000;290.46667
 729.78;  234.600;  -66.000;    0.000;300.60001
 730.04;  238.933;  -73.400;    0.000;312.33334
 730.31;  213.333;  -62.667;    0.000;276.00000
 730.57;  218.000;  -63.800;    0.000;281.80000
 730.83;  218.467;  -72.267;    0.000;290.73333
 731.09;  224.800;  -34.533;    0.000;259.33334
 731.35;  217.000;  -50.733;    0.000;267.73333
 731.62;  209.267;  -61.733;    0.000;271.00000
 731.88;  215.600;  -54.200;    0.000;269.80001
 732.14;  215.467;  -55.000;    0.000;270.46666
 732.40;  225.467;  -51.933;    0.000;277.39999
 732.66;  223.000;  -62.333;    0.000;285.33333
 732.92;  202.667;  -56.267;    0.000;258.93334
 733.19;  211.067;  -43.933;    0.000;255.00000
 733.45;  235.733;  -52.267;    0.000;288.00000
 733.71;  222.400;  -78.200;    0.000;300.59999
 733.97;  237.267;  -32.000;    0.000;269.26666
 734.23;  192.867;  -46.867;    0.000;239.73333
 734.49;  182.933;  -69.200;    0.000;252.13333
 734.76;  205.067;  -53.533;    0.000;258.60000
 735.02;  211.200;  -80.800;    0.000;292.00000
 735.28;  190.600;  -67.200;    0.000;257.80000
 735.54;  224.267;  -71.600;    0.000;295.86666
 735.80;  174.533;  -72.267;    0.000;246.80001
 736.06;  201.467;  -51.533;    0.000;252.99999
 736.32;  200.000;  -58.333;    0.000;258.33333
 736.59;  188.867;  -74.867;    0.000;263.73334
 736.85;  205.000;  -48.933;    0.000;253.93333
 737.11;  191.133;  -72.267;    0.000;263.40000
 737.37;  186.200;  -73.467;    0.000;259.66666
 737.63;  184.133;  -58.467;    0.000;242.60000
 737.89;  187.200;  -62.533;    0.000;249.73333
 738.15;  176.733;  -56.600;    0.000;233.33334
 738.41;  158.800;  -57.867;    0.000;216.66667
 738.67;  189.333;  -64.067;    0.000;253.39999
 738.94;  159.933;  -58.267;    0.000;218.20000
 739.20;  182.200;  -71.933;    0.000;254.13333
 739.46;  190.200;  -68.333;    0.000;258.53333
 739.72;  155.533;  -84.333;    0.000;239.86668
 739.98;  165.200;  -77.133;    0.000;242.33333
 740.24;  155.200;  -61.000;    0.000;216.20000
 740.50;  152.800;  -63.800;    0.000;216.60000
 740.76;  148.200;  -71.667;    0.000;219.86666
 741.02;  157.067;  -59.200;    0.000;216.26667
 741.28;  144.400;  -63.133;    0.000;207.53333
 741.54;  142.200;  -53.867;    0.000;196.06666
 741.81;  149.533;  -71.133;    0.000;220.66667
 742.07;  160.200;  -70.733;    0.000;230.93333
 742.33;  174.333;  -75.000;    0.000;249.33333
 742.59;  161.067;  -63.933;    0.000;225.00000
 742.85;  151.667;  -68.200;    0.000;219.86667
 743.11;  127.667;  -67.533;    0.000;195.20000
 743.37;  154.600;  -87.267;    0.000;241.86668
 743.63;  127.600;  -65.467;    0.000;193.06667
 743.89;  148.000;  -67.800;    0.000;215.80000
 744.15;  148.333;  -55.267;    0.000;203.59999
 744.41;  132.800;  -55.133;    0.000;187.93334
 744.67;  112.867;  -74.333;    0.000;187.20000
 744.93;  125.267;  -56.200;    0.000;181.46667
 745.19;  121.200;  -69.600;    0.000;190.80000
 745.45;  122.133;  -55.933;    0.000;178.06667
 745.71;  142.533;  -63.867;    0.000;206.40001
 745.97;  125.800;  -62.933;    0.000;188.73334
 746.23;  112.400;  -90.800;    0.000;203.20000
 746.49;  125.400;  -70.533;    0.000;195.93333
 746.75;  107.533;  -67.267;    0.000;174.80000
 747.02;  110.533;  -64.267;    0.000;174.80000
 747.28;  106.867;  -70.867;    0.000;177.73334
 747.54;  117.933;  -71.667;    0.000;189.60000
 747.80;  102.133;  -76.000;    0.000;178.13333
 748.06;   96.133;  -62.200;    0.000;158.33333
 748.32;  113.467;  -63.333;    0.000;176.80000
 748.58;   98.667;  -67.067;    0.000;165.73333
 748.84;   97.533;  -49.733;    0.000;147.26667
 749.10;  190.733;    3.733;    0.000;187.00000
 749.36;   84.800;  -71.533;    0.000;156.33334
 749.62;  105.800;  -82.533;    0.000;188.33334
 749.88;   99.133;  -67.600;    0.000;166.73333
 750.14;   93.867;  -60.867;    0.000;154.73333
 750.40;   83.867;  -78.000;    0.000;161.86667
 750.66;   94.800;  -45.200;    0.000;140.00000
 750.91;   76.867;  -73.533;    0.000;150.40000
 751.17;   93.400;  -60.133;    0.000;153.53334
 751.43;   75.733;  -50.733;    0.000;126.46666
 751.69;   80.467;  -46.267;    0.000;126.73333
 751.95;   65.800;  -52.600;    0.000;118.40000
 752.21;  104.067;  -64.933;    0.000;169.00000
 752.47;   75.000;  -64.600;    0.000;139.60000
 752.73;   72.133;  -78.933;    0.000;151.06667
 752.99;   69.800;  -75.400;    0.000;145.20000
 753.25;   76.000;  -76.133;    0.000;152.13333
 753.51;   77.133;  -60.800;    0.000;137.93333
 753.77;   76.333;  -53.467;    0.000;129.80000
 754.03;   76.133;  -61.133;    0.000;137.26667
 754.29;   78.800;  -78.400;    0.000;157.20000
 754.55;   70.000;  -57.533;    0.000;127.53333
 754.81;   74.733;  -75.467;    0.000;150.20000
 755.07;   63.133;  -66.200;    0.000;129.33333
 755.33;   76.400;  -76.800;    0.000;153.20000
 755.59;   76.200;  -84.133;    0.000;160.33333
 755.85;   66.000;  -83.333;    0.000;149.33334
 756.10;   41.200;  -64.267;    0.000;105.46667
 756.36;   55.000;  -55.600;    0.000;110.60000
 756.62;   46.933;  -67.600;    0.000;114.53333
 756.88;   32.067;  -56.133;    0.000;88.20000
 757.14;   58.200;  -35.000;    0.000;93.20000
 757.40;   75.067;  -66.333;    0.000;141.40000
 757.66;   67.933;  -62.333;    0.000;130.26667
 757.92;   27.933;  -67.400;    0.000;95.33333
 758.18;   55.533;  -57.267;    0.000;112.80000
 758.44;   57.133;  -64.867;    0.000;122.00000
 758.70;   42.600;  -59.533;    0.000;102.13333
 758.95;   45.400;  -56.467;    0.000;101.86667
 759.21;    9.067;  -73.733;    0.000;82.80000
 759.47;   62.267;  -64.867;    0.000;127.13334
 759.73;   10.600;  -73.533;    0.000;84.13333
 759.99;   24.067;  -74.400;    0.000;98.46667
 760.25;   22.800;  -86.333;    0.000;109.13334
 760.51;   36.333;  -91.667;    0.000;128.00000
 760.77;   30.933;  -57.800;    0.000;88.73333
 761.02;   39.467;  -56.600;    0.000;96.06667
 761.28;   21.400;  -68.800;    0.000;90.20000
 761.54;   49.267;  -63.800;    0.000;113.06667
 761.80;   24.733;  -66.267;    0.000;91.00000
 762.06;   49.200;  -84.133;    0.000;133.33333
 762.32;   24.467;  -74.400;    0.000;98.86667
 762.58;   42.733;  -52.400;    0.000;95.13334
 762.83;   49.667;  -50.733;    0.000;100.40000
 763.09;   47.733;  -72.733;    0.000;120.46666
 763.35;   26.067;  -61.933;    0.000;88.00000
 763.61;   41.600;  -61.333;    0.000;102.93333
 763.87;   59.600;  -46.667;    0.000;106.26667
 764.13;   21.200;  -50.267;    0.000;71.46667
 764.38;   20.467;  -73.067;    0.000;93.53333
 764.64;   23.333;  -84.267;    0.000;107.60000
 764.90;   25.067;  -69.667;    0.000;94.73333
 765.16;   29.933;  -69.200;    0.000;99.13333
 765.42;   23.933;  -53.200;    0.000;77.13333
 765.68;   18.333;  -54.133;    0.000;72.46667
 765.93;   20.733;  -63.600;    0.000;84.33333
 766.19;   42.667;  -55.600;    0.000;98.26667
 766.45;    5.867;  -81.800;    0.000;87.66667
 766.71;   27.200;  -64.800;    0.000;92.00000
 766.97;    7.800;  -65.533;    0.000;73.33333
 767.22;   14.467;  -78.800;    0.000;93.26667
 767.48;   44.000;  -64.200;    0.000;108.20000
 767.74;   28.333;  -72.533;    0.000;100.86667
 768.00;   11.000;  -72.867;    0.000;83.86667
 768.26;    8.400;  -74.133;    0.000;82.53333
 768.51;    5.467;  -70.067;    0.000;75.53333
 768.77;   41.133;  -54.600;    0.000;95.73333
 769.03;   14.733;  -80.867;    0.000;95.60000
 769.29;   19.400;  -70.600;    0.000;90.00000
 769.54;   16.733;  -67.400;    0.000;84.13334
 769.80;   25.800;  -89.267;    0.000;115.06667
 770.06;  -28.933;  -68.533;    0.000;39.60000
 770.32;   43.867;  -63.333;    0.000;107.20000
 770.57;    1.400;  -69.533;    0.000;70.93333
 770.83;   12.133;  -55.733;    0.000;67.86667
 771.09;  -10.533;  -88.800;    0.000;78.26667
 771.35;   13.400;  -69.267;    0.000;82.66667
 771.61;   -7.533;  -78.133;    0.000;70.60000
 771.86;   33.267;  -76.667;    0.000;109.93333
 772.12;    4.933;  -61.667;    0.000;66.60000
 772.38;    9.267;  -62.400;    0.000;71.66667
 772.63;   -2.933;  -74.733;    0.000;71.80000
 772.89;   20.067;  -71.667;    0.000;91.73333
 773.15;    5.000;  -76.200;    0.000;81.20000
 773.41;   10.133;  -74.067;    0.000;84.20000
 773.66;   12.333;  -76.733;    0.000;89.06666
 773.92;    2.800;  -64.733;    0.000;67.53333
 774.18;   15.200;  -54.467;    0.000;69.66667
 774.44;  -22.400;  -72.933;    0.000;50.53333
 774.69;  -10.800;  -64.733;    0.000;53.93333
 774.95;    1.800;  -55.333;    0.000;57.13333
 775.21;   23.267;  -55.733;    0.000;79.00000
 775.46;   -5.067;  -87.733;    0.000;82.66666
 775.72;  -13.733;  -54.067;    0.000;40.33333
 775.98;   18.600;  -51.400;    0.000;70.00000
 776.24;   -3.933;  -65.067;    0.000;61.13333
 776.49;    5.867;  -72.400;    0.000;78.26667
 776.75;  -33.533;  -58.533;    0.000;25.00000
 777.01;    1.733;  -50.800;    0.000;52.53333
 777.26;    6.267;  -49.200;    0.000;55.46667
 777.52;   -4.733;  -71.200;    0.000;66.46666
 777.78;   -7.467;  -56.933;    0.000;49.46667
 778.03;    3.200;  -78.000;    0.000;81.20000
 778.29;  -16.133;  -68.867;    0.000;52.73334
 778.55;   -5.133;  -56.933;    0.000;51.80000
 778.80;  -18.733;  -78.867;    0.000;60.13334
 779.06;   -6.000;  -65.333;    0.000;59.33334
 779.32;  -20.067;  -67.867;    0.000;47.80000
 779.57;  -18.333;  -77.333;    0.000;59.00000
 779.83;  -20.600;  -80.000;    0.000;59.40000
 780.09;   -4.867;  -73.800;    0.000;68.93334
 780.34;   -7.133;  -60.000;    0.000;52.86667
 780.60;    3.800;  -70.867;    0.000;74.66667
 780.86;    2.267;  -66.400;    0.000;68.66667
 781.11;    0.667;  -47.933;    0.000;48.60000
 781.37;    6.533;  -56.600;    0.000;63.13333
 781.63;  -17.467;  -55.400;    0.000;37.93333
 781.88;  -15.600;  -67.467;    0.000;51.86667
 782.14;    5.867;  -81.667;    0.000;87.53333
 782.39;  -16.067;  -97.533;    0.000;81.46667
 782.65;   -0.333;  -84.933;    0.000;84.60000
 782.91;  -24.067;  -64.533;    0.000;40.46667
 783.16;    0.533;  -70.133;    0.000;70.66666
 783.42;  -20.467;  -82.267;    0.000;61.80000
 783.67;    8.400;  -58.267;    0.000;66.66667
 783.93;   -4.667;  -68.467;    0.000;63.80000
 784.19;  -16.333;  -72.533;    0.000;56.20000
 784.44;   -7.067;  -55.800;    0.000;48.73333
 784.70;    3.600;  -71.667;    0.000;75.26666
 784.96;  -19.533;  -92.400;    0.000;72.86667
 785.21;  -11.333;  -50.867;    0.000;39.53333
 785.47;  -15.733;  -63.467;    0.000;47.73333
 785.72;  -27.200;  -75.133;    0.000;47.93333
 785.98;  -31.933;  -75.867;    0.000;43.93334
 786.23;   -5.333;  -71.000;    0.000;65.66667
 786.49;  -36.667;  -61.667;    0.000;25.00000
 786.75;    5.133;  -83.933;    0.000;89.06667
 787.00;  -26.400;  -73.867;    0.000;47.46667
 787.26;   -2.533;  -80.467;    0.000;77.93333
 787.51;   -6.733;  -61.000;    0.000;54.26667
 787.77;  -23.867;  -71.200;    0.000;47.33333
 788.02;    1.733;  -43.200;    0.000;44.93333
 788.28;  -10.600;  -80.400;    0.000;69.80000
 788.54;  -18.800;  -79.933;    0.000;61.13334
 788.79;  -19.800;  -71.133;    0.000;51.33333
 789.05;  -31.400;  -87.200;    0.000;55.80000
 789.30;  -19.267;  -58.933;    0.000;39.66667
 789.56;  -21.667;  -73.400;    0.000;51.73334
 789.81;   -3.867;  -77.200;    0.000;73.33333
 790.07;  -42.467;  -52.467;    0.000;10.00000
 790.32;  -21.200;  -73.333;    0.000;52.13334
 790.58;  -44.333;  -53.333;    0.000; 9.00000
 790.83;  -18.800;  -69.200;    0.000;50.40000
 791.09;  -19.667;  -88.200;    0.000;68.53333
 791.35;  -39.000;  -88.200;    0.000;49.20000
 791.60;  -36.267;  -64.733;    0.000;28.46666
 791.86;  -19.733;  -77.267;    0.000;57.53334
 792.11;  -27.000;  -67.600;    0.000;40.60000
 792.37;  -22.133;  -76.200;    0.000;54.06666
 792.62;  -21.333;  -64.967;    0.000;43.63333
 792.88;  -20.533;  -53.733;    0.000;33.20000
 793.13;  -31.800;  -74.533;    0.000;42.73333
 793.39;  -17.067;  -79.600;    0.000;62.53333
 793.64;  -44.467;  -87.000;    0.000;42.53333
 793.90;  -29.733;  -65.000;    0.000;35.26667
 794.15;  -30.067;  -54.733;    0.000;24.66667
 794.41;  -22.467;  -71.533;    0.000;49.06667
 794.66;  -33.267;  -62.400;    0.000;29.13334
 794.92;  -27.400;  -69.800;    0.000;42.40000
 795.17;  -37.400;  -68.267;    0.000;30.86667
 795.43;  -41.400;  -65.600;    0.000;24.20000
 795.68;   -1.533;  -67.933;    0.000;66.40000
 795.94;  -28.867;  -73.000;    0.000;44.13333
 796.19;  -15.333;  -84.000;    0.000;68.66667
 796.44;  -15.667;  -85.133;    0.000;69.46666
 796.70;  -26.133;  -50.467;    0.000;24.33333
 796.95;  -23.200;  -77.667;    0.000;54.46666
 797.21;  -54.200;  -80.200;    0.000;26.00000
 797.46;  -39.400;  -82.800;    0.000;43.40000
 797.72;  -28.867;  -71.000;    0.000;42.13333
 797.97;  -39.467;  -72.800;    0.000;33.33334
 798.23;  -42.667;  -77.200;    0.000;34.53333
 798.48;  -36.600;  -67.333;    0.000;30.73334
 798.74;  -12.800;  -72.333;    0.000;59.53334
 798.99;  -21.933;  -85.267;    0.000;63.33334
 799.24;  -41.067;  -71.133;    0.000;30.06667
 799.50;  -36.733;  -75.667;    0.000;38.93333
 799.75;  -38.933;  -71.533;    0.000;32.60000
 800.01;  -36.267;  -69.733;    0.000;33.46666
 800.26;  -43.867;  -70.600;    0.000;26.73333
 800.52;  -50.000;  -66.400;    0.000;16.40000
 800.77;  -47.400;  -65.267;    0.000;17.86667
 801.02;  -42.800;  -68.667;    0.000;25.86666
 801.28;  -46.600;  -45.067;    0.000;-1.53333
 801.53;  -23.067;  -75.133;    0.000;52.06666
 801.79;  -45.467;  -61.067;    0.000;15.60000
 802.04;  -27.467;  -77.200;    0.000;49.73333
 802.29;  -33.867;  -70.933;    0.000;37.06667
 802.55;  -43.867;  -73.933;    0.000;30.06667
 802.80;  -38.600;  -50.533;    0.000;11.93333
 803.06;  -15.267;  -67.933;    0.000;52.66667
 803.31;  -22.267;  -67.467;    0.000;45.20000
 803.56;  -14.467;  -80.333;    0.000;65.86667
 803.82;  -56.533;  -73.600;    0.000;17.06667
 804.07;  -23.867;  -77.000;    0.000;53.13333
 804.32;  -48.333;  -75.267;    0.000;26.93334
 804.58;  -21.133;  -83.800;    0.000;62.66667
 804.83;  -57.600;  -62.333;    0.000; 4.73333
 805.09;  -39.000;  -78.800;    0.000;39.80000
 805.34;  -53.867;  -49.333;    0.000;-4.53333
 805.59;  -37.867;  -64.333;    0.000;26.46667
 805.85;  -30.533;  -70.800;    0.000;40.26667
 806.10;  -43.467;  -62.200;    0.000;18.73333
 806.35;  -32.400;  -69.400;    0.000;37.00000
 806.61;  -47.733;  -87.667;    0.000;39.93333
 806.86;  -29.733;  -74.667;    0.000;44.93333
 807.11;  -24.067;  -63.067;    0.000;39.00000
 807.37;  -41.133;  -52.400;    0.000;11.26667
 807.62;  -43.133;  -80.933;    0.000;37.80000
 807.87;  -51.667;  -61.000;    0.000; 9.33333
 808.13;  -52.133;  -74.733;    0.000;22.59999
 808.38;  -58.267;  -75.867;    0.000;17.60000
 808.63;  -27.933;  -89.933;    0.000;62.00000
 808.89;  -37.400;  -59.533;    0.000;22.13333
 809.14;  -27.733;  -82.467;    0.000;54.73333
 809.39;  -51.200;  -72.867;    0.000;21.66667
 809.65;  -44.133;  -86.200;    0.000;42.06666
 809.90;  -58.867;  -76.533;    0.000;17.66667
 810.15;  -44.867;  -61.133;    0.000;16.26667
 810.41;  -29.400;  -57.600;    0.000;28.20000
 810.66;  -42.267;  -74.067;    0.000;31.80000
 810.91;  -44.267;  -78.600;    0.000;34.33333
 811.16;  -43.600;  -80.400;    0.000;36.80000
 811.42;  -52.800;  -81.600;    0.000;28.80000
 811.67;  -27.467;  -55.533;    0.000;28.06667
 811.92;  -53.667;  -76.800;    0.000;23.13334
 812.18;  -45.333;  -69.267;    0.000;23.93334
 812.43;  -64.867;  -79.267;    0.000;14.40000
 812.68;  -59.533;  -84.600;    0.000;25.06667
 812.93;  -55.200;  -57.667;    0.000; 2.46667
 813.19;  -14.867;  -86.267;    0.000;71.40000
 813.44;  -45.133;  -72.067;    0.000;26.93333
 813.69;  -19.267;  -64.467;    0.000;45.20000
 813.95;  -54.133;  -67.867;    0.000;13.73333
 814.20;  -34.400;  -75.467;    0.000;41.06667
 814.45;  -43.600;  -81.467;    0.000;37.86667
 814.70;  -45.467;  -67.133;    0.000;21.66666
 814.96;  -48.933;  -72.800;    0.000;23.86667
 815.21;  -39.267;  -78.000;    0.000;38.73333
 815.46;  -60.933;  -64.333;    0.000; 3.40000
 815.71;  -33.400;  -70.533;    0.000;37.13333
 815.96;  -50.000;  -81.133;    0.000;31.13333
 816.22;  -50.467;  -82.733;    0.000;32.26666
 816.47;  -37.200;  -61.333;    0.000;24.13333
 816.72;  -36.733;  -86.667;    0.000;49.93333
 816.97;  -55.267;  -89.933;    0.000;34.66667
 817.23;  -44.667;  -56.400;    0.000;11.73333
 817.48;  -36.667;  -52.267;    0.000;15.60000
 817.73;  -38.267;  -82.467;    0.000;44.20000
 817.98;  -39.600;  -79.867;    0.000;40.26667
 818.23;  -53.733;  -71.667;    0.000;17.93333
 818.49;  -35.133;  -68.267;    0.000;33.13334
 818.74;  -31.200;  -56.600;    0.000;25.40000
 818.99;  -35.000;  -75.333;    0.000;40.33334
 819.24;  -20.467;  -65.333;    0.000;44.86667
 819.50;  -49.067;  -86.400;    0.000;37.33334
 819.75;  -41.267;  -73.000;    0.000;31.73333
 820.00;  -40.133;  -60.600;    0.000;20.46666
 820.25;  -41.333;  -77.267;    0.000;35.93334
 820.50;  -69.667;  -75.867;    0.000; 6.20000
 820.75;  -36.733;  -76.000;    0.000;39.26667
 821.01;  -47.400;  -66.933;    0.000;19.53333
 821.26;  -49.000;  -67.867;    0.000;18.86667
 821.51;  -69.600;  -73.267;    0.000; 3.66667
 821.76;  -53.667;  -83.733;    0.000;30.06666
 822.01;  -52.667;  -64.933;    0.000;12.26667
 822.26;  -55.267;  -61.933;    0.000; 6.66667
 822.52;  -57.133;  -86.400;    0.000;29.26667
 822.77;  -43.600;  -89.867;    0.000;46.26667
 823.02;  -56.400;  -54.800;    0.000;-1.60000
 823.27;  -46.600;  -79.733;    0.000;33.13333
 823.52;  -61.000;  -77.867;    0.000;16.86667
 823.77;  -58.400;  -91.267;    0.000;32.86667
 824.03;  -64.667;  -73.400;    0.000; 8.73334
 824.28;  -40.933;  -67.400;    0.000;26.46667
 824.53;  -49.067;  -49.000;    0.000;-0.06667
 824.78;  -31.467;  -65.600;    0.000;34.13333
 825.03;  -57.400;  -75.133;    0.000;17.73333
 825.28;  -61.067;  -62.867;    0.000; 1.80000
 825.53;  -45.867;  -70.600;    0.000;24.73333
 825.78;  -49.733;  -58.733;    0.000; 9.00000
 826.04;  -52.067;  -76.867;    0.000;24.80000
 826.29;  -42.467;  -65.400;    0.000;22.93333
 826.54;  -58.267;  -75.267;    0.000;17.00000
 826.79;  -50.000;  -74.800;    0.000;24.80000
 827.04;  -54.267;  -78.333;    0.000;24.06667
 827.29;  -60.000;  -78.533;    0.000;18.53333
 827.54;  -54.267;  -55.733;    0.000; 1.46667
 827.79;  -57.000;  -70.267;    0.000;13.26667
 828.04;  -67.267;  -61.200;    0.000;-6.06667
 828.29;  -58.267;  -78.400;    0.000;20.13334
 828.55;  -43.067;  -82.733;    0.000;39.66666
 828.80;  -42.533;  -74.933;    0.000;32.40000
 829.05;  -50.400;  -80.667;    0.000;30.26666
 829.30;  -78.533;  -86.467;    0.000; 7.93333
 829.55;  -43.733;  -78.200;    0.000;34.46666
 829.80;  -50.467;  -65.667;    0.000;15.20000
 830.05;  -54.600;  -67.200;    0.000;12.60000
 830.30;  -41.333;  -87.000;    0.000;45.66667
 830.55;  -42.933;  -69.200;    0.000;26.26666
 830.80;  -56.933;  -71.600;    0.000;14.66666
 831.05;  -43.267;  -64.467;    0.000;21.20000
 831.30;  -46.733;  -76.267;    0.000;29.53334
 831.55;  -34.133;  -54.400;    0.000;20.26667
 831.80;  -54.200;  -81.333;    0.000;27.13334
 832.05;  -42.867;  -61.867;    0.000;19.00000
 832.30;  -31.000;  -66.067;    0.000;35.06667
 832.56;  -56.267;  -85.333;    0.000;29.06667
 832.81;  -58.800;  -74.067;    0.000;15.26667
 833.06;  -46.333;  -44.800;    0.000;-1.53333
 833.31;  -69.267;  -96.867;    0.000;27.60000
 833.56;  -49.467;  -66.133;    0.000;16.66666
 833.81;  -45.467;  -64.267;    0.000;18.80000
 834.06;  -48.400;  -66.333;    0.000;17.93333
 834.31;  -63.267;  -78.667;    0.000;15.40000
 834.56;  -47.000;  -70.933;    0.000;23.93333
 834.81;  -49.333;  -93.733;    0.000;44.40000
 835.06;  -49.267;  -86.200;    0.000;36.93333
 835.31;  -55.800;  -81.000;    0.000;25.20000
 835.56;  -36.933;  -32.200;    0.000;-4.73333
 835.81;  -42.933;  -81.067;    0.000;38.13333
 836.06;  -45.600;  -61.667;    0.000;16.06667
 836.31;  -60.867;  -86.133;    0.000;25.26667
 836.56;  -52.400;  -76.400;    0.000;24.00000
 836.81;  -55.000;  -73.467;    0.000;18.46667
 837.06;  -25.667;  -82.400;    0.000;56.73334
 837.31;  -34.400;  -80.067;    0.000;45.66666
 837.56;  -69.133;  -78.000;    0.000; 8.86667
 837.81;  -47.267;  -66.867;    0.000;19.60000
 838.06;  -38.933;  -72.000;    0.000;33.06667
 838.31;  -50.600;  -68.200;    0.000;17.60000
 838.56;  -71.667;  -88.067;    0.000;16.40000
 838.80;  -53.000;  -80.333;    0.000;27.33334
 839.05;  -51.800;  -62.067;    0.000;10.26667
 839.30;  -56.200;  -89.200;    0.000;33.00000
 839.55;  -61.867;  -60.533;    0.000;-1.33333
 839.80;  -66.200;  -78.000;    0.000;11.80000
 840.05;  -66.267;  -86.533;    0.000;20.26666
 840.30;  -22.267;  -73.133;    0.000;50.86666
 840.55;  -51.800;  -67.000;    0.000;15.20000
 840.80;  -56.667;  -45.533;    0.000;-11.13334
 841.05;  -70.333;  -75.400;    0.000; 5.06667
 841.30;  -43.667;  -69.133;    0.000;25.46666
 841.55;  -85.200;  -81.333;    0.000;-3.86666
 841.80;  -62.333;  -89.267;    0.000;26.93334
 842.05;  -65.267;  -80.800;    0.000;15.53333
 842.30;  -39.400;  -66.733;    0.000;27.33333
 842.55;  -65.667;  -70.000;    0.000; 4.33334
 842.79;  -61.600;  -61.000;    0.000;-0.60000
 843.04;  -50.067;  -67.333;    0.000;17.26667
 843.29;  -61.200;  -59.933;    0.000;-1.26667
 843.54;  -29.533;  -69.533;    0.000;40.00000
 843.79;  -54.000;  -82.467;    0.000;28.46667
 844.04;  -49.933;  -56.000;    0.000; 6.06667
 844.29;  -54.200;  -91.133;    0.000;36.93333
 844.54;  -46.067;  -66.267;    0.000;20.20000
 844.79;  -56.667;  -72.333;    0.000;15.66667
 845.04;  -58.000;  -64.867;    0.000; 6.86667
 845.28;  -64.000;  -89.533;    0.000;25.53333
 845.53;  -48.800;  -64.800;    0.000;16.00000
 845.78;  -42.133;  -78.467;    0.000;36.33333
 846.03;  -76.200;  -77.000;    0.000; 0.80000
 846.28;  -60.800;  -70.200;    0.000; 9.40000
 846.53;  -44.667;  -51.733;    0.000; 7.06667
 846.78;  -52.533;  -57.600;    0.000; 5.06667
 847.02;  -59.533;  -49.267;    0.000;-10.26667
 847.27;  -41.867;  -66.133;    0.000;24.26667
 847.52;  -75.000;  -67.800;    0.000;-7.20000
 847.77;  -39.667;  -72.600;    0.000;32.93333
 848.02;  -57.133;  -67.667;    0.000;10.53333
 848.27;  -66.600;  -81.000;    0.000;14.40000
 848.52;  -47.667;  -65.267;    0.000;17.60000
 848.76;  -49.667;  -79.133;    0.000;29.46666
 849.01;  -70.000;  -71.333;    0.000; 1.33334
 849.26;  -57.800;  -74.333;    0.000;16.53334
 849.51;  -53.067;  -71.400;    0.000;18.33334
 849.76;  -49.067;  -92.000;    0.000;42.93333
 850.01;  -64.667;  -82.467;    0.000;17.80000
 850.25;  -59.133;  -74.067;    0.000;14.93333
 850.50;  -73.733;  -66.533;    0.000;-7.20000
 850.75;  -51.000;  -55.800;    0.000; 4.80000
 851.00;  -56.200;  -73.667;    0.000;17.46666
 851.25;  -55.733;  -69.467;    0.000;13.73333
 851.49;  -66.400;  -99.467;    0.000;33.06667
 851.74;  -73.333;  -79.533;    0.000; 6.20000
 851.99;  -54.200;  -73.267;    0.000;19.06667
 852.24;  -66.067;  -62.067;    0.000;-4.00000
 852.49;  -73.600;  -74.800;    0.000; 1.20000
 852.73;  -61.867;  -76.667;    0.000;14.80000
 852.98;  -61.067;  -74.733;    0.000;13.66666
 853.23;  -50.133;  -57.467;    0.000; 7.33333
 853.48;  -64.933;  -94.200;    0.000;29.26666
 853.73;  -59.867;  -64.400;    0.000; 4.53334
 853.97;  -59.533;  -65.867;    0.000; 6.33334
 854.22;  -76.533;  -72.667;    0.000;-3.86667
 854.47;  -64.267;  -81.400;    0.000;17.13333
 854.72;  -71.733;  -60.267;    0.000;-11.46666
 854.96;  -52.533;  -71.600;    0.000;19.06667
 855.21;  -64.800;  -76.533;    0.000;11.73333
 855.46;  -50.000;  -61.333;    0.000;11.33333
 855.71;  -64.867;  -89.467;    0.000;24.60000
 855.95;  -59.533;  -64.400;    0.000; 4.86667
 856.20;  -58.333;  -66.000;    0.000; 7.66667
 856.45;  -67.933;  -74.400;    0.000; 6.46667
 856.70;  -57.867;  -86.267;    0.000;28.40001
 856.94;  -59.600;  -65.533;    0.000; 5.93333
 857.19;  -54.333;  -78.267;    0.000;23.93334
 857.44;  -52.400;  -79.933;    0.000;27.53333
 857.69;  -50.333;  -83.267;    0.000;32.93334
 857.93;  -41.667;  -66.333;    0.000;24.66667
 858.18;  -45.400;  -77.267;    0.000;31.86667
 858.43;  -60.133;  -57.333;    0.000;-2.80000
 858.67;  -54.133;  -53.067;    0.000;-1.06667
 858.92;  -44.067;  -58.333;    0.000;14.26667
 859.17;  -63.600;  -63.933;    0.000; 0.33334
 859.42;  -69.867;  -69.467;    0.000;-0.40000
 859.66;  -62.133;  -76.333;    0.000;14.20000
 859.91;  -56.067;  -59.133;    0.000; 3.06667
 860.16;  -86.467;  -93.600;    0.000; 7.13333
 860.40;  -50.733;  -79.333;    0.000;28.60000
 860.65;  -66.933;  -94.733;    0.000;27.80000
 860.90;  -74.733;  -66.667;    0.000;-8.06667
 861.14;  -56.067;  -80.400;    0.000;24.33334
 861.39;  -71.467;  -68.000;    0.000;-3.46667
 861.64;  -49.933;  -53.733;    0.000; 3.80000
 861.88;  -65.267;  -76.000;    0.000;10.73333
 862.13;  -46.467;  -52.933;    0.000; 6.46667
 862.38;  -70.400;  -67.933;    0.000;-2.46667
 862.62;  -54.533;  -56.400;    0.000; 1.86667
 862.87;  -68.467;  -81.933;    0.000;13.46667
 863.12;  -49.400;  -72.000;    0.000;22.60000
 863.36;  -68.067;  -81.800;    0.000;13.73334
 863.61;  -59.800;  -63.200;    0.000; 3.40000
 863.86;  -55.333;  -87.533;    0.000;32.20000
 864.10;  -66.600;  -69.400;    0.000; 2.80000
 864.35;  -79.533;  -63.200;    0.000;-16.33333
 864.60;  -55.867;  -79.667;    0.000;23.80000
 864.84;  -71.267;  -68.933;    0.000;-2.33334
 865.09;  -80.733;  -72.000;    0.000;-8.73333
 865.33;  -62.800;  -56.800;    0.000;-6.00000
 865.58;  -49.667;  -82.800;    0.000;33.13334
 865.83;  -58.000;  -71.800;    0.000;13.80000
 866.07;  -53.800;  -89.067;    0.000;35.26667
 866.32;  -55.800;  -52.667;    0.000;-3.13333
 866.57;  -65.600;  -66.800;    0.000; 1.20000
 866.81;  -73.533;  -66.067;    0.000;-7.46667
 867.06;  -65.200;  -87.733;    0.000;22.53333
 867.30;  -78.333;  -82.267;    0.000; 3.93333
 867.55;  -67.133;  -71.867;    0.000; 4.73334
 867.80;  -52.000;  -58.733;    0.000; 6.73333
 868.04;  -49.800;  -68.400;    0.000;18.60000
 868.29;  -67.800;  -73.000;    0.000; 5.20000
 868.53;  -51.800;  -53.933;    0.000; 2.13334
 868.78;  -76.267;  -66.600;    0.000;-9.66667
 869.03;  -60.933;  -71.267;    0.000;10.33334
 869.27;  -66.000;  -83.533;    0.000;17.53333
 869.52;  -70.000;  -80.267;    0.000;10.26667
 869.76;  -58.333;  -68.667;    0.000;10.33333
 870.01;  -60.800;  -74.000;    0.000;13.20000
 870.25;  -58.867;  -65.267;    0.000; 6.40001
 870.50;  -67.467;  -57.200;    0.000;-10.26667
 870.75;  -59.800;  -61.533;    0.000; 1.73333
 870.99;  -55.733;  -65.467;    0.000; 9.73333
 871.24;  -64.267;  -65.133;    0.000; 0.86666
 871.48;  -68.067;  -64.800;    0.000;-3.26666
 871.73;  -67.133;  -78.267;    0.000;11.13334
 871.97;  -74.133;  -79.933;    0.000; 5.80000
 872.22;  -79.933;  -52.467;    0.000;-27.46667
 872.46;  -71.800;  -63.200;    0.000;-8.60000
 872.71;  -69.467;  -93.600;    0.000;24.13333
 872.95;  -56.667;  -67.800;    0.000;11.13334
 873.20;  -37.400;  -65.533;    0.000;28.13333
 873.44;  -57.600;  -60.000;    0.000; 2.40000
 873.69;  -66.733;  -81.800;    0.000;15.06667
 873.94;  -58.200;  -71.733;    0.000;13.53333
 874.18;  -62.000;  -89.133;    0.000;27.13333
 874.43;  -58.333;  -63.067;    0.000; 4.73333
 874.67;  -69.733;  -59.733;    0.000;-10.00000
 874.92;  -52.133;  -62.200;    0.000;10.06667
 875.16;  -60.667;  -47.533;    0.000;-13.13334
 875.41;  -57.333;  -99.000;    0.000;41.66667
 875.65;  -62.267;  -50.333;    0.000;-11.93333
 875.90;  -45.800;  -64.400;    0.000;18.60000
 876.14;  -68.400;  -79.000;    0.000;10.60000
 876.39;  -47.000;  -64.067;    0.000;17.06667
 876.63;  -56.467;  -55.800;    0.000;-0.66667
 876.88;  -50.533;  -60.867;    0.000;10.33333
 877.12;  -62.533;  -65.733;    0.000; 3.20000
 877.36;  -58.400;  -85.867;    0.000;27.46667
 877.61;  -69.267;  -77.667;    0.000; 8.39999
 877.85;  -66.400;  -52.667;    0.000;-13.73333
 878.10;  -62.867;  -73.000;    0.000;10.13334
 878.34;  -52.867;  -51.733;    0.000;-1.13333
 878.59;  -58.600;  -68.200;    0.000; 9.60000
 878.83;  -49.200;  -84.667;    0.000;35.46666
 879.08;  -61.600;  -73.600;    0.000;12.00000
 879.32;  -55.200;  -63.400;    0.000; 8.20000
 879.57;  -57.133;  -66.867;    0.000; 9.73333
 879.81;  -65.600;  -80.867;    0.000;15.26667
 880.05;  -63.733;  -60.800;    0.000;-2.93333
 880.30;  -58.267;  -74.267;    0.000;16.00000
 880.54;  -89.867;  -71.667;    0.000;-18.20000
 880.79;  -67.333;  -74.600;    0.000; 7.26666
 881.03;  -42.467;  -63.867;    0.000;21.40000
 881.28;  -37.667;  -48.467;    0.000;10.80000
 881.52;  -63.000;  -76.533;    0.000;13.53333
 881.76;  -48.467;  -62.533;    0.000;14.06667
 882.01;  -69.933;  -65.267;    0.000;-4.66666
 882.25;  -53.200;  -75.200;    0.000;22.00000
 882.50;  -65.467;  -69.133;    0.000; 3.66666
 882.74;  -65.000;  -74.200;    0.000; 9.20000
 882.98;  -61.600;  -64.667;    0.000; 3.06667
 883.23;  -59.867;  -78.933;    0.000;19.06667
 883.47;  -78.400;  -51.667;    0.000;-26.73333
 883.72;  -52.400;  -67.267;    0.000;14.86667
 883.96;  -64.933;  -53.133;    0.000;-11.80000
 884.20;  -67.267;  -82.467;    0.000;15.20000
 884.45;  -63.067;  -54.667;    0.000;-8.40000
 884.69;  -48.333;  -57.600;    0.000; 9.26667
 884.94;  -38.667;  -34.733;    0.000;-3.93333
 885.18;  -60.800;  -57.667;    0.000;-3.13333
 885.42;  -73.400;  -61.000;    0.000;-12.40000
 885.67;  -43.800;  -77.400;    0.000;33.60000
 885.91;  -49.533;  -67.733;    0.000;18.20000
 886.15;  -51.200;  -37.933;    0.000;-13.26667
 886.40;  -48.533;  -71.733;    0.000;23.20000
 886.64;  -29.800;  -68.400;    0.000;38.60000
 886.88;  -27.067;  -59.533;    0.000;32.46667
 887.13;  -49.733;  -47.333;    0.000;-2.40000
 887.37;  -62.333;  -74.533;    0.000;12.20000
 887.62;  -30.600;  -41.333;    0.000;10.73333
 887.86;  -55.867;  -55.933;    0.000; 0.06667
 888.10;  -45.867;  -69.867;    0.000;24.00000
 888.35;  -36.600;  -41.867;    0.000; 5.26667
 888.59;  -40.000;  -59.400;    0.000;19.40000
 888.83;  -56.400;  -57.200;    0.000; 0.80000
 889.07;  -42.000;  -72.467;    0.000;30.46667
 889.32;  -56.867;  -65.800;    0.000; 8.93334
 889.56;  -32.733;  -62.800;    0.000;30.06667
 889.80;  -41.533;  -45.000;    0.000; 3.46667
 890.05;  -48.733;  -57.533;    0.000; 8.80000
 890.29;  -47.733;  -49.333;    0.000; 1.60000
 890.53;  -48.933;  -41.667;    0.000;-7.26667
 890.78;  -32.467;  -56.067;    0.000;23.60000
 891.02;  -44.733;  -58.400;    0.000;13.66667
 891.26;  -61.867;  -42.600;    0.000;-19.26667
 891.51;  -45.000;  -46.800;    0.000; 1.80000
 891.75;  -40.133;  -49.267;    0.000; 9.13333
 891.99;  -41.867;  -39.467;    0.000;-2.40000
 892.23;  -55.000;  -61.867;    0.000; 6.86666
 892.48;  -28.933;  -46.800;    0.000;17.86667
 892.72;  -49.133;  -38.933;    0.000;-10.20000
 892.96;  -52.200;  -46.333;    0.000;-5.86667
 893.20;  -47.533;  -30.467;    0.000;-17.06667
 893.45;  -45.000;  -57.067;    0.000;12.06667
 893.69;  -50.200;  -46.933;    0.000;-3.26667
 893.93;  -33.867;  -52.800;    0.000;18.93333
 894.17;  -51.133;  -39.867;    0.000;-11.26667
 894.42;  -54.333;  -59.400;    0.000; 5.06667
 894.66;  -54.000;  -48.000;    0.000;-6.00000
 894.90;  -16.733;  -30.267;    0.000;13.53333
 895.14;  -29.867;  -21.867;    0.000;-8.00000
 895.39;  -50.133;  -49.600;    0.000;-0.53334
 895.63;  -40.400;  -24.133;    0.000;-16.26667
 895.87;  -41.000;  -44.800;    0.000; 3.80000
 896.11;  -34.067;  -13.333;    0.000;-20.73333
 896.36;  -33.267;  -25.200;    0.000;-8.06667
 896.60;  -57.000;  -35.867;    0.000;-21.13334
 896.84;   -3.867;  -10.733;    0.000; 6.86667
 897.08;  -29.733;  -22.067;    0.000;-7.66667
 897.32;   -5.600;  -17.800;    0.000;12.20000
 897.57;  -15.267;  -23.333;    0.000; 8.06667
 897.81;  -24.667;  -13.667;    0.000;-11.00000
 898.05;   -6.800;  -26.400;    0.000;19.60000
 898.29;    0.933;   -7.933;    0.000; 8.86667
 898.53;  -20.267;   -5.800;    0.000;-14.46667
 898.78;   -8.267;   -4.000;    0.000;-4.26667
 899.02;  -13.800;   -9.000;    0.000;-4.80000
 899.26;   16.200;   -9.133;    0.000;25.33333
 899.50;   12.600;   19.867;    0.000;-7.26667
 899.74;   15.067;   15.400;    0.000;-0.33333
 899.99;  -10.067;   14.267;    0.000;-24.33333
 900.23;   34.800;    9.867;    0.000;24.93333
 900.47;   15.600;   22.333;    0.000;-6.73333
 900.71;   10.133;   -3.200;    0.000;13.33333
 900.95;   26.267;   22.800;    0.000; 3.46667
 901.19;   38.600;   30.400;    0.000; 8.20000
 901.44;   35.067;   57.733;    0.000;-22.66667
 901.68;   70.067;   80.267;    0.000;-10.20000
 901.92;   85.267;   84.533;    0.000; 0.73334
 902.16;   95.267;   82.333;    0.000;12.93333
 902.40;  115.467;  100.200;    0.000;15.26667
 902.64;  139.133;  141.400;    0.000;-2.26666
 902.88;  167.467;  166.867;    0.000; 0.59999
 903.13;  168.000;  166.800;    0.000; 1.20000

