point1
Integration time [ms]:  15.000
Averaging Nr. [scans]: 15
Smoothing Nr. [pixels]: 0
Data measured with spectrometer [name]: 1307078U2
Wave   ;Sample   ;Dark     ;Reference;Scope Corrected for Dark
[nm]   ;[counts] ;[counts] ;[counts] 

 351.07;    8.400;  -29.133;    0.000;37.53333
 351.37;    1.200;    1.067;    0.000; 0.13333
 351.66;   -1.067;    0.600;    0.000;-1.66667
 351.95;   15.133;   -9.067;    0.000;24.20000
 352.24;  -21.000;  -24.533;    0.000; 3.53333
 352.54;   16.733;    3.533;    0.000;13.20000
 352.83;   -0.133;  -17.533;    0.000;17.40000
 353.12;   21.667;    2.067;    0.000;19.60000
 353.42;  -14.600;  -14.733;    0.000; 0.13333
 353.71;   13.867;  -14.600;    0.000;28.46667
 354.00;   18.067;  -14.667;    0.000;32.73333
 354.30;   26.933;   -3.533;    0.000;30.46667
 354.59;  -15.800;  -31.933;    0.000;16.13333
 354.88;    9.067;  -11.267;    0.000;20.33333
 355.17;  -18.333;  -30.667;    0.000;12.33333
 355.47;   -4.933;   -7.667;    0.000; 2.73333
 355.76;    1.667;   -6.800;    0.000; 8.46667
 356.05;   14.333;    8.733;    0.000; 5.60000
 356.35;    0.533;  -20.467;    0.000;21.00000
 356.64;   -4.333;   18.200;    0.000;-22.53333
 356.93;   12.133;  -14.200;    0.000;26.33333
 357.22;   20.867;   14.600;    0.000; 6.26667
 357.52;    8.067;  -25.533;    0.000;33.60000
 357.81;    5.067;   19.667;    0.000;-14.60000
 358.10;   12.600;  -13.467;    0.000;26.06667
 358.39;    8.333;    2.600;    0.000; 5.73333
 358.69;   -8.933;    0.200;    0.000;-9.13333
 358.98;    7.800;   -2.267;    0.000;10.06667
 359.27;   -1.200;  -23.733;    0.000;22.53333
 359.57;   -0.667;    9.133;    0.000;-9.80000
 359.86;   -0.067;    0.200;    0.000;-0.26667
 360.15;   15.333;   13.867;    0.000; 1.46667
 360.44;   -4.200;  -12.000;    0.000; 7.80000
 360.74;   18.200;   -1.733;    0.000;19.93333
 361.03;    9.733;  -25.667;    0.000;35.40000
 361.32;    9.667;    3.800;    0.000; 5.86667
 361.61;   -7.733;  -37.733;    0.000;30.00000
 361.91;    1.133;   17.600;    0.000;-16.46667
 362.20;   -4.133;  -21.600;    0.000;17.46667
 362.49;   -0.933;    3.800;    0.000;-4.73333
 362.78;    2.333;   -3.933;    0.000; 6.26667
 363.08;    9.333;    8.067;    0.000; 1.26667
 363.37;   -4.533;  -13.667;    0.000; 9.13333
 363.66;   13.000;   27.333;    0.000;-14.33333
 363.95;   23.267;  -36.733;    0.000;60.00000
 364.24;    4.267;    6.000;    0.000;-1.73333
 364.54;   -4.600;  -14.400;    0.000; 9.80000
 364.83;   10.000;   11.867;    0.000;-1.86667
 365.12;   -6.333;  -19.000;    0.000;12.66667
 365.41;    9.067;   29.200;    0.000;-20.13333
 365.71;    8.267;  -17.333;    0.000;25.60000
 366.00;    7.600;   -8.267;    0.000;15.86667
 366.29;    0.067;  -24.133;    0.000;24.20000
 366.58;    7.333;   -8.533;    0.000;15.86667
 366.87;   17.867;   -6.267;    0.000;24.13333
 367.17;    2.133;    1.133;    0.000; 1.00000
 367.46;   11.133;  -21.333;    0.000;32.46667
 367.75;   -1.200;    6.333;    0.000;-7.53333
 368.04;  -14.800;  -16.200;    0.000; 1.40000
 368.34;   -9.933;    3.000;    0.000;-12.93333
 368.63;   11.467;  -20.667;    0.000;32.13333
 368.92;  -12.667;    2.067;    0.000;-14.73333
 369.21;    2.333;    3.067;    0.000;-0.73333
 369.50;    0.800;    7.933;    0.000;-7.13333
 369.80;   10.600;  -15.400;    0.000;26.00000
 370.09;    6.667;    5.533;    0.000; 1.13333
 370.38;   -6.667;  -22.867;    0.000;16.20000
 370.67;    4.400;   -5.000;    0.000; 9.40000
 370.96;    9.667;  -14.067;    0.000;23.73333
 371.26;    5.400;   -6.867;    0.000;12.26667
 371.55;   -9.867;  -33.467;    0.000;23.60000
 371.84;    5.000;   -8.267;    0.000;13.26667
 372.13;   12.867;   -8.733;    0.000;21.60000
 372.42;   11.533;   -8.733;    0.000;20.26667
 372.71;    3.733;   -1.800;    0.000; 5.53333
 373.01;   16.400;   -5.733;    0.000;22.13333
 373.30;  -13.267;  -22.067;    0.000; 8.80000
 373.59;   12.333;   -5.400;    0.000;17.73333
 373.88;   -0.667;  -15.667;    0.000;15.00000
 374.17;   14.933;   23.400;    0.000;-8.46667
 374.46;  -19.400;  -22.067;    0.000; 2.66667
 374.76;   -3.467;  -10.733;    0.000; 7.26667
 375.05;   27.400;   -3.067;    0.000;30.46667
 375.34;    4.400;  -14.933;    0.000;19.33333
 375.63;   -1.000;  -17.200;    0.000;16.20000
 375.92;    0.533;   -1.800;    0.000; 2.33333
 376.21;   -8.400;  -28.200;    0.000;19.80000
 376.51;    3.267;  -18.867;    0.000;22.13333
 376.80;    9.800;  -29.133;    0.000;38.93333
 377.09;   -7.267;   11.733;    0.000;-19.00000
 377.38;    9.733;  -10.067;    0.000;19.80000
 377.67;    6.200;   -1.600;    0.000; 7.80000
 377.96;   -4.733;  -24.000;    0.000;19.26667
 378.25;    6.000;   11.667;    0.000;-5.66667
 378.55;  -10.733;  -23.133;    0.000;12.40000
 378.84;    9.667;   -4.067;    0.000;13.73333
 379.13;   -1.733;  -22.667;    0.000;20.93333
 379.42;   15.400;   -7.267;    0.000;22.66667
 379.71;  -16.867;  -18.733;    0.000; 1.86667
 380.00;   12.867;   23.467;    0.000;-10.60000
 380.29;   -0.333;  -15.733;    0.000;15.40000
 380.59;  -19.400;    2.133;    0.000;-21.53333
 380.88;   -9.267;  -13.667;    0.000; 4.40000
 381.17;    8.800;   -5.333;    0.000;14.13333
 381.46;   21.867;   -2.133;    0.000;24.00000
 381.75;    4.067;   -5.133;    0.000; 9.20000
 382.04;    9.333;  -12.533;    0.000;21.86667
 382.33;   -6.067;   14.600;    0.000;-20.66667
 382.62;  -28.333;  -32.133;    0.000; 3.80000
 382.91;    1.200;    5.533;    0.000;-4.33333
 383.21;   -2.667;  -28.600;    0.000;25.93333
 383.50;  -15.133;  -18.067;    0.000; 2.93333
 383.79;  -11.333;  -37.533;    0.000;26.20000
 384.08;    1.600;    0.200;    0.000; 1.40000
 384.37;   11.000;  -32.467;    0.000;43.46667
 384.66;   -8.667;   -4.933;    0.000;-3.73333
 384.95;   13.400;  -25.867;    0.000;39.26667
 385.24;   -2.133;  -17.400;    0.000;15.26667
 385.53;   -6.467;   -4.800;    0.000;-1.66667
 385.83;  -10.667;  -14.267;    0.000; 3.60000
 386.12;   -0.600;  -13.133;    0.000;12.53333
 386.41;  -23.800;   -7.067;    0.000;-16.73333
 386.70;   -0.333;  -28.267;    0.000;27.93333
 386.99;   -2.267;    9.667;    0.000;-11.93333
 387.28;   17.933;  -11.200;    0.000;29.13333
 387.57;   16.733;   -1.200;    0.000;17.93333
 387.86;   -9.733;  -29.667;    0.000;19.93333
 388.15;  -15.867;   10.667;    0.000;-26.53333
 388.44;  -14.333;  -33.933;    0.000;19.60000
 388.73;    3.133;   -3.800;    0.000; 6.93333
 389.02;   -8.867;  -29.867;    0.000;21.00000
 389.31;  -12.267;   -3.400;    0.000;-8.86667
 389.61;   -2.933;  -22.600;    0.000;19.66667
 389.90;   21.067;    3.400;    0.000;17.66667
 390.19;  -16.067;  -35.000;    0.000;18.93333
 390.48;    2.267;   -6.267;    0.000; 8.53333
 390.77;   -6.467;  -17.533;    0.000;11.06667
 391.06;    5.733;  -17.667;    0.000;23.40000
 391.35;    3.333;  -27.867;    0.000;31.20000
 391.64;   16.733;   13.733;    0.000; 3.00000
 391.93;  -24.000;  -24.467;    0.000; 0.46667
 392.22;    8.067;    0.933;    0.000; 7.13333
 392.51;   -9.733;  -20.600;    0.000;10.86667
 392.80;   18.400;   10.667;    0.000; 7.73333
 393.09;  -18.933;  -39.000;    0.000;20.06667
 393.38;  -11.400;    2.133;    0.000;-13.53333
 393.67;   -2.067;  -34.333;    0.000;32.26667
 393.96;    4.400;    4.000;    0.000; 0.40000
 394.25;   12.733;  -19.800;    0.000;32.53333
 394.54;  -18.200;  -12.933;    0.000;-5.26667
 394.83;    1.267;  -25.867;    0.000;27.13333
 395.13;   -5.533;  -10.267;    0.000; 4.73333
 395.42;    5.200;  -30.600;    0.000;35.80000
 395.71;   11.400;   -1.467;    0.000;12.86667
 396.00;  -17.333;  -35.267;    0.000;17.93333
 396.29;    6.600;   -3.133;    0.000; 9.73333
 396.58;  -19.733;  -35.533;    0.000;15.80000
 396.87;    4.133;   -0.733;    0.000; 4.86667
 397.16;   -6.000;  -18.733;    0.000;12.73333
 397.45;    7.000;   -3.067;    0.000;10.06667
 397.74;  -27.000;  -38.600;    0.000;11.60000
 398.03;    1.467;  -15.000;    0.000;16.46667
 398.32;   -4.200;  -30.333;    0.000;26.13333
 398.61;   -5.000;   -2.000;    0.000;-3.00000
 398.90;    6.667;  -14.800;    0.000;21.46667
 399.19;    9.333;    7.667;    0.000; 1.66667
 399.48;  -11.467;  -27.867;    0.000;16.40000
 399.77;   -7.267;    8.600;    0.000;-15.86667
 400.06;    4.000;  -19.867;    0.000;23.86667
 400.35;   -3.200;   -2.067;    0.000;-1.13333
 400.64;  -15.800;  -49.067;    0.000;33.26667
 400.93;   -2.400;    5.800;    0.000;-8.20000
 401.22;   -1.600;  -34.600;    0.000;33.00000
 401.51;   13.067;    3.267;    0.000; 9.80000
 401.80;   11.467;  -19.067;    0.000;30.53333
 402.09;  -13.733;  -19.067;    0.000; 5.33333
 402.38;    9.733;  -10.800;    0.000;20.53333
 402.67;    2.200;   -3.333;    0.000; 5.53333
 402.96;  -12.267;  -16.533;    0.000; 4.26667
 403.25;    1.333;    7.200;    0.000;-5.86667
 403.54;   -6.800;  -19.133;    0.000;12.33333
 403.83;   -7.000;    2.200;    0.000;-9.20000
 404.12;  -11.200;  -28.600;    0.000;17.40000
 404.41;    5.467;    0.400;    0.000; 5.06667
 404.70;    0.733;  -39.333;    0.000;40.06667
 404.98;    2.933;    3.400;    0.000;-0.46667
 405.27;   -6.067;  -12.533;    0.000; 6.46667
 405.56;   10.467;    4.667;    0.000; 5.80000
 405.85;  -13.600;  -31.267;    0.000;17.66667
 406.14;   10.600;   -6.467;    0.000;17.06667
 406.43;   -9.267;   -8.000;    0.000;-1.26667
 406.72;  -11.467;   -2.600;    0.000;-8.86667
 407.01;   -9.267;  -38.133;    0.000;28.86667
 407.30;  -17.333;  -13.133;    0.000;-4.20000
 407.59;  -16.867;  -12.467;    0.000;-4.40000
 407.88;   -4.867;   -3.800;    0.000;-1.06667
 408.17;  -10.067;  -12.267;    0.000; 2.20000
 408.46;    0.533;  -19.533;    0.000;20.06667
 408.75;   -7.400;  -28.133;    0.000;20.73333
 409.04;   -9.800;    0.800;    0.000;-10.60000
 409.33;  -23.533;  -27.933;    0.000; 4.40000
 409.62;    7.467;   11.733;    0.000;-4.26667
 409.91;  -15.333;  -25.467;    0.000;10.13333
 410.20;    7.800;  -17.933;    0.000;25.73333
 410.48;   -4.333;  -15.333;    0.000;11.00000
 410.77;   -2.000;  -21.533;    0.000;19.53333
 411.06;    1.267;   -5.600;    0.000; 6.86667
 411.35;   11.867;    8.667;    0.000; 3.20000
 411.64;  -37.200;  -21.933;    0.000;-15.26667
 411.93;  -15.467;   -8.133;    0.000;-7.33333
 412.22;   -2.600;  -27.267;    0.000;24.66667
 412.51;   -3.067;   -9.133;    0.000; 6.06667
 412.80;  -19.267;  -15.533;    0.000;-3.73333
 413.09;    1.600;   -8.000;    0.000; 9.60000
 413.38;   -4.333;  -26.400;    0.000;22.06667
 413.67;   -9.000;   -9.533;    0.000; 0.53333
 413.96;  -45.067;  -33.000;    0.000;-12.06667
 414.24;   21.467;   11.133;    0.000;10.33333
 414.53;    2.667;   -7.867;    0.000;10.53333
 414.82;   -2.333;  -10.400;    0.000; 8.06667
 415.11;    4.733;  -13.333;    0.000;18.06667
 415.40;   25.333;   -9.867;    0.000;35.20000
 415.69;  -22.533;  -31.933;    0.000; 9.40000
 415.98;    3.000;   -4.667;    0.000; 7.66667
 416.27;  -20.400;  -43.133;    0.000;22.73334
 416.56;  -14.933;   -9.200;    0.000;-5.73333
 416.84;  -22.800;   -8.467;    0.000;-14.33333
 417.13;   -7.467;   -9.800;    0.000; 2.33333
 417.42;   16.467;  -14.133;    0.000;30.60000
 417.71;  -11.933;    2.667;    0.000;-14.60000
 418.00;   -6.067;  -34.200;    0.000;28.13333
 418.29;  -11.400;  -18.667;    0.000; 7.26667
 418.58;  -12.533;  -45.200;    0.000;32.66667
 418.87;    4.400;  -16.000;    0.000;20.40000
 419.15;   -6.267;  -22.800;    0.000;16.53333
 419.44;   -5.400;    8.867;    0.000;-14.26667
 419.73;    0.000;  -14.267;    0.000;14.26667
 420.02;   -0.133;   -5.867;    0.000; 5.73333
 420.31;  -19.267;  -38.000;    0.000;18.73333
 420.60;    5.533;  -26.067;    0.000;31.60000
 420.89;  -11.067;  -36.400;    0.000;25.33333
 421.18;    5.400;    6.067;    0.000;-0.66667
 421.46;   -6.667;    0.000;    0.000;-6.66667
 421.75;  -14.000;    3.867;    0.000;-17.86667
 422.04;  -13.200;  -33.600;    0.000;20.40000
 422.33;   16.267;   -1.200;    0.000;17.46667
 422.62;  -15.267;  -26.933;    0.000;11.66667
 422.91;    3.067;    0.733;    0.000; 2.33333
 423.19;  -27.733;  -30.133;    0.000; 2.40000
 423.48;    8.267;   16.667;    0.000;-8.40000
 423.77;  -10.933;  -31.933;    0.000;21.00000
 424.06;  -14.200;  -14.200;    0.000; 0.00000
 424.35;  -34.933;  -41.267;    0.000; 6.33333
 424.64;  -10.267;    9.200;    0.000;-19.46667
 424.93;  -16.133;  -30.733;    0.000;14.60000
 425.21;   -2.867;   -9.000;    0.000; 6.13333
 425.50;   -3.200;  -35.667;    0.000;32.46667
 425.79;    5.667;  -13.133;    0.000;18.80000
 426.08;   20.067;  -21.400;    0.000;41.46667
 426.37;    1.067;    6.933;    0.000;-5.86667
 426.65;  -16.733;  -43.467;    0.000;26.73333
 426.94;   -7.400;  -15.533;    0.000; 8.13333
 427.23;   -6.067;  -31.400;    0.000;25.33333
 427.52;   -0.400;  -20.733;    0.000;20.33333
 427.81;   -4.933;  -27.333;    0.000;22.40000
 428.10;   -4.667;  -21.467;    0.000;16.80000
 428.38;  -27.333;  -49.067;    0.000;21.73333
 428.67;    9.600;   -3.200;    0.000;12.80000
 428.96;  -25.467;  -40.733;    0.000;15.26667
 429.25;  -10.133;   -4.867;    0.000;-5.26667
 429.54;    1.800;  -35.133;    0.000;36.93334
 429.82;   19.400;    9.067;    0.000;10.33333
 430.11;    4.600;  -15.400;    0.000;20.00000
 430.40;    0.600;  -13.667;    0.000;14.26667
 430.69;    3.133;  -31.467;    0.000;34.60000
 430.98;   -5.867;   -4.067;    0.000;-1.80000
 431.26;  -14.400;  -21.933;    0.000; 7.53333
 431.55;   13.400;   -2.133;    0.000;15.53333
 431.84;   -2.200;  -38.400;    0.000;36.20000
 432.13;  -16.200;  -14.667;    0.000;-1.53333
 432.41;    3.000;  -19.000;    0.000;22.00000
 432.70;  -14.800;   -2.200;    0.000;-12.60000
 432.99;   -7.533;  -10.533;    0.000; 3.00000
 433.28;   -1.867;  -12.267;    0.000;10.40000
 433.57;   10.133;  -16.933;    0.000;27.06667
 433.85;    3.667;  -11.933;    0.000;15.60000
 434.14;    0.400;  -49.200;    0.000;49.60000
 434.43;    5.133;    5.933;    0.000;-0.80000
 434.72;  -15.800;   -8.533;    0.000;-7.26667
 435.00;   -8.533;  -30.667;    0.000;22.13333
 435.29;   -4.067;  -29.733;    0.000;25.66667
 435.58;    3.733;  -17.267;    0.000;21.00000
 435.87;  -10.267;  -31.200;    0.000;20.93333
 436.15;    0.333;  -13.267;    0.000;13.60000
 436.44;   -9.733;  -35.267;    0.000;25.53333
 436.73;   -4.400;  -11.867;    0.000; 7.46667
 437.02;  -21.933;  -26.600;    0.000; 4.66667
 437.30;  -18.467;  -12.933;    0.000;-5.53333
 437.59;  -19.600;  -34.200;    0.000;14.60000
 437.88;    4.400;  -14.800;    0.000;19.20000
 438.17;  -10.267;  -34.800;    0.000;24.53333
 438.45;  -12.733;  -25.533;    0.000;12.80000
 438.74;    3.933;  -37.333;    0.000;41.26667
 439.03;   10.867;   -9.000;    0.000;19.86667
 439.32;  -26.067;  -40.200;    0.000;14.13333
 439.60;  -10.600;    0.600;    0.000;-11.20000
 439.89;   -5.933;  -30.400;    0.000;24.46667
 440.18;  -17.200;  -15.133;    0.000;-2.06667
 440.46;  -24.733;  -37.133;    0.000;12.40000
 440.75;    4.467;  -18.200;    0.000;22.66667
 441.04;  -24.867;  -47.333;    0.000;22.46667
 441.33;    2.000;   -1.600;    0.000; 3.60000
 441.61;  -18.067;  -30.800;    0.000;12.73333
 441.90;    6.733;    0.333;    0.000; 6.40000
 442.19;  -21.667;  -26.067;    0.000; 4.40000
 442.47;   -0.933;  -19.800;    0.000;18.86667
 442.76;   -6.200;  -40.067;    0.000;33.86667
 443.05;   -5.600;  -11.600;    0.000; 6.00000
 443.34;  -25.400;  -25.800;    0.000; 0.40000
 443.62;    3.667;  -20.733;    0.000;24.40000
 443.91;  -24.867;  -45.600;    0.000;20.73333
 444.20;    6.867;   28.600;    0.000;-21.73333
 444.48;  -26.000;  -50.467;    0.000;24.46667
 444.77;    3.133;    9.067;    0.000;-5.93333
 445.06;   -7.600;  -16.600;    0.000; 9.00000
 445.34;   -3.800;  -20.467;    0.000;16.66667
 445.63;   -9.000;  -28.467;    0.000;19.46667
 445.92;   13.067;   21.933;    0.000;-8.86667
 446.21;   -7.000;  -36.000;    0.000;29.00000
 446.49;   -3.133;  -10.133;    0.000; 7.00000
 446.78;   -7.800;  -23.533;    0.000;15.73333
 447.07;  -25.067;   -4.600;    0.000;-20.46667
 447.35;   -2.533;  -38.933;    0.000;36.40000
 447.64;  -21.000;   -6.467;    0.000;-14.53333
 447.93;   -7.133;  -31.867;    0.000;24.73333
 448.21;   -9.733;  -11.800;    0.000; 2.06667
 448.50;  -13.867;  -16.133;    0.000; 2.26667
 448.79;  -19.667;  -11.400;    0.000;-8.26667
 449.07;  -19.133;  -51.800;    0.000;32.66667
 449.36;  -11.133;   -0.067;    0.000;-11.06667
 449.65;    3.200;  -49.800;    0.000;53.00000
 449.93;   13.867;   -6.133;    0.000;20.00000
 450.22;   -4.533;  -22.867;    0.000;18.33333
 450.51;   -8.933;  -22.133;    0.000;13.20000
 450.79;  -17.867;  -24.067;    0.000; 6.20000
 451.08;  -14.000;  -11.333;    0.000;-2.66667
 451.36;   -8.133;  -27.000;    0.000;18.86667
 451.65;   -3.267;   -0.133;    0.000;-3.13333
 451.94;   -1.800;  -21.467;    0.000;19.66667
 452.22;  -18.133;   -5.333;    0.000;-12.80000
 452.51;    4.067;  -38.133;    0.000;42.20000
 452.80;   -0.933;  -20.200;    0.000;19.26667
 453.08;   -6.267;  -54.067;    0.000;47.80000
 453.37;    6.733;   -1.533;    0.000; 8.26667
 453.66;  -23.867;  -67.267;    0.000;43.40000
 453.94;   -8.400;  -21.067;    0.000;12.66667
 454.23;  -22.267;  -33.467;    0.000;11.20000
 454.51;   -6.933;    8.600;    0.000;-15.53333
 454.80;  -24.667;  -50.133;    0.000;25.46667
 455.09;  -17.067;   15.533;    0.000;-32.60000
 455.37;   -5.867;   -7.933;    0.000; 2.06667
 455.66;   -2.467;   -8.600;    0.000; 6.13333
 455.95;  -12.133;  -15.533;    0.000; 3.40000
 456.23;   -6.867;   10.200;    0.000;-17.06667
 456.52;  -12.400;  -37.800;    0.000;25.40000
 456.80;  -13.333;  -12.200;    0.000;-1.13333
 457.09;  -27.800;  -37.600;    0.000; 9.80000
 457.38;   -7.333;    0.867;    0.000;-8.20000
 457.66;   -5.000;  -18.533;    0.000;13.53333
 457.95;  -25.400;  -27.000;    0.000; 1.60000
 458.23;   -4.133;  -14.467;    0.000;10.33333
 458.52;  -16.533;   -5.533;    0.000;-11.00000
 458.81;  -15.267;  -48.600;    0.000;33.33333
 459.09;  -18.067;  -25.133;    0.000; 7.06667
 459.38;   -7.267;  -52.800;    0.000;45.53333
 459.66;  -22.400;  -11.000;    0.000;-11.40000
 459.95;  -18.867;  -29.667;    0.000;10.80000
 460.23;    4.533;  -21.533;    0.000;26.06667
 460.52;  -23.733;  -24.267;    0.000; 0.53333
 460.81;    3.200;  -10.933;    0.000;14.13333
 461.09;  -26.067;  -37.400;    0.000;11.33333
 461.38;  -24.000;   -1.000;    0.000;-23.00000
 461.66;  -32.867;  -58.200;    0.000;25.33334
 461.95;    7.800;  -16.600;    0.000;24.40000
 462.23;  -17.800;  -34.200;    0.000;16.40000
 462.52;  -11.267;  -23.733;    0.000;12.46667
 462.81;  -26.267;  -35.667;    0.000; 9.40000
 463.09;  -21.067;  -16.800;    0.000;-4.26667
 463.38;   -5.933;  -35.467;    0.000;29.53333
 463.66;  -19.467;  -15.867;    0.000;-3.60000
 463.95;  -18.533;  -25.867;    0.000; 7.33333
 464.23;   -8.133;  -15.133;    0.000; 7.00000
 464.52;   -9.667;  -41.800;    0.000;32.13333
 464.80;   -6.600;  -23.533;    0.000;16.93333
 465.09;  -27.667;  -14.600;    0.000;-13.06667
 465.38;   -1.933;   -2.000;    0.000; 0.06667
 465.66;   -8.267;  -27.867;    0.000;19.60000
 465.95;   -6.067;  -12.000;    0.000; 5.93333
 466.23;  -25.667;  -42.333;    0.000;16.66667
 466.52;   -6.867;  -17.533;    0.000;10.66667
 466.80;    4.200;  -23.333;    0.000;27.53333
 467.09;  -26.333;   -3.533;    0.000;-22.80000
 467.37;    1.867;  -23.133;    0.000;25.00000
 467.66;   13.333;    7.667;    0.000; 5.66667
 467.94;  -12.667;  -44.267;    0.000;31.60000
 468.23;  -10.667;   -7.067;    0.000;-3.60000
 468.51;   -7.867;  -33.800;    0.000;25.93333
 468.80;  -15.600;  -24.067;    0.000; 8.46667
 469.08;   -3.867;  -10.333;    0.000; 6.46667
 469.37;  -15.133;    5.667;    0.000;-20.80000
 469.66;   -5.533;  -22.067;    0.000;16.53333
 469.94;   -3.467;  -14.600;    0.000;11.13333
 470.23;  -11.000;  -33.000;    0.000;22.00000
 470.51;    3.667;  -16.467;    0.000;20.13333
 470.80;   -6.000;  -18.667;    0.000;12.66667
 471.08;    6.600;  -21.800;    0.000;28.40000
 471.37;   -9.200;  -29.533;    0.000;20.33333
 471.65;    0.667;   -6.467;    0.000; 7.13333
 471.94;  -28.533;  -39.867;    0.000;11.33333
 472.22;  -20.267;  -11.800;    0.000;-8.46667
 472.51;  -28.200;  -34.800;    0.000; 6.60000
 472.79;  -14.600;   -6.467;    0.000;-8.13333
 473.08;    5.933;  -17.400;    0.000;23.33333
 473.36;  -12.533;   -0.533;    0.000;-12.00000
 473.64;  -21.067;  -38.467;    0.000;17.40000
 473.93;  -17.800;  -20.333;    0.000; 2.53333
 474.21;   -4.400;  -18.533;    0.000;14.13333
 474.50;    4.533;  -18.067;    0.000;22.60000
 474.78;    9.267;  -17.533;    0.000;26.80000
 475.07;  -20.933;  -25.133;    0.000; 4.20000
 475.35;  -27.400;  -41.067;    0.000;13.66667
 475.64;   -7.533;  -20.400;    0.000;12.86667
 475.92;  -10.933;  -35.400;    0.000;24.46667
 476.21;    4.933;    2.000;    0.000; 2.93333
 476.49;  -13.933;  -26.867;    0.000;12.93333
 476.78;  -10.933;  -28.933;    0.000;18.00000
 477.06;  -12.333;  -32.667;    0.000;20.33333
 477.35;    6.000;   -5.733;    0.000;11.73333
 477.63;  -23.600;  -30.200;    0.000; 6.60000
 477.91;  -21.067;  -15.400;    0.000;-5.66667
 478.20;  -18.000;  -38.667;    0.000;20.66667
 478.48;   43.867;   18.533;    0.000;25.33333
 478.77;  -18.667;  -20.667;    0.000; 2.00000
 479.05;  -10.733;  -27.000;    0.000;16.26667
 479.34;   -1.067;  -30.333;    0.000;29.26667
 479.62;   12.200;  -23.867;    0.000;36.06667
 479.91;  -23.467;  -36.733;    0.000;13.26667
 480.19;    6.800;   -6.800;    0.000;13.60000
 480.47;  -35.667;  -44.333;    0.000; 8.66666
 480.76;   -9.067;  -15.067;    0.000; 6.00000
 481.04;  -13.133;  -25.267;    0.000;12.13333
 481.33;    5.333;  -12.600;    0.000;17.93333
 481.61;  -29.067;  -30.133;    0.000; 1.06667
 481.90;  -18.800;  -34.733;    0.000;15.93333
 482.18;    3.000;  -37.800;    0.000;40.80000
 482.46;  -18.067;   -4.533;    0.000;-13.53333
 482.75;  -11.133;  -51.333;    0.000;40.20000
 483.03;  -13.600;   -4.867;    0.000;-8.73333
 483.32;    6.533;  -40.467;    0.000;47.00000
 483.60;   -5.133;  -12.733;    0.000; 7.60000
 483.88;  -10.067;  -46.133;    0.000;36.06667
 484.17;   24.867;  -14.600;    0.000;39.46667
 484.45;  -11.267;  -25.800;    0.000;14.53333
 484.74;    2.267;  -28.467;    0.000;30.73333
 485.02;   -5.267;  -37.200;    0.000;31.93333
 485.30;   10.867;  -33.267;    0.000;44.13333
 485.59;  -12.600;  -37.467;    0.000;24.86667
 485.87;   -1.533;  -13.333;    0.000;11.80000
 486.16;   -9.467;  -40.867;    0.000;31.40000
 486.44;   -3.600;  -25.933;    0.000;22.33333
 486.72;  -11.933;  -63.467;    0.000;51.53333
 487.01;    1.600;  -25.133;    0.000;26.73333
 487.29;   -6.267;  -32.000;    0.000;25.73333
 487.58;   -3.667;  -16.400;    0.000;12.73333
 487.86;    3.667;  -35.400;    0.000;39.06667
 488.14;   -7.800;   -8.667;    0.000; 0.86667
 488.43;  -18.133;  -43.267;    0.000;25.13333
 488.71;   -1.400;  -17.600;    0.000;16.20000
 488.99;   -4.400;  -47.200;    0.000;42.80000
 489.28;   20.733;  -23.067;    0.000;43.80000
 489.56;   11.733;  -36.000;    0.000;47.73333
 489.85;   -8.400;   -8.200;    0.000;-0.20000
 490.13;   15.067;  -22.933;    0.000;38.00000
 490.41;    1.400;  -10.933;    0.000;12.33333
 490.70;    6.867;  -38.600;    0.000;45.46667
 490.98;    3.800;  -19.267;    0.000;23.06667
 491.26;   35.267;  -46.533;    0.000;81.80000
 491.55;   24.267;  -30.933;    0.000;55.20000
 491.83;   21.467;  -39.600;    0.000;61.06667
 492.11;   65.733;  -21.733;    0.000;87.46666
 492.40;   43.867;  -46.600;    0.000;90.46666
 492.68;   49.133;  -16.200;    0.000;65.33334
 492.96;   40.200;  -48.733;    0.000;88.93333
 493.25;   66.533;   -2.267;    0.000;68.80000
 493.53;   59.000;  -41.467;    0.000;100.46667
 493.81;   70.133;  -20.133;    0.000;90.26666
 494.10;   77.733;  -28.067;    0.000;105.80000
 494.38;  105.533;  -11.867;    0.000;117.40000
 494.66;  104.267;  -52.267;    0.000;156.53334
 494.95;  136.000;  -23.933;    0.000;159.93333
 495.23;  141.733;  -46.600;    0.000;188.33334
 495.51;  160.200;   -5.933;    0.000;166.13333
 495.80;  160.800;  -45.667;    0.000;206.46667
 496.08;  196.133;  -10.467;    0.000;206.60000
 496.36;  233.867;  -39.533;    0.000;273.40000
 496.65;  259.667;  -27.333;    0.000;286.99999
 496.93;  234.533;  -31.800;    0.000;266.33334
 497.21;  305.267;  -12.600;    0.000;317.86666
 497.50;  308.067;  -34.600;    0.000;342.66668
 497.78;  347.533;  -14.733;    0.000;362.26666
 498.06;  380.133;  -47.200;    0.000;427.33333
 498.34;  429.667;  -15.067;    0.000;444.73332
 498.63;  430.067;  -46.800;    0.000;476.86668
 498.91;  482.867;  -19.133;    0.000;502.00000
 499.19;  532.267;  -43.333;    0.000;575.59999
 499.48;  568.000;  -10.867;    0.000;578.86667
 499.76;  602.867;  -41.333;    0.000;644.19997
 500.04;  645.000;   -9.800;    0.000;654.80000
 500.32;  684.200;  -50.933;    0.000;735.13335
 500.61;  750.933;  -26.000;    0.000;776.93335
 500.89;  764.600;  -35.667;    0.000;800.26664
 501.17;  824.267;  -37.467;    0.000;861.73333
 501.46;  877.067;  -40.267;    0.000;917.33332
 501.74;  949.267;  -33.667;    0.000;982.93333
 502.02; 1019.533;  -26.067;    0.000;1045.59999
 502.30; 1064.533;   -8.267;    0.000;1072.79999
 502.59; 1097.867;  -45.133;    0.000;1143.00003
 502.87; 1172.333;  -16.733;    0.000;1189.06671
 503.15; 1241.133;  -35.667;    0.000;1276.79997
 503.43; 1318.333;  -13.867;    0.000;1332.20004
 503.72; 1404.867;  -46.800;    0.000;1451.66670
 504.00; 1491.933;   -8.800;    0.000;1500.73335
 504.28; 1529.333;  -46.933;    0.000;1576.26671
 504.56; 1591.467;  -38.733;    0.000;1630.20001
 504.85; 1694.067;  -24.933;    0.000;1718.99998
 505.13; 1765.667;  -16.867;    0.000;1782.53329
 505.41; 1861.600;  -55.000;    0.000;1916.59998
 505.69; 1918.867;  -23.800;    0.000;1942.66670
 505.98; 1988.733;  -37.600;    0.000;2026.33327
 506.26; 2149.800;   -1.667;    0.000;2151.46672
 506.54; 2166.000;  -51.333;    0.000;2217.33333
 506.82; 2274.867;  -26.267;    0.000;2301.13337
 507.11; 2353.133;  -26.867;    0.000;2379.99997
 507.39; 2451.267;  -35.067;    0.000;2486.33327
 507.67; 2545.400;  -47.133;    0.000;2592.53324
 507.95; 2659.600;  -28.133;    0.000;2687.73343
 508.23; 2744.133;  -30.533;    0.000;2774.66663
 508.52; 2853.733;  -11.333;    0.000;2865.06673
 508.80; 2947.733;  -49.533;    0.000;2997.26673
 509.08; 3073.733;  -14.400;    0.000;3088.13340
 509.36; 3186.533;  -44.800;    0.000;3231.33345
 509.65; 3265.267;  -26.333;    0.000;3291.59994
 509.93; 3332.200;  -62.000;    0.000;3394.19995
 510.21; 3452.667;  -14.600;    0.000;3467.26675
 510.49; 3606.133;  -29.000;    0.000;3635.13330
 510.77; 3723.267;  -16.067;    0.000;3739.33327
 511.06; 3814.600;  -60.467;    0.000;3875.06676
 511.34; 3937.533;  -31.800;    0.000;3969.33345
 511.62; 4001.800;  -38.867;    0.000;4040.66671
 511.90; 4190.667;  -27.133;    0.000;4217.79984
 512.18; 4300.600;  -30.000;    0.000;4330.60010
 512.47; 4381.267;   -4.267;    0.000;4385.53327
 512.75; 4515.467;  -59.467;    0.000;4574.93346
 513.03; 4632.933;  -38.400;    0.000;4671.33311
 513.31; 4689.133;  -34.467;    0.000;4723.59997
 513.59; 4875.533;  -14.400;    0.000;4889.93320
 513.87; 4899.000;  -49.867;    0.000;4948.86666
 514.16; 5026.067;   -6.733;    0.000;5032.80023
 514.44; 5113.333;  -26.867;    0.000;5140.20016
 514.72; 5295.400;  -22.600;    0.000;5317.99990
 515.00; 5430.200;  -23.733;    0.000;5453.93353
 515.28; 5474.933;  -20.400;    0.000;5495.33311
 515.56; 5639.533;  -42.200;    0.000;5681.73320
 515.85; 5687.133;  -25.067;    0.000;5712.19997
 516.13; 5877.467;  -48.467;    0.000;5925.93346
 516.41; 5904.933;  -24.200;    0.000;5929.13311
 516.69; 6055.200;  -45.400;    0.000;6100.60020
 516.97; 6109.733;  -22.733;    0.000;6132.46673
 517.25; 6250.400;  -51.933;    0.000;6302.33324
 517.54; 6345.800;  -23.600;    0.000;6369.39981
 517.82; 6431.000;  -38.333;    0.000;6469.33333
 518.10; 6509.667;  -20.533;    0.000;6530.19984
 518.38; 6677.667;  -50.133;    0.000;6727.79984
 518.66; 6712.533;  -26.733;    0.000;6739.26654
 518.94; 6862.067;  -30.133;    0.000;6892.20023
 519.22; 6997.267;  -18.000;    0.000;7015.26660
 519.51; 6992.733;  -45.067;    0.000;7037.80006
 519.79; 7106.600;  -24.667;    0.000;7131.26676
 520.07; 7253.067;  -33.800;    0.000;7286.86689
 520.35; 7314.933;  -32.400;    0.000;7347.33311
 520.63; 7452.400;  -32.800;    0.000;7485.19990
 520.91; 7431.733;  -22.600;    0.000;7454.33340
 521.19; 7713.400;  -53.333;    0.000;7766.73323
 521.47; 7802.133;  -13.267;    0.000;7815.39997
 521.75; 7887.533;  -47.000;    0.000;7934.53320
 522.04; 8022.667;  -23.733;    0.000;8046.39984
 522.32; 7967.533;  -45.200;    0.000;8012.73320
 522.60; 8099.267;  -11.600;    0.000;8110.86660
 522.88; 8174.000;  -36.667;    0.000;8210.66667
 523.16; 8256.267;  -28.400;    0.000;8284.66660
 523.44; 8417.533;  -14.467;    0.000;8431.99987
 523.72; 8430.733;  -13.267;    0.000;8444.00006
 524.00; 8530.533;  -40.867;    0.000;8571.39987
 524.28; 8682.866;    6.733;    0.000;8676.13288
 524.57; 8724.733;  -42.733;    0.000;8767.46673
 524.85; 8773.267;  -32.400;    0.000;8805.66660
 525.13; 8822.200;  -29.000;    0.000;8851.20020
 525.41; 8928.800;  -21.067;    0.000;8949.86647
 525.69; 9059.333;  -26.933;    0.000;9086.26634
 525.97; 9038.667;    0.533;    0.000;9038.13366
 526.25; 9130.000;  -38.933;    0.000;9168.93333
 526.53; 9248.066;  -14.667;    0.000;9262.73307
 526.81; 9225.467;  -60.333;    0.000;9285.80013
 527.09; 9380.667;  -26.667;    0.000;9407.33366
 527.37; 9346.400;  -51.133;    0.000;9397.53373
 527.65; 9471.733;  -17.400;    0.000;9489.13340
 527.93; 9580.533;  -46.067;    0.000;9626.59987
 528.22; 9553.934;  -21.333;    0.000;9575.26693
 528.50; 9689.733;  -55.600;    0.000;9745.33340
 528.78; 9703.733;  -34.200;    0.000;9737.93340
 529.06; 9875.533;  -36.733;    0.000;9912.26654
 529.34; 9805.934;  -11.867;    0.000;9817.80026
 529.62; 9897.800;  -47.733;    0.000;9945.53314
 529.90; 9944.066;  -21.133;    0.000;9965.19974
 530.18;10039.800;  -65.600;    0.000;10105.39980
 530.46;10110.000;  -12.400;    0.000;10122.40000
 530.74;10155.934;  -28.067;    0.000;10184.00026
 531.02;10183.533;   -6.067;    0.000;10189.59987
 531.30;10291.533;  -51.800;    0.000;10343.33320
 531.58;10376.467;  -18.467;    0.000;10394.93346
 531.86;10393.600;  -36.867;    0.000;10430.46627
 532.14;10475.667;  -11.133;    0.000;10486.80033
 532.42;10570.333;  -30.600;    0.000;10600.93301
 532.70;10613.533;   -0.133;    0.000;10613.66654
 532.98;10528.333;  -53.867;    0.000;10582.19967
 533.26;10601.866;  -15.467;    0.000;10617.33288
 533.54;10687.600;  -43.467;    0.000;10731.06628
 533.82;10748.000;  -13.333;    0.000;10761.33333
 534.10;10760.333;  -46.267;    0.000;10806.59967
 534.38;10939.267;  -28.467;    0.000;10967.73327
 534.66;10810.066;  -50.933;    0.000;10860.99974
 534.94;10923.333;  -10.667;    0.000;10933.99967
 535.22;10944.866;  -48.800;    0.000;10993.66621
 535.50;11068.066;  -23.733;    0.000;11091.79974
 535.78;11083.600;  -53.200;    0.000;11136.79961
 536.06;11065.333;  -37.733;    0.000;11103.06634
 536.34;11145.800;  -44.333;    0.000;11190.13314
 536.62;11222.600;  -12.533;    0.000;11235.13294
 536.90;11256.600;  -60.200;    0.000;11316.79961
 537.18;11214.000;  -28.467;    0.000;11242.46667
 537.46;11320.800;  -37.067;    0.000;11357.86647
 537.74;11360.000;  -14.933;    0.000;11374.93333
 538.02;11283.600;  -36.333;    0.000;11319.93294
 538.30;11474.134;   -7.333;    0.000;11481.46712
 538.58;11472.733;  -40.467;    0.000;11513.20007
 538.86;11538.733;  -21.133;    0.000;11559.86673
 539.14;11487.667;  -43.467;    0.000;11531.13366
 539.42;11631.533;   -9.800;    0.000;11641.33320
 539.70;11584.667;  -48.867;    0.000;11633.53366
 539.98;11597.000;    3.333;    0.000;11593.66667
 540.26;11667.333;  -64.467;    0.000;11731.79967
 540.54;11763.667;  -40.867;    0.000;11804.53366
 540.82;11703.733;  -55.400;    0.000;11759.13340
 541.10;11760.200;  -45.600;    0.000;11805.80019
 541.38;11913.800;  -66.533;    0.000;11980.33314
 541.66;11885.733;  -19.067;    0.000;11904.80007
 541.94;11958.066;  -55.933;    0.000;12013.99974
 542.22;12020.733;  -25.200;    0.000;12045.93340
 542.50;11949.134;  -18.800;    0.000;11967.93379
 542.78;12052.200;  -40.000;    0.000;12092.20020
 543.06;12038.134;  -41.733;    0.000;12079.86712
 543.34;12033.134;  -15.467;    0.000;12048.60046
 543.62;12212.934;  -41.133;    0.000;12254.06693
 543.90;12122.733;  -33.800;    0.000;12156.53340
 544.17;12132.200;  -40.333;    0.000;12172.53353
 544.45;12190.267;  -32.533;    0.000;12222.79993
 544.73;12192.400;  -39.733;    0.000;12232.13372
 545.01;12235.667;  -19.733;    0.000;12255.40033
 545.29;12316.000;  -50.733;    0.000;12366.73333
 545.57;12336.800;  -23.733;    0.000;12360.53314
 545.85;12244.934;  -34.867;    0.000;12279.80026
 546.13;12345.733;   -6.267;    0.000;12352.00007
 546.41;12418.267;  -32.067;    0.000;12450.33327
 546.69;12421.000;  -37.467;    0.000;12458.46667
 546.97;12369.600;  -44.000;    0.000;12413.59961
 547.25;12404.733;  -42.733;    0.000;12447.46673
 547.52;12385.667;  -50.667;    0.000;12436.33366
 547.80;12615.066;  -17.400;    0.000;12632.46641
 548.08;12499.400;  -42.133;    0.000;12541.53373
 548.36;12454.134;  -25.067;    0.000;12479.20046
 548.64;12525.066;  -39.400;    0.000;12564.46641
 548.92;12568.800;  -25.667;    0.000;12594.46647
 549.20;12649.200;  -52.067;    0.000;12701.26686
 549.48;12658.134;   -5.200;    0.000;12663.33379
 549.76;12610.000;  -44.800;    0.000;12654.80000
 550.04;12627.800;  -11.400;    0.000;12639.19980
 550.31;12661.667;  -32.800;    0.000;12694.46699
 550.59;12557.333;  -22.600;    0.000;12579.93301
 550.87;12647.600;  -48.133;    0.000;12695.73294
 551.15;12648.267;  -24.600;    0.000;12672.86660
 551.43;12715.667;  -45.200;    0.000;12760.86699
 551.71;12657.733;  -31.067;    0.000;12688.80007
 551.99;12731.200;  -23.600;    0.000;12754.80020
 552.27;12684.934;  -25.133;    0.000;12710.06693
 552.54;12756.066;  -45.600;    0.000;12801.66640
 552.82;12749.400;  -36.600;    0.000;12786.00039
 553.10;12793.934;  -48.200;    0.000;12842.13359
 553.38;12769.533;  -24.400;    0.000;12793.93320
 553.66;12833.800;  -39.533;    0.000;12873.33314
 553.94;12852.667;   -9.667;    0.000;12862.33366
 554.22;12819.934;  -32.000;    0.000;12851.93359
 554.49;12772.066;  -14.933;    0.000;12786.99974
 554.77;12827.667;  -43.400;    0.000;12871.06699
 555.05;12855.400;  -22.200;    0.000;12877.60039
 555.33;12780.600;  -60.533;    0.000;12841.13294
 555.61;12804.800;  -20.600;    0.000;12825.39981
 555.89;12858.333;  -74.400;    0.000;12932.73301
 556.16;12837.267;  -38.267;    0.000;12875.53327
 556.44;12815.467;  -38.600;    0.000;12854.06680
 556.72;12833.866;  -18.867;    0.000;12852.73288
 557.00;12846.400;  -55.733;    0.000;12902.13372
 557.28;12967.267;  -21.133;    0.000;12988.39993
 557.56;12881.600;  -58.533;    0.000;12940.13294
 557.83;12865.866;  -10.533;    0.000;12876.39954
 558.11;12897.134;  -45.733;    0.000;12942.86712
 558.39;12817.667;  -24.067;    0.000;12841.73366
 558.67;12888.800;  -43.267;    0.000;12932.06647
 558.95;12847.533;  -43.267;    0.000;12890.79987
 559.23;12788.533;  -47.267;    0.000;12835.79987
 559.50;12801.733;  -46.000;    0.000;12847.73340
 559.78;12868.467;  -52.200;    0.000;12920.66680
 560.06;12884.200;  -27.067;    0.000;12911.26686
 560.34;12774.866;  -54.200;    0.000;12829.06621
 560.62;12793.733;  -40.467;    0.000;12834.20007
 560.89;12759.467;  -30.333;    0.000;12789.80013
 561.17;12803.333;  -20.333;    0.000;12823.66634
 561.45;12752.066;  -47.533;    0.000;12799.59974
 561.73;12741.934;  -45.200;    0.000;12787.13359
 562.00;12695.667;  -32.133;    0.000;12727.80033
 562.28;12730.800;  -21.200;    0.000;12751.99981
 562.56;12672.467;  -52.733;    0.000;12725.20013
 562.84;12677.400;  -27.800;    0.000;12705.20039
 563.12;12611.333;  -60.067;    0.000;12671.39967
 563.39;12681.000;  -36.000;    0.000;12717.00000
 563.67;12631.667;  -40.267;    0.000;12671.93366
 563.95;12672.400;  -29.733;    0.000;12702.13372
 564.23;12679.267;  -34.267;    0.000;12713.53327
 564.50;12634.066;  -28.333;    0.000;12662.39974
 564.78;12673.000;  -43.867;    0.000;12716.86666
 565.06;12485.866;  -21.133;    0.000;12506.99954
 565.34;12567.467;  -29.267;    0.000;12596.73346
 565.61;12599.467;  -24.333;    0.000;12623.80013
 565.89;12511.667;  -39.800;    0.000;12551.46699
 566.17;12489.667;  -22.867;    0.000;12512.53366
 566.45;12501.467;  -36.267;    0.000;12537.73346
 566.73;12555.267;  -43.067;    0.000;12598.33327
 567.00;12509.866;  -53.600;    0.000;12563.46621
 567.28;12340.733;  -38.533;    0.000;12379.26673
 567.56;12402.667;  -66.200;    0.000;12468.86699
 567.83;12405.934;  -15.267;    0.000;12421.20026
 568.11;12384.267;  -58.800;    0.000;12443.06660
 568.39;12291.934;  -16.333;    0.000;12308.26693
 568.67;12290.200;  -49.867;    0.000;12340.06686
 568.94;12257.866;  -40.733;    0.000;12298.59954
 569.22;12281.134;  -39.733;    0.000;12320.86712
 569.50;12189.200;  -41.800;    0.000;12231.00019
 569.78;12160.600;  -31.733;    0.000;12192.33294
 570.05;12154.800;  -59.667;    0.000;12214.46647
 570.33;12094.066;  -57.133;    0.000;12151.19974
 570.61;12079.866;  -30.067;    0.000;12109.93288
 570.88;12044.667;  -61.133;    0.000;12105.80033
 571.16;12059.267;  -33.800;    0.000;12093.06660
 571.44;11916.134;  -58.867;    0.000;11975.00045
 571.72;11923.134;  -25.267;    0.000;11948.40046
 571.99;11848.134;  -35.400;    0.000;11883.53379
 572.27;11953.667;  -30.267;    0.000;11983.93366
 572.55;11905.267;  -62.800;    0.000;11968.06660
 572.82;11830.267;  -27.133;    0.000;11857.39993
 573.10;11823.066;  -41.067;    0.000;11864.13307
 573.38;11791.134;  -39.733;    0.000;11830.86712
 573.65;11767.600;  -20.533;    0.000;11788.13294
 573.93;11727.267;  -18.467;    0.000;11745.73327
 574.21;11782.000;  -48.867;    0.000;11830.86666
 574.48;11565.533;  -26.667;    0.000;11592.19987
 574.76;11629.934;  -36.267;    0.000;11666.20026
 575.04;11607.866;  -21.800;    0.000;11629.66621
 575.32;11524.733;  -33.733;    0.000;11558.46673
 575.59;11357.400;  -31.000;    0.000;11388.40039
 575.87;11494.934;  -57.333;    0.000;11552.26693
 576.15;11375.134;  -26.067;    0.000;11401.20046
 576.42;11406.134;  -57.533;    0.000;11463.66712
 576.70;11249.400;  -43.800;    0.000;11293.20039
 576.98;11241.667;  -61.933;    0.000;11303.60033
 577.25;11234.800;  -31.733;    0.000;11266.53314
 577.53;11233.267;  -45.533;    0.000;11278.79993
 577.80;11129.400;  -24.133;    0.000;11153.53372
 578.08;11169.866;  -58.333;    0.000;11228.19954
 578.36;11067.267;  -26.333;    0.000;11093.59994
 578.63;10952.200;  -59.600;    0.000;11011.80019
 578.91;10968.134;  -16.533;    0.000;10984.66712
 579.19;10891.866;  -31.133;    0.000;10922.99954
 579.46;10934.934;  -36.933;    0.000;10971.86693
 579.74;10917.533;  -37.200;    0.000;10954.73320
 580.02;10860.733;  -15.267;    0.000;10876.00006
 580.29;10744.400;  -44.933;    0.000;10789.33372
 580.57;10725.533;  -32.933;    0.000;10758.46654
 580.84;10649.400;  -45.067;    0.000;10694.46706
 581.12;10644.667;  -25.467;    0.000;10670.13366
 581.40;10668.733;  -65.800;    0.000;10734.53340
 581.67;10450.800;   -5.933;    0.000;10456.73314
 581.95;10520.200;  -53.467;    0.000;10573.66686
 582.23;10330.533;  -29.533;    0.000;10360.06654
 582.50;10373.200;  -59.400;    0.000;10432.60020
 582.78;10338.200;  -34.733;    0.000;10372.93353
 583.05;10270.733;  -49.933;    0.000;10320.66673
 583.33;10180.533;  -24.733;    0.000;10205.26654
 583.61;10185.800;  -59.000;    0.000;10244.79980
 583.88;10143.467;  -37.933;    0.000;10181.40013
 584.16;10067.533;  -49.733;    0.000;10117.26654
 584.43;10032.267;  -30.933;    0.000;10063.19993
 584.71;10002.600;  -50.067;    0.000;10052.66628
 584.99; 9892.533;  -19.133;    0.000;9911.66654
 585.26; 9835.866;  -49.667;    0.000;9885.53288
 585.54; 9773.000;  -42.533;    0.000;9815.53333
 585.81; 9725.066;  -50.600;    0.000;9775.66640
 586.09; 9747.800;  -22.800;    0.000;9770.59980
 586.37; 9588.467;  -45.400;    0.000;9633.86680
 586.64; 9632.267;  -37.600;    0.000;9669.86660
 586.92; 9627.934;  -47.467;    0.000;9675.40026
 587.19; 9504.667;  -32.400;    0.000;9537.06699
 587.47; 9445.267;  -59.467;    0.000;9504.73327
 587.74; 9426.333;  -47.533;    0.000;9473.86634
 588.02; 9364.667;  -49.533;    0.000;9414.20033
 588.30; 9278.066;  -21.600;    0.000;9299.66641
 588.57; 9254.200;  -56.733;    0.000;9310.93353
 588.85; 9122.934;  -23.667;    0.000;9146.60026
 589.12; 9122.267;  -54.600;    0.000;9176.86660
 589.40; 9131.733;  -30.133;    0.000;9161.86673
 589.67; 9113.267;  -45.400;    0.000;9158.66660
 589.95; 9042.066;  -41.067;    0.000;9083.13307
 590.22; 9044.400;  -63.467;    0.000;9107.86706
 590.50; 8881.934;  -33.133;    0.000;8915.06693
 590.77; 8910.667;  -47.400;    0.000;8958.06699
 591.05; 8781.800;  -41.933;    0.000;8823.73314
 591.33; 8785.400;  -46.667;    0.000;8832.06706
 591.60; 8760.667;  -57.533;    0.000;8818.20033
 591.88; 8606.866;  -55.933;    0.000;8662.79955
 592.15; 8611.267;  -45.267;    0.000;8656.53327
 592.43; 8496.333;  -53.733;    0.000;8550.06634
 592.70; 8568.267;  -33.133;    0.000;8601.39994
 592.98; 8488.200;  -42.733;    0.000;8530.93353
 593.25; 8422.066;  -22.333;    0.000;8444.39974
 593.53; 8314.400;  -58.200;    0.000;8372.60039
 593.80; 8274.533;  -42.067;    0.000;8316.59987
 594.08; 8192.600;  -51.200;    0.000;8243.79961
 594.35; 8210.800;  -28.667;    0.000;8239.46647
 594.63; 8120.733;  -33.800;    0.000;8154.53340
 594.90; 8046.667;  -37.600;    0.000;8084.26650
 595.18; 8055.333;  -43.867;    0.000;8099.20016
 595.45; 8031.133;  -11.933;    0.000;8043.06663
 595.73; 7938.133;  -37.933;    0.000;7976.06664
 596.00; 7784.200;  -36.600;    0.000;7820.80019
 596.28; 7718.867;  -69.133;    0.000;7788.00003
 596.55; 7771.733;  -37.067;    0.000;7808.80006
 596.83; 7687.733;  -50.267;    0.000;7738.00006
 597.10; 7658.600;  -19.667;    0.000;7678.26676
 597.38; 7583.800;  -42.800;    0.000;7626.59980
 597.65; 7501.067;  -40.133;    0.000;7541.20023
 597.93; 7459.933;  -55.800;    0.000;7515.73310
 598.20; 7488.933;  -42.467;    0.000;7531.39977
 598.48; 7386.133;  -47.600;    0.000;7433.73330
 598.75; 7304.867;  -32.133;    0.000;7337.00003
 599.03; 7255.000;  -47.800;    0.000;7302.80000
 599.30; 7261.067;  -38.600;    0.000;7299.66689
 599.58; 7175.000;  -54.467;    0.000;7229.46667
 599.85; 7077.133;  -21.333;    0.000;7098.46663
 600.12; 7030.733;  -45.733;    0.000;7076.46673
 600.40; 6975.333;  -32.067;    0.000;7007.40016
 600.67; 6969.867;  -56.200;    0.000;7026.06670
 600.95; 6878.333;  -26.000;    0.000;6904.33350
 601.22; 6872.467;  -43.800;    0.000;6916.26680
 601.50; 6835.733;  -25.467;    0.000;6861.20007
 601.77; 6758.200;  -48.933;    0.000;6807.13353
 602.05; 6710.067;   -1.667;    0.000;6711.73356
 602.32; 6723.667;  -31.400;    0.000;6755.06650
 602.59; 6616.400;  -27.667;    0.000;6644.06657
 602.87; 6592.800;  -44.400;    0.000;6637.19981
 603.14; 6500.267;  -34.000;    0.000;6534.26660
 603.42; 6446.800;  -56.733;    0.000;6503.53314
 603.69; 6442.667;  -55.200;    0.000;6497.86650
 603.97; 6392.200;  -65.533;    0.000;6457.73353
 604.24; 6280.600;  -35.933;    0.000;6316.53343
 604.51; 6294.600;  -46.333;    0.000;6340.93343
 604.79; 6284.800;  -48.600;    0.000;6333.39980
 605.06; 6259.067;  -39.667;    0.000;6298.73356
 605.34; 6127.333;  -24.600;    0.000;6151.93350
 605.61; 6118.200;  -58.000;    0.000;6176.20020
 605.89; 6082.133;  -28.867;    0.000;6110.99997
 606.16; 6045.600;  -49.333;    0.000;6094.93343
 606.43; 6078.067;  -36.133;    0.000;6114.20023
 606.71; 5973.200;  -40.533;    0.000;6013.73353
 606.98; 5959.733;  -41.867;    0.000;6001.60006
 607.26; 5850.400;  -50.333;    0.000;5900.73323
 607.53; 5854.267;  -54.333;    0.000;5908.59993
 607.80; 5784.600;  -56.867;    0.000;5841.46676
 608.08; 5721.333;  -19.867;    0.000;5741.20016
 608.35; 5761.067;  -74.133;    0.000;5835.20023
 608.62; 5762.333;  -38.067;    0.000;5800.40016
 608.90; 5653.733;  -52.800;    0.000;5706.53340
 609.17; 5694.600;  -37.533;    0.000;5732.13343
 609.45; 5620.600;  -36.200;    0.000;5656.80010
 609.72; 5590.933;  -46.800;    0.000;5637.73310
 609.99; 5556.267;  -53.200;    0.000;5609.46660
 610.27; 5502.600;  -36.133;    0.000;5538.73343
 610.54; 5426.533;  -68.133;    0.000;5494.66653
 610.81; 5373.667;  -37.600;    0.000;5411.26650
 611.09; 5285.600;  -51.533;    0.000;5337.13343
 611.36; 5379.000;  -29.200;    0.000;5408.20000
 611.64; 5345.067;  -59.867;    0.000;5404.93356
 611.91; 5298.800;  -32.800;    0.000;5331.59980
 612.18; 5239.533;  -41.600;    0.000;5281.13320
 612.46; 5099.600;  -28.533;    0.000;5128.13343
 612.73; 5140.733;  -66.000;    0.000;5206.73340
 613.00; 5134.133;  -49.333;    0.000;5183.46663
 613.28; 5117.067;  -52.667;    0.000;5169.73356
 613.55; 5088.800;  -38.733;    0.000;5127.53314
 613.82; 5036.533;  -55.733;    0.000;5092.26654
 614.10; 4932.667;  -28.467;    0.000;4961.13317
 614.37; 5004.333;  -71.600;    0.000;5075.93349
 614.64; 4854.400;  -60.400;    0.000;4914.79990
 614.92; 4731.400;  -47.533;    0.000;4778.93324
 615.19; 4828.867;  -17.667;    0.000;4846.53337
 615.46; 4677.533;  -50.867;    0.000;4728.39987
 615.74; 4654.933;  -31.867;    0.000;4686.79977
 616.01; 4551.600;  -82.267;    0.000;4633.86677
 616.28; 4442.133;  -25.533;    0.000;4467.66663
 616.56; 4353.667;  -50.467;    0.000;4404.13317
 616.83; 4342.733;  -22.933;    0.000;4365.66673
 617.10; 4303.467;  -60.533;    0.000;4364.00013
 617.37; 4259.533;  -40.933;    0.000;4300.46654
 617.65; 4301.067;  -53.933;    0.000;4355.00023
 617.92; 4387.067;  -18.867;    0.000;4405.93356
 618.19; 4330.467;  -65.933;    0.000;4396.40013
 618.47; 4330.000;  -38.800;    0.000;4368.80000
 618.74; 4295.733;  -72.067;    0.000;4367.80006
 619.01; 4259.933;  -46.133;    0.000;4306.06644
 619.28; 4218.467;  -51.267;    0.000;4269.73346
 619.56; 4220.200;  -42.733;    0.000;4262.93353
 619.83; 4186.467;  -46.200;    0.000;4232.66680
 620.10; 4224.133;  -19.400;    0.000;4243.53330
 620.38; 4088.267;  -58.933;    0.000;4147.19994
 620.65; 4138.933;  -45.333;    0.000;4184.26644
 620.92; 4162.000;  -58.867;    0.000;4220.86666
 621.19; 4097.067;  -33.667;    0.000;4130.73356
 621.47; 4122.133;  -57.333;    0.000;4179.46663
 621.74; 4131.800;  -37.000;    0.000;4168.79980
 622.01; 4118.800;  -58.933;    0.000;4177.73314
 622.28; 4124.200;  -46.800;    0.000;4171.00019
 622.56; 4072.800;  -46.667;    0.000;4119.46672
 622.83; 4103.000;  -41.067;    0.000;4144.06667
 623.10; 3989.000;  -66.400;    0.000;4055.40000
 623.38; 3979.200;  -40.467;    0.000;4019.66662
 623.65; 4026.267;  -37.600;    0.000;4063.86660
 623.92; 4024.267;  -40.333;    0.000;4064.59993
 624.19; 3985.133;  -71.333;    0.000;4056.46664
 624.46; 3919.867;  -29.133;    0.000;3949.00003
 624.74; 3895.933;  -48.867;    0.000;3944.80001
 625.01; 4029.067;  -27.933;    0.000;4056.99998
 625.28; 3900.933;  -59.200;    0.000;3960.13335
 625.55; 3957.267;  -34.667;    0.000;3991.93327
 625.83; 3808.333;  -46.267;    0.000;3854.59992
 626.10; 3931.400;  -31.733;    0.000;3963.13324
 626.37; 3885.600;  -56.000;    0.000;3941.60010
 626.64; 3853.267;  -52.067;    0.000;3905.33327
 626.92; 3820.600;  -47.000;    0.000;3867.60010
 627.19; 3762.667;  -42.067;    0.000;3804.73341
 627.46; 3853.667;  -47.800;    0.000;3901.46675
 627.73; 3811.933;  -43.467;    0.000;3855.40002
 628.00; 3744.733;  -78.000;    0.000;3822.73340
 628.28; 3660.467;  -40.933;    0.000;3701.39989
 628.55; 3725.200;  -58.933;    0.000;3784.13329
 628.82; 3742.733;  -37.867;    0.000;3780.60006
 629.09; 3687.267;  -66.733;    0.000;3753.99993
 629.36; 3653.333;  -41.667;    0.000;3694.99992
 629.64; 3647.733;  -46.600;    0.000;3694.33340
 629.91; 3571.533;  -41.667;    0.000;3613.20012
 630.18; 3591.333;  -49.067;    0.000;3640.39992
 630.45; 3520.133;  -44.067;    0.000;3564.19997
 630.72; 3548.933;  -63.267;    0.000;3612.20002
 631.00; 3544.867;  -53.400;    0.000;3598.26670
 631.27; 3577.533;  -51.600;    0.000;3629.13345
 631.54; 3576.267;  -37.400;    0.000;3613.66660
 631.81; 3535.867;  -57.467;    0.000;3593.33337
 632.08; 3509.533;  -32.533;    0.000;3542.06678
 632.35; 3530.800;  -38.200;    0.000;3569.00005
 632.63; 3440.800;  -45.533;    0.000;3486.33338
 632.90; 3468.333;  -69.600;    0.000;3537.93325
 633.17; 3446.000;  -41.933;    0.000;3487.93333
 633.44; 3405.267;  -71.667;    0.000;3476.93327
 633.71; 3378.400;  -41.933;    0.000;3420.33324
 633.98; 3434.000;  -44.400;    0.000;3478.40000
 634.25; 3379.733;  -54.333;    0.000;3434.06673
 634.53; 3374.800;  -51.267;    0.000;3426.06672
 634.80; 3409.333;  -46.000;    0.000;3455.33325
 635.07; 3369.133;  -57.467;    0.000;3426.59997
 635.34; 3405.867;  -22.200;    0.000;3428.06670
 635.61; 3353.333;  -52.933;    0.000;3406.26659
 635.88; 3371.333;  -29.600;    0.000;3400.93325
 636.15; 3376.600;  -57.867;    0.000;3434.46676
 636.43; 3337.467;  -30.933;    0.000;3368.39989
 636.70; 3405.067;  -63.000;    0.000;3468.06665
 636.97; 3402.600;  -22.200;    0.000;3424.80010
 637.24; 3337.867;  -53.333;    0.000;3391.20003
 637.51; 3279.067;  -17.200;    0.000;3296.26665
 637.78; 3237.467;  -59.733;    0.000;3297.19989
 638.05; 3236.800;  -43.067;    0.000;3279.86671
 638.32; 3189.667;  -62.733;    0.000;3252.40008
 638.60; 3167.200;  -31.133;    0.000;3198.33328
 638.87; 3166.733;  -75.133;    0.000;3241.86673
 639.14; 3102.533;  -20.533;    0.000;3123.06678
 639.41; 3154.267;  -29.000;    0.000;3183.26660
 639.68; 3117.533;  -38.467;    0.000;3156.00011
 639.95; 2999.800;  -73.867;    0.000;3073.66672
 640.22; 3063.800;  -28.000;    0.000;3091.80005
 640.49; 2996.333;  -48.733;    0.000;3045.06659
 640.76; 2988.267;  -50.267;    0.000;3038.53327
 641.03; 2931.333;  -55.067;    0.000;2986.39992
 641.30; 2943.733;  -31.733;    0.000;2975.46673
 641.58; 2900.467;  -50.733;    0.000;2951.19989
 641.85; 2863.933;  -39.200;    0.000;2903.13335
 642.12; 2856.933;  -69.200;    0.000;2926.13335
 642.39; 2822.000;  -41.467;    0.000;2863.46667
 642.66; 2796.067;  -59.200;    0.000;2855.26665
 642.93; 2775.067;  -27.533;    0.000;2802.59998
 643.20; 2757.000;  -58.467;    0.000;2815.46667
 643.47; 2717.067;  -45.400;    0.000;2762.46665
 643.74; 2734.667;  -71.067;    0.000;2805.73341
 644.01; 2693.467;  -44.667;    0.000;2738.13322
 644.28; 2650.933;  -62.667;    0.000;2713.60002
 644.55; 2671.600;  -43.267;    0.000;2714.86676
 644.82; 2636.267;  -38.400;    0.000;2674.66660
 645.09; 2611.000;  -26.733;    0.000;2637.73333
 645.36; 2600.200;  -62.733;    0.000;2662.93328
 645.63; 2582.267;  -37.733;    0.000;2619.99994
 645.91; 2522.267;  -52.333;    0.000;2574.59993
 646.18; 2590.867;  -17.267;    0.000;2608.13337
 646.45; 2546.733;  -63.000;    0.000;2609.73340
 646.72; 2529.933;  -36.933;    0.000;2566.86668
 646.99; 2482.933;  -63.667;    0.000;2546.60002
 647.26; 2527.533;  -26.200;    0.000;2553.73345
 647.53; 2448.133;  -67.733;    0.000;2515.86663
 647.80; 2459.667;  -19.200;    0.000;2478.86675
 648.07; 2480.600;  -62.467;    0.000;2543.06676
 648.34; 2480.333;  -36.067;    0.000;2516.39992
 648.61; 2375.933;  -69.133;    0.000;2445.06668
 648.88; 2386.533;  -34.067;    0.000;2420.60011
 649.15; 2394.267;  -75.600;    0.000;2469.86660
 649.42; 2359.400;  -37.800;    0.000;2397.19990
 649.69; 2362.467;  -39.200;    0.000;2401.66655
 649.96; 2372.600;  -41.800;    0.000;2414.40010
 650.23; 2299.800;  -60.667;    0.000;2360.46672
 650.50; 2292.400;  -58.200;    0.000;2350.59990
 650.77; 2288.333;  -55.667;    0.000;2343.99992
 651.04; 2294.333;  -46.467;    0.000;2340.79992
 651.31; 2235.867;  -85.000;    0.000;2320.86670
 651.58; 2264.400;  -36.267;    0.000;2300.66657
 651.85; 2209.733;  -62.733;    0.000;2272.46673
 652.12; 2232.400;  -42.000;    0.000;2274.39990
 652.39; 2175.867;  -81.467;    0.000;2257.33337
 652.66; 2193.133;  -32.067;    0.000;2225.19997
 652.93; 2178.267;  -61.800;    0.000;2240.06660
 653.20; 2161.067;  -41.600;    0.000;2202.66665
 653.47; 2143.867;  -72.867;    0.000;2216.73337
 653.74; 2102.867;  -49.267;    0.000;2152.13337
 654.01; 2103.000;  -67.933;    0.000;2170.93333
 654.28; 2096.200;  -41.800;    0.000;2137.99995
 654.55; 2094.067;  -63.600;    0.000;2157.66665
 654.81; 2072.200;  -38.133;    0.000;2110.33329
 655.08; 2059.600;  -69.600;    0.000;2129.20010
 655.35; 2071.200;  -39.867;    0.000;2111.06662
 655.62; 1996.533;  -60.933;    0.000;2057.46666
 655.89; 2031.800;  -27.800;    0.000;2059.60005
 656.16; 1951.000;  -66.133;    0.000;2017.13333
 656.43; 1969.400;  -53.267;    0.000;2022.66669
 656.70; 1966.467;  -67.133;    0.000;2033.60001
 656.97; 1955.333;  -49.267;    0.000;2004.60004
 657.24; 1948.333;  -65.133;    0.000;2013.46671
 657.51; 1965.133;  -46.867;    0.000;2011.99997
 657.78; 1894.000;  -67.533;    0.000;1961.53333
 658.05; 1920.800;  -39.267;    0.000;1960.06672
 658.32; 1877.000;  -61.800;    0.000;1938.80000
 658.59; 1911.000;  -47.867;    0.000;1958.86666
 658.86; 1857.000;  -58.400;    0.000;1915.40000
 659.12; 1869.867;  -49.733;    0.000;1919.60003
 659.39; 1843.467;  -63.400;    0.000;1906.86668
 659.66; 1777.000;  -34.667;    0.000;1811.66667
 659.93; 1834.133;  -49.467;    0.000;1883.59997
 660.20; 1812.600;  -39.733;    0.000;1852.33331
 660.47; 1772.867;  -67.067;    0.000;1839.93336
 660.74; 1751.600;  -44.733;    0.000;1796.33331
 661.01; 1736.800;  -57.067;    0.000;1793.86671
 661.28; 1731.267;  -33.067;    0.000;1764.33339
 661.55; 1741.200;  -17.400;    0.000;1758.59995
 661.81; 1710.333;  -65.267;    0.000;1775.60004
 662.08; 1736.267;  -57.933;    0.000;1794.20006
 662.35; 1654.600;  -49.133;    0.000;1703.73331
 662.62; 1691.133;  -75.000;    0.000;1766.13330
 662.89; 1693.000;  -42.867;    0.000;1735.86666
 663.16; 1624.067;  -57.400;    0.000;1681.46665
 663.43; 1664.933;  -32.400;    0.000;1697.33335
 663.70; 1633.933;  -69.667;    0.000;1703.60001
 663.96; 1660.467;  -38.533;    0.000;1699.00001
 664.23; 1575.933;  -66.733;    0.000;1642.66668
 664.50; 1599.400;  -50.467;    0.000;1649.86669
 664.77; 1589.067;  -72.133;    0.000;1661.19998
 665.04; 1579.667;  -39.667;    0.000;1619.33329
 665.31; 1581.467;  -61.067;    0.000;1642.53334
 665.58; 1533.467;  -70.400;    0.000;1603.86668
 665.84; 1517.667;  -69.000;    0.000;1586.66663
 666.11; 1537.400;  -51.000;    0.000;1588.40002
 666.38; 1517.800;  -63.667;    0.000;1581.46672
 666.65; 1532.133;  -42.333;    0.000;1574.46663
 666.92; 1493.733;  -57.267;    0.000;1550.99994
 667.19; 1468.133;  -29.333;    0.000;1497.46663
 667.46; 1487.533;  -51.933;    0.000;1539.46666
 667.72; 1457.133;  -49.533;    0.000;1506.66663
 667.99; 1452.800;  -56.667;    0.000;1509.46672
 668.26; 1456.600;  -14.267;    0.000;1470.86664
 668.53; 1457.800;  -86.333;    0.000;1544.13338
 668.80; 1441.533;  -47.467;    0.000;1488.99999
 669.06; 1422.467;  -52.467;    0.000;1474.93334
 669.33; 1382.867;  -38.467;    0.000;1421.33337
 669.60; 1380.733;  -60.067;    0.000;1440.79994
 669.87; 1412.400;  -43.667;    0.000;1456.06669
 670.14; 1344.667;  -66.133;    0.000;1410.79996
 670.41; 1361.200;  -46.933;    0.000;1408.13329
 670.67; 1331.733;  -69.800;    0.000;1401.53328
 670.94; 1320.933;  -38.667;    0.000;1359.60002
 671.21; 1298.667;  -45.200;    0.000;1343.86663
 671.48; 1308.000;  -45.733;    0.000;1353.73333
 671.75; 1265.667;  -70.067;    0.000;1335.73329
 672.01; 1291.800;  -63.667;    0.000;1355.46672
 672.28; 1251.333;  -65.333;    0.000;1316.66671
 672.55; 1288.467;  -32.533;    0.000;1321.00001
 672.82; 1276.667;  -77.533;    0.000;1354.19996
 673.08; 1218.467;  -37.533;    0.000;1256.00001
 673.35; 1259.733;  -74.067;    0.000;1333.79994
 673.62; 1187.667;  -34.133;    0.000;1221.79996
 673.89; 1188.600;  -73.000;    0.000;1261.59998
 674.16; 1185.067;  -55.533;    0.000;1240.59998
 674.42; 1186.733;  -75.400;    0.000;1262.13328
 674.69; 1186.733;  -32.800;    0.000;1219.53328
 674.96; 1168.600;  -51.867;    0.000;1220.46664
 675.23; 1121.733;  -47.333;    0.000;1169.06661
 675.49; 1132.333;  -62.800;    0.000;1195.13337
 675.76; 1131.000;  -39.467;    0.000;1170.46667
 676.03; 1132.800;  -61.200;    0.000;1194.00005
 676.30; 1106.067;  -44.733;    0.000;1150.79998
 676.56; 1110.600;  -48.467;    0.000;1159.06664
 676.83; 1109.067;  -50.933;    0.000;1159.99998
 677.10; 1093.800;  -73.133;    0.000;1166.93338
 677.37; 1112.133;  -34.467;    0.000;1146.59997
 677.63; 1069.733;  -52.000;    0.000;1121.73328
 677.90; 1042.200;  -49.800;    0.000;1091.99995
 678.17; 1061.400;  -70.600;    0.000;1132.00002
 678.44; 1050.933;  -40.067;    0.000;1091.00002
 678.70; 1032.667;  -71.133;    0.000;1103.79996
 678.97; 1038.733;  -33.933;    0.000;1072.66661
 679.24; 1045.467;  -65.867;    0.000;1111.33334
 679.50;  978.200;  -29.800;    0.000;1008.00001
 679.77;  995.400;  -70.600;    0.000;1066.00002
 680.04;  980.400;  -52.533;    0.000;1032.93336
 680.31;  980.067;  -75.733;    0.000;1055.79998
 680.57;  960.133;  -38.067;    0.000;998.20003
 680.84;  934.667;  -63.200;    0.000;997.86669
 681.11; 1000.867;  -43.667;    0.000;1044.53331
 681.37;  960.333;  -71.667;    0.000;1031.99998
 681.64;  999.333;  -44.800;    0.000;1044.13331
 681.91;  948.200;  -99.267;    0.000;1047.46668
 682.17;  974.267;  -29.667;    0.000;1003.93333
 682.44;  942.200;  -78.800;    0.000;1021.00002
 682.71;  922.267;   -8.267;    0.000;930.53333
 682.98;  910.067;  -56.067;    0.000;966.13332
 683.24;  905.533;  -68.000;    0.000;973.53333
 683.51;  893.000;  -77.267;    0.000;970.26667
 683.78;  898.000;  -53.733;    0.000;951.73333
 684.04;  860.400;  -57.000;    0.000;917.40002
 684.31;  871.867;  -45.267;    0.000;917.13330
 684.58;  884.533;  -77.800;    0.000;962.33333
 684.84;  842.533;  -35.333;    0.000;877.86666
 685.11;  831.667;  -71.467;    0.000;903.13335
 685.38;  829.133;  -46.667;    0.000;875.80003
 685.64;  805.933;  -65.533;    0.000;871.46668
 685.91;  795.067;  -42.000;    0.000;837.06665
 686.17;  816.333;  -65.733;    0.000;882.06664
 686.44;  860.467;  -33.067;    0.000;893.53334
 686.71;  791.800;  -68.200;    0.000;859.99998
 686.97;  805.600;  -48.600;    0.000;854.19997
 687.24;  779.067;  -69.267;    0.000;848.33332
 687.51;  775.733;  -32.400;    0.000;808.13334
 687.77;  766.200;  -60.600;    0.000;826.80001
 688.04;  756.600;  -60.267;    0.000;816.86664
 688.31;  753.467;  -79.267;    0.000;832.73335
 688.57;  734.600;  -39.267;    0.000;773.86664
 688.84;  744.000;  -66.467;    0.000;810.46667
 689.10;  738.667;  -50.933;    0.000;789.60002
 689.37;  739.200;  -64.800;    0.000;804.00002
 689.64;  722.333;  -68.200;    0.000;790.53331
 689.90;  733.333;  -66.000;    0.000;799.33331
 690.17;  692.733;  -58.400;    0.000;751.13334
 690.44;  713.800;  -71.733;    0.000;785.53332
 690.70;  730.533;  -37.533;    0.000;768.06666
 690.97;  668.400;  -74.933;    0.000;743.33336
 691.23;  701.667;  -37.000;    0.000;738.66669
 691.50;  664.267;  -84.000;    0.000;748.26666
 691.77;  651.133;  -44.800;    0.000;695.93336
 692.03;  681.800;  -66.733;    0.000;748.53332
 692.30;  690.800;  -45.667;    0.000;736.46666
 692.56;  673.333;  -83.467;    0.000;756.79998
 692.83;  665.933;  -52.600;    0.000;718.53335
 693.10;  634.933;  -57.200;    0.000;692.13335
 693.36;  620.733;  -46.600;    0.000;667.33334
 693.63;  617.867;  -72.200;    0.000;690.06664
 693.89;  646.333;  -46.467;    0.000;692.79998
 694.16;  594.867;  -70.800;    0.000;665.66664
 694.42;  593.467;  -51.733;    0.000;645.20001
 694.69;  623.467;  -46.400;    0.000;669.86668
 694.96;  589.867;  -16.200;    0.000;606.06664
 695.22;  581.600;  -59.467;    0.000;641.06664
 695.49;  625.400;  -14.400;    0.000;639.80002
 695.75;  575.533;  -83.267;    0.000;658.80000
 696.02;  555.000;  -47.333;    0.000;602.33333
 696.28;  539.667;  -67.733;    0.000;607.40002
 696.55;  552.933;  -48.333;    0.000;601.26668
 696.81;  509.333;  -65.800;    0.000;575.13335
 697.08;  529.333;  -51.800;    0.000;581.13331
 697.34;  514.067;  -69.067;    0.000;583.13332
 697.61;  506.333;  -51.867;    0.000;558.20001
 697.88;  515.400;  -51.267;    0.000;566.66669
 698.14;  506.000;  -50.067;    0.000;556.06667
 698.41;  491.067;  -69.800;    0.000;560.86668
 698.67;  477.867;  -53.200;    0.000;531.06667
 698.94;  486.200;  -78.000;    0.000;564.20001
 699.20;  485.800;  -33.533;    0.000;519.33332
 699.47;  449.067;  -58.067;    0.000;507.13335
 699.73;  451.800;  -36.600;    0.000;488.39999
 700.00;  462.600;  -87.200;    0.000;549.80000
 700.26;  438.000;  -51.267;    0.000;489.26667
 700.53;  454.933;  -54.000;    0.000;508.93332
 700.79;  436.467;  -43.667;    0.000;480.13334
 701.06;  447.533;  -68.600;    0.000;516.13332
 701.32;  460.333;  -47.333;    0.000;507.66668
 701.59;  433.333;  -73.267;    0.000;506.60001
 701.85;  402.600;  -41.733;    0.000;444.33334
 702.12;  419.400;  -78.333;    0.000;497.73333
 702.38;  400.600;  -32.933;    0.000;433.53334
 702.65;  384.533;  -60.267;    0.000;444.79999
 702.91;  419.933;  -39.533;    0.000;459.46665
 703.18;  361.600;  -72.267;    0.000;433.86668
 703.44;  327.267;  -59.400;    0.000;386.66666
 703.71;  374.533;  -78.067;    0.000;452.59999
 703.97;  385.000;  -63.000;    0.000;448.00000
 704.24;  362.933;  -81.733;    0.000;444.66665
 704.50;  328.733;  -53.000;    0.000;381.73334
 704.76;  344.933;  -72.933;    0.000;417.86665
 705.03;  317.133;  -47.467;    0.000;364.60000
 705.29;  311.267;  -57.333;    0.000;368.59999
 705.56;  328.933;  -64.867;    0.000;393.79999
 705.82;  319.267;  -62.267;    0.000;381.53333
 706.09;  310.533;  -19.200;    0.000;329.73333
 706.35;  299.867;  -70.933;    0.000;370.80000
 706.62;  319.733;  -27.533;    0.000;347.26667
 706.88;  305.067;  -76.733;    0.000;381.80001
 707.15;  263.267;  -45.467;    0.000;308.73333
 707.41;  292.667;  -83.400;    0.000;376.06666
 707.67;  269.200;  -39.000;    0.000;308.20001
 707.94;  287.933;  -55.733;    0.000;343.66665
 708.20;  273.000;  -79.133;    0.000;352.13333
 708.47;  275.467;  -55.000;    0.000;330.46667
 708.73;  244.933;  -54.133;    0.000;299.06667
 709.00;  268.533;  -83.267;    0.000;351.80000
 709.26;  272.333;  -37.933;    0.000;310.26668
 709.52;  250.000;  -57.533;    0.000;307.53333
 709.79;  245.267;  -59.533;    0.000;304.80000
 710.05;  226.400;  -61.200;    0.000;287.59999
 710.32;  220.733;  -32.800;    0.000;253.53334
 710.58;  229.067;  -76.533;    0.000;305.60000
 710.84;  223.667;  -55.600;    0.000;279.26667
 711.11;  230.733;  -69.200;    0.000;299.93333
 711.37;  208.533;  -34.467;    0.000;243.00001
 711.64;  214.733;  -77.267;    0.000;292.00001
 711.90;  216.600;  -41.333;    0.000;257.93334
 712.16;  196.067;  -66.000;    0.000;262.06667
 712.43;  206.733;  -43.000;    0.000;249.73334
 712.69;  217.667;  -65.867;    0.000;283.53334
 712.96;  211.133;  -61.733;    0.000;272.86666
 713.22;  195.933;  -75.400;    0.000;271.33334
 713.48;  197.867;  -50.533;    0.000;248.40000
 713.75;  217.133;  -75.000;    0.000;292.13333
 714.01;  194.600;  -66.000;    0.000;260.60001
 714.27;  173.133;  -55.000;    0.000;228.13333
 714.54;  197.933;  -49.200;    0.000;247.13334
 714.80;  167.467;  -67.933;    0.000;235.39999
 715.06;  163.800;  -24.533;    0.000;188.33334
 715.33;  179.400;  -94.267;    0.000;273.66666
 715.59;  177.933;  -52.000;    0.000;229.93333
 715.86;  167.200;  -70.000;    0.000;237.20000
 716.12;  174.600;  -54.200;    0.000;228.80001
 716.38;  176.667;  -69.733;    0.000;246.40000
 716.65;  182.867;  -62.133;    0.000;245.00000
 716.91;  161.667;  -70.467;    0.000;232.13334
 717.17;  163.067;  -35.133;    0.000;198.20000
 717.44;  155.000;  -70.000;    0.000;225.00000
 717.70;  144.533;  -36.800;    0.000;181.33334
 717.96;  140.933;  -76.533;    0.000;217.46667
 718.23;  180.400;  -42.267;    0.000;222.66666
 718.49;  133.533;  -62.200;    0.000;195.73334
 718.75;  168.133;  -44.267;    0.000;212.40000
 719.02;  134.867;  -81.800;    0.000;216.66667
 719.28;  158.867;  -57.067;    0.000;215.93333
 719.54;  144.067;  -62.267;    0.000;206.33333
 719.80;  156.667;  -34.067;    0.000;190.73334
 720.07;  140.800;  -79.467;    0.000;220.26667
 720.33;  168.000;  -33.933;    0.000;201.93333
 720.59;  152.267;  -72.800;    0.000;225.06667
 720.86;  147.867;  -56.733;    0.000;204.60000
 721.12;  147.667;  -59.000;    0.000;206.66667
 721.38;  145.933;  -44.200;    0.000;190.13334
 721.65;  147.467;  -54.600;    0.000;202.06666
 721.91;  147.067;  -42.867;    0.000;189.93333
 722.17;  146.133;  -80.067;    0.000;226.20000
 722.43;  147.533;  -53.467;    0.000;201.00001
 722.70;  131.267;  -77.800;    0.000;209.06667
 722.96;  146.400;  -31.400;    0.000;177.79999
 723.22;  122.733;  -75.800;    0.000;198.53333
 723.48;  140.733;  -69.267;    0.000;210.00001
 723.75;  131.667;  -77.867;    0.000;209.53334
 724.01;  165.400;  -57.200;    0.000;222.59999
 724.27;  130.800;  -85.733;    0.000;216.53333
 724.54;  126.000;  -42.933;    0.000;168.93333
 724.80;  131.200;  -84.133;    0.000;215.33333
 725.06;  131.600;  -67.000;    0.000;198.60001
 725.32;  139.467;  -62.600;    0.000;202.06666
 725.59;  119.000;  -44.267;    0.000;163.26667
 725.85;  121.600;  -65.933;    0.000;187.53333
 726.11;  146.067;  -51.933;    0.000;198.00000
 726.37;  129.800;  -55.467;    0.000;185.26667
 726.64;  130.267;  -28.867;    0.000;159.13333
 726.90;  134.533;  -64.467;    0.000;199.00001
 727.16;  136.067;  -46.333;    0.000;182.40000
 727.42;  121.133;  -82.467;    0.000;203.60000
 727.68;  130.867;  -42.133;    0.000;173.00000
 727.95;  143.200;  -67.133;    0.000;210.33333
 728.21;  126.200;  -40.067;    0.000;166.26666
 728.47;  132.000;  -75.933;    0.000;207.93333
 728.73;  137.733;  -40.667;    0.000;178.40001
 729.00;  124.467;  -70.800;    0.000;195.26667
 729.26;  124.400;  -52.667;    0.000;177.06667
 729.52;  108.267;  -75.333;    0.000;183.60001
 729.78;  138.933;  -61.800;    0.000;200.73333
 730.04;  129.467;  -63.600;    0.000;193.06666
 730.31;  110.067;  -63.733;    0.000;173.80000
 730.57;   95.333;  -83.400;    0.000;178.73334
 730.83;  124.933;  -46.200;    0.000;171.13334
 731.09;  108.467;  -65.600;    0.000;174.06667
 731.35;  139.933;  -49.733;    0.000;189.66667
 731.62;  102.200;  -94.467;    0.000;196.66666
 731.88;   95.667;  -43.200;    0.000;138.86666
 732.14;  104.600;  -83.133;    0.000;187.73333
 732.40;  112.267;  -46.400;    0.000;158.66667
 732.66;  102.400;  -70.733;    0.000;173.13333
 732.92;  112.667;  -67.800;    0.000;180.46667
 733.19;  111.067;  -76.867;    0.000;187.93333
 733.45;  117.800;  -55.400;    0.000;173.20000
 733.71;   99.333;  -62.867;    0.000;162.20000
 733.97;  132.267;  -10.400;    0.000;142.66666
 734.23;  106.667;  -73.067;    0.000;179.73333
 734.49;  100.400;  -50.333;    0.000;150.73333
 734.76;   79.800;  -78.133;    0.000;157.93333
 735.02;  106.533;  -67.667;    0.000;174.20000
 735.28;   99.000;  -56.200;    0.000;155.20000
 735.54;  110.333;  -52.733;    0.000;163.06667
 735.80;   92.867;  -84.200;    0.000;177.06667
 736.06;  101.400;  -54.933;    0.000;156.33334
 736.32;   87.933;  -85.800;    0.000;173.73334
 736.59;   84.667;  -42.067;    0.000;126.73333
 736.85;   87.800;  -84.067;    0.000;171.86667
 737.11;  105.933;  -60.200;    0.000;166.13334
 737.37;   78.933;  -69.933;    0.000;148.86667
 737.63;  120.133;  -53.200;    0.000;173.33333
 737.89;   97.400;  -72.533;    0.000;169.93333
 738.15;  116.733;  -32.467;    0.000;149.20000
 738.41;   85.867;  -74.000;    0.000;159.86667
 738.67;   89.133;  -64.133;    0.000;153.26666
 738.94;   68.600;  -86.267;    0.000;154.86667
 739.20;   82.467;  -49.467;    0.000;131.93333
 739.46;   91.400;  -64.600;    0.000;156.00000
 739.72;   82.533;  -63.000;    0.000;145.53333
 739.98;   75.333;  -72.000;    0.000;147.33334
 740.24;   78.533;  -52.800;    0.000;131.33333
 740.50;   65.600;  -59.800;    0.000;125.40000
 740.76;   73.600;  -37.800;    0.000;111.40000
 741.02;   81.067;  -84.867;    0.000;165.93333
 741.28;   87.867;  -52.600;    0.000;140.46667
 741.54;   79.867;  -74.200;    0.000;154.06667
 741.81;   83.067;  -47.133;    0.000;130.20000
 742.07;   72.333;  -92.600;    0.000;164.93333
 742.33;   99.667;  -28.800;    0.000;128.46666
 742.59;   85.133;  -60.000;    0.000;145.13333
 742.85;   68.667;  -54.400;    0.000;123.06667
 743.11;   51.000;  -97.533;    0.000;148.53333
 743.37;   36.067;  -56.200;    0.000;92.26667
 743.63;   57.267;  -82.133;    0.000;139.40000
 743.89;   67.533;  -52.133;    0.000;119.66667
 744.15;   60.733;  -75.800;    0.000;136.53334
 744.41;   54.800;  -64.267;    0.000;119.06667
 744.67;   64.067;  -72.800;    0.000;136.86667
 744.93;   52.867;  -51.067;    0.000;103.93333
 745.19;   26.600;  -84.133;    0.000;110.73333
 745.45;   78.467;  -60.467;    0.000;138.93333
 745.71;   34.400;  -79.133;    0.000;113.53333
 745.97;   46.467;  -32.067;    0.000;78.53333
 746.23;   75.000;  -66.200;    0.000;141.20000
 746.49;   25.200;  -58.200;    0.000;83.40000
 746.75;   47.267;  -78.000;    0.000;125.26667
 747.02;   41.333;  -38.667;    0.000;80.00000
 747.28;   55.533;  -79.400;    0.000;134.93333
 747.54;   58.400;  -54.000;    0.000;112.40000
 747.80;   29.333;  -80.867;    0.000;110.20000
 748.06;   42.200;  -64.733;    0.000;106.93333
 748.32;   37.200;  -91.333;    0.000;128.53334
 748.58;   38.467;  -47.000;    0.000;85.46667
 748.84;   61.133;  -66.933;    0.000;128.06667
 749.10;  130.400;   19.133;    0.000;111.26666
 749.36;   46.933;  -76.067;    0.000;123.00000
 749.62;   40.000;  -47.133;    0.000;87.13334
 749.88;   44.333;  -73.133;    0.000;117.46666
 750.14;   23.400;  -50.800;    0.000;74.20000
 750.40;   38.333;  -75.667;    0.000;114.00000
 750.66;   47.467;  -40.333;    0.000;87.80000
 750.91;   38.800;  -67.400;    0.000;106.20000
 751.17;   36.667;  -46.467;    0.000;83.13334
 751.43;   22.667;  -98.267;    0.000;120.93334
 751.69;   49.733;  -32.333;    0.000;82.06667
 751.95;   31.000;  -65.000;    0.000;96.00000
 752.21;   72.000;  -53.733;    0.000;125.73333
 752.47;    0.200;  -68.400;    0.000;68.60000
 752.73;   23.800;  -46.200;    0.000;70.00000
 752.99;   -3.733;  -87.933;    0.000;84.20000
 753.25;   15.400;  -47.200;    0.000;62.60000
 753.51;   29.133;  -61.467;    0.000;90.60000
 753.77;   36.533;  -58.400;    0.000;94.93333
 754.03;   13.533;  -64.600;    0.000;78.13333
 754.29;    5.133;  -71.867;    0.000;77.00000
 754.55;   27.267;  -67.867;    0.000;95.13334
 754.81;   23.733;  -62.600;    0.000;86.33333
 755.07;    7.867;  -70.067;    0.000;77.93333
 755.33;    0.867;  -67.800;    0.000;68.66667
 755.59;   -1.867;  -78.600;    0.000;76.73333
 755.85;   -3.000;  -42.200;    0.000;39.20000
 756.10;   -7.333;  -72.867;    0.000;65.53334
 756.36;    0.333;  -65.067;    0.000;65.40000
 756.62;    8.400;  -77.333;    0.000;85.73334
 756.88;    4.600;  -60.667;    0.000;65.26667
 757.14;   30.867;  -73.600;    0.000;104.46667
 757.40;   16.667;  -35.200;    0.000;51.86667
 757.66;   -9.733;  -69.267;    0.000;59.53334
 757.92;   28.000;  -54.667;    0.000;82.66667
 758.18;  -14.000;  -74.267;    0.000;60.26667
 758.44;    2.933;  -59.867;    0.000;62.80000
 758.70;    1.933;  -54.533;    0.000;56.46667
 758.95;   14.933;  -41.200;    0.000;56.13333
 759.21;    2.867;  -79.067;    0.000;81.93333
 759.47;   -1.200;  -45.267;    0.000;44.06667
 759.73;   10.600;  -75.867;    0.000;86.46667
 759.99;  -15.333;  -56.133;    0.000;40.80000
 760.25;  -11.733;  -65.400;    0.000;53.66667
 760.51;   -0.467;  -54.400;    0.000;53.93333
 760.77;  -16.533;  -88.400;    0.000;71.86667
 761.02;   -7.600;  -63.000;    0.000;55.40000
 761.28;   -4.867;  -80.200;    0.000;75.33333
 761.54;    1.667;  -57.867;    0.000;59.53333
 761.80;  -10.000;  -95.533;    0.000;85.53333
 762.06;   32.067;  -43.667;    0.000;75.73333
 762.32;    4.400;  -81.467;    0.000;85.86667
 762.58;    2.600;  -80.600;    0.000;83.20000
 762.83;   12.467;  -64.733;    0.000;77.20000
 763.09;   -0.267;  -42.133;    0.000;41.86667
 763.35;  -26.133;  -77.067;    0.000;50.93333
 763.61;   15.400;  -65.200;    0.000;80.60000
 763.87;    3.800;  -58.733;    0.000;62.53333
 764.13;  -15.067;  -51.133;    0.000;36.06667
 764.38;  -23.467;  -80.067;    0.000;56.60000
 764.64;  -11.067;  -65.867;    0.000;54.80000
 764.90;  -17.333;  -92.067;    0.000;74.73333
 765.16;    5.267;  -39.667;    0.000;44.93333
 765.42;   -4.933;  -72.200;    0.000;67.26666
 765.68;   -1.933;  -67.200;    0.000;65.26666
 765.93;  -31.667;  -82.067;    0.000;50.40000
 766.19;   12.133;  -88.800;    0.000;100.93334
 766.45;  -27.133;  -82.333;    0.000;55.20000
 766.71;    2.533;  -53.200;    0.000;55.73333
 766.97;  -28.333;  -74.000;    0.000;45.66667
 767.22;   -6.200;  -57.067;    0.000;50.86667
 767.48;   -5.800;  -84.333;    0.000;78.53334
 767.74;   -7.733;  -56.533;    0.000;48.80000
 768.00;   -4.133;  -87.133;    0.000;83.00000
 768.26;   -8.333;  -39.867;    0.000;31.53333
 768.51;  -12.067;  -73.800;    0.000;61.73334
 768.77;   13.600;  -36.000;    0.000;49.60000
 769.03;  -27.200;  -86.533;    0.000;59.33333
 769.29;   -9.067;  -53.933;    0.000;44.86667
 769.54;  -24.667;  -83.333;    0.000;58.66667
 769.80;  -11.200;  -68.467;    0.000;57.26667
 770.06;  -25.867;  -95.600;    0.000;69.73333
 770.32;  -14.467;  -57.000;    0.000;42.53333
 770.57;  -25.933;  -86.867;    0.000;60.93334
 770.83;   -4.600;  -59.333;    0.000;54.73333
 771.09;  -28.200;  -72.933;    0.000;44.73333
 771.35;  -36.867;  -65.133;    0.000;28.26667
 771.61;  -24.600;  -79.533;    0.000;54.93333
 771.86;  -33.467;  -49.933;    0.000;16.46667
 772.12;  -20.067;  -88.000;    0.000;67.93333
 772.38;  -19.533;  -55.933;    0.000;36.40000
 772.63;  -20.667;  -91.400;    0.000;70.73334
 772.89;  -22.667;  -62.600;    0.000;39.93333
 773.15;  -35.333;  -82.533;    0.000;47.20000
 773.41;  -32.600;  -79.067;    0.000;46.46667
 773.66;  -28.933; -102.533;    0.000;73.60000
 773.92;   -9.600;  -47.133;    0.000;37.53333
 774.18;  -20.267;  -76.400;    0.000;56.13334
 774.44;  -24.667;  -79.933;    0.000;55.26667
 774.69;  -15.467;  -76.467;    0.000;61.00000
 774.95;  -13.800;  -55.467;    0.000;41.66667
 775.21;  -10.467;  -58.600;    0.000;48.13333
 775.46;  -34.533;  -76.867;    0.000;42.33334
 775.72;  -23.133;  -77.467;    0.000;54.33333
 775.98;  -18.333;  -52.200;    0.000;33.86667
 776.24;  -39.867;  -69.800;    0.000;29.93334
 776.49;  -27.533;  -64.667;    0.000;37.13333
 776.75;  -23.133;  -89.200;    0.000;66.06666
 777.01;  -22.400;  -51.467;    0.000;29.06667
 777.26;  -21.000;  -71.067;    0.000;50.06667
 777.52;  -30.867;  -58.733;    0.000;27.86667
 777.78;  -55.800;  -91.733;    0.000;35.93333
 778.03;  -31.733;  -42.933;    0.000;11.20000
 778.29;  -33.000;  -82.733;    0.000;49.73333
 778.55;  -24.867;  -49.800;    0.000;24.93333
 778.80;  -49.867;  -84.400;    0.000;34.53334
 779.06;  -38.600;  -57.667;    0.000;19.06667
 779.32;  -42.333;  -95.467;    0.000;53.13334
 779.57;  -29.867;  -49.133;    0.000;19.26667
 779.83;  -44.667;  -80.067;    0.000;35.40000
 780.09;  -29.200;  -63.267;    0.000;34.06667
 780.34;  -26.600;  -78.467;    0.000;51.86667
 780.60;  -22.333;  -43.867;    0.000;21.53333
 780.86;   -7.467;  -82.600;    0.000;75.13333
 781.11;  -28.400;  -54.000;    0.000;25.60000
 781.37;  -54.733;  -87.800;    0.000;33.06667
 781.63;  -28.533;  -62.267;    0.000;33.73333
 781.88;  -44.467;  -94.600;    0.000;50.13333
 782.14;  -12.800;  -70.133;    0.000;57.33333
 782.39;  -46.200;  -88.133;    0.000;41.93333
 782.65;  -28.933;  -88.467;    0.000;59.53333
 782.91;  -32.333;  -82.867;    0.000;50.53334
 783.16;  -19.333;  -49.533;    0.000;30.20000
 783.42;  -56.400;  -95.667;    0.000;39.26666
 783.67;  -16.867;  -63.333;    0.000;46.46667
 783.93;  -44.733;  -62.467;    0.000;17.73333
 784.19;  -38.267;  -61.400;    0.000;23.13334
 784.44;  -54.067;  -65.400;    0.000;11.33334
 784.70;  -12.933;  -54.267;    0.000;41.33333
 784.96;  -39.933;  -86.933;    0.000;47.00000
 785.21;  -44.933;  -72.867;    0.000;27.93333
 785.47;  -10.667;  -57.267;    0.000;46.60000
 785.72;  -37.400;  -44.867;    0.000; 7.46666
 785.98;  -42.267;  -94.333;    0.000;52.06667
 786.23;  -23.800;  -65.133;    0.000;41.33333
 786.49;  -47.400;  -74.333;    0.000;26.93333
 786.75;  -35.933;  -49.133;    0.000;13.20000
 787.00;  -53.800;  -93.733;    0.000;39.93333
 787.26;  -45.333;  -60.600;    0.000;15.26667
 787.51;  -34.533;  -64.267;    0.000;29.73334
 787.77;  -16.067;  -53.800;    0.000;37.73333
 788.02;  -32.400;  -81.800;    0.000;49.40000
 788.28;  -52.733;  -71.467;    0.000;18.73333
 788.54;  -39.733;  -73.067;    0.000;33.33333
 788.79;  -34.067;  -61.800;    0.000;27.73333
 789.05;  -47.933;  -80.733;    0.000;32.80000
 789.30;  -37.067;  -54.067;    0.000;17.00000
 789.56;  -32.533;  -86.600;    0.000;54.06667
 789.81;  -53.467;  -56.800;    0.000; 3.33333
 790.07;  -59.800; -102.667;    0.000;42.86666
 790.32;  -24.333;  -63.667;    0.000;39.33333
 790.58;  -52.533;  -67.333;    0.000;14.80000
 790.83;  -27.000;  -45.067;    0.000;18.06667
 791.09;  -53.400;  -83.733;    0.000;30.33333
 791.35;  -33.733;  -57.000;    0.000;23.26667
 791.60;  -53.800;  -68.867;    0.000;15.06667
 791.86;  -39.267;  -48.267;    0.000; 9.00000
 792.11;  -54.067;  -87.933;    0.000;33.86667
 792.37;  -34.333;  -72.133;    0.000;37.80000
 792.62;  -47.533;  -67.800;    0.000;20.26667
 792.88;  -60.733;  -63.467;    0.000; 2.73333
 793.13;  -46.533;  -62.800;    0.000;16.26667
 793.39;  -46.800;  -55.800;    0.000; 9.00000
 793.64;  -56.067;  -70.333;    0.000;14.26667
 793.90;  -37.800;  -55.467;    0.000;17.66667
 794.15;  -45.067;  -76.800;    0.000;31.73334
 794.41;  -34.067;  -56.933;    0.000;22.86667
 794.66;  -66.733;  -84.933;    0.000;18.20000
 794.92;  -35.733;  -65.267;    0.000;29.53334
 795.17;  -60.400;  -90.200;    0.000;29.80000
 795.43;  -45.800;  -84.200;    0.000;38.40000
 795.68;  -30.933;  -80.933;    0.000;50.00000
 795.94;  -59.000;  -54.667;    0.000;-4.33333
 796.19;  -28.600;  -73.800;    0.000;45.20000
 796.44;  -22.800;  -69.867;    0.000;47.06667
 796.70;  -27.400;  -89.200;    0.000;61.80000
 796.95;  -40.933;  -45.400;    0.000; 4.46667
 797.21;  -41.667;  -71.867;    0.000;30.20000
 797.46;  -50.000;  -71.333;    0.000;21.33334
 797.72;  -39.200;  -96.733;    0.000;57.53333
 797.97;  -58.933;  -64.200;    0.000; 5.26666
 798.23;  -59.000;  -81.933;    0.000;22.93333
 798.48;  -44.533;  -61.400;    0.000;16.86667
 798.74;  -46.800;  -88.333;    0.000;41.53334
 798.99;  -68.467;  -63.533;    0.000;-4.93333
 799.24;  -60.333;  -82.933;    0.000;22.60000
 799.50;  -50.600;  -50.000;    0.000;-0.60000
 799.75;  -52.067;  -86.933;    0.000;34.86667
 800.01;  -61.467;  -54.467;    0.000;-7.00000
 800.26;  -61.933;  -82.467;    0.000;20.53333
 800.52;  -37.067;  -56.067;    0.000;19.00000
 800.77;  -57.067;  -72.667;    0.000;15.60000
 801.02;  -58.133;  -69.933;    0.000;11.80000
 801.28;  -51.267;  -81.733;    0.000;30.46666
 801.53;  -55.133;  -37.267;    0.000;-17.86667
 801.79;  -57.000; -100.067;    0.000;43.06667
 802.04;  -51.200;  -38.667;    0.000;-12.53333
 802.29;  -56.333;  -72.867;    0.000;16.53334
 802.55;  -34.200;  -51.333;    0.000;17.13333
 802.80;  -53.200;  -72.733;    0.000;19.53333
 803.06;  -35.400;  -52.400;    0.000;17.00000
 803.31;  -52.867;  -88.200;    0.000;35.33333
 803.56;  -43.800;  -65.667;    0.000;21.86666
 803.82;  -47.200;  -66.533;    0.000;19.33333
 804.07;  -47.733;  -72.800;    0.000;25.06667
 804.32;  -52.333;  -71.533;    0.000;19.20000
 804.58;  -68.000;  -63.867;    0.000;-4.13334
 804.83;  -72.400;  -83.867;    0.000;11.46667
 805.09;  -56.600;  -67.400;    0.000;10.80000
 805.34;  -50.733;  -80.267;    0.000;29.53334
 805.59;  -29.267;  -64.467;    0.000;35.20000
 805.85;  -58.067;  -92.267;    0.000;34.20000
 806.10;  -45.000;  -48.733;    0.000; 3.73333
 806.35;  -64.333;  -70.267;    0.000; 5.93333
 806.61;  -51.267;  -53.067;    0.000; 1.80000
 806.86;  -65.067;  -91.600;    0.000;26.53333
 807.11;  -52.200;  -66.467;    0.000;14.26667
 807.37;  -41.200;  -62.600;    0.000;21.40000
 807.62;  -72.067;  -53.467;    0.000;-18.60000
 807.87;  -58.867;  -81.933;    0.000;23.06667
 808.13;  -55.467;  -67.267;    0.000;11.80000
 808.38;  -52.600;  -85.467;    0.000;32.86667
 808.63;  -51.067;  -65.133;    0.000;14.06667
 808.89;  -59.000;  -86.133;    0.000;27.13333
 809.14;  -52.467;  -60.533;    0.000; 8.06667
 809.39;  -54.400;  -71.800;    0.000;17.40000
 809.65;  -57.933;  -54.200;    0.000;-3.73333
 809.90;  -49.933;  -97.800;    0.000;47.86667
 810.15;  -48.400;  -59.600;    0.000;11.20000
 810.41;  -57.800;  -91.133;    0.000;33.33333
 810.66;  -49.333;  -75.200;    0.000;25.86666
 810.91;  -55.333;  -77.000;    0.000;21.66667
 811.16;  -73.000;  -56.867;    0.000;-16.13334
 811.42;  -60.200;  -87.067;    0.000;26.86666
 811.67;  -62.000;  -71.933;    0.000; 9.93333
 811.92;  -38.333;  -98.000;    0.000;59.66667
 812.18;  -51.600;  -60.533;    0.000; 8.93333
 812.43;  -54.133;  -80.267;    0.000;26.13334
 812.68;  -56.400;  -54.600;    0.000;-1.80000
 812.93;  -61.333;  -92.933;    0.000;31.60000
 813.19;  -46.600;  -42.800;    0.000;-3.80000
 813.44;  -52.600;  -83.400;    0.000;30.80000
 813.69;  -45.333;  -44.800;    0.000;-0.53333
 813.95;  -82.600;  -87.800;    0.000; 5.20000
 814.20;  -51.533;  -63.200;    0.000;11.66667
 814.45;  -66.000;  -97.733;    0.000;31.73333
 814.70;  -85.067;  -75.600;    0.000;-9.46667
 814.96;  -42.733;  -79.000;    0.000;36.26667
 815.21;  -58.667;  -62.733;    0.000; 4.06667
 815.46;  -73.000; -105.733;    0.000;32.73333
 815.71;  -51.600;  -66.200;    0.000;14.60000
 815.96;  -57.667;  -79.400;    0.000;21.73333
 816.22;  -52.067;  -66.733;    0.000;14.66666
 816.47;  -47.267;  -93.867;    0.000;46.60000
 816.72;  -41.067;  -48.400;    0.000; 7.33334
 816.97;  -57.600;  -71.000;    0.000;13.40000
 817.23;  -48.800;  -58.267;    0.000; 9.46667
 817.48;  -46.333;  -88.667;    0.000;42.33333
 817.73;  -65.400;  -74.400;    0.000; 9.00000
 817.98;  -56.600;  -93.200;    0.000;36.60000
 818.23;  -63.400;  -60.733;    0.000;-2.66667
 818.49;  -49.933;  -63.933;    0.000;14.00000
 818.74;  -50.467;  -54.400;    0.000; 3.93333
 818.99;  -74.800;  -81.667;    0.000; 6.86666
 819.24;  -42.667;  -42.933;    0.000; 0.26667
 819.50;  -64.600;  -87.600;    0.000;23.00000
 819.75;  -44.133;  -58.333;    0.000;14.20000
 820.00;  -57.000;  -70.467;    0.000;13.46667
 820.25;  -73.667;  -53.933;    0.000;-19.73333
 820.50;  -47.933;  -84.933;    0.000;37.00000
 820.75;  -41.600;  -62.600;    0.000;21.00000
 821.01;  -50.267;  -79.267;    0.000;29.00000
 821.26;  -53.933;  -58.400;    0.000; 4.46667
 821.51;  -50.533;  -73.800;    0.000;23.26667
 821.76;  -68.000;  -74.333;    0.000; 6.33334
 822.01;  -78.933;  -82.933;    0.000; 4.00000
 822.26;  -73.400;  -55.667;    0.000;-17.73333
 822.52;  -50.800;  -79.667;    0.000;28.86666
 822.77;  -49.400;  -61.067;    0.000;11.66666
 823.02;  -84.533;  -92.867;    0.000; 8.33334
 823.27;  -49.400;  -59.933;    0.000;10.53333
 823.52;  -80.133;  -79.000;    0.000;-1.13333
 823.77;  -67.067;  -67.667;    0.000; 0.60000
 824.03;  -49.933;  -71.867;    0.000;21.93333
 824.28;  -60.267;  -62.267;    0.000; 2.00000
 824.53;  -60.800;  -84.333;    0.000;23.53334
 824.78;  -40.067;  -47.000;    0.000; 6.93333
 825.03;  -59.133;  -90.467;    0.000;31.33333
 825.28;  -51.867;  -57.467;    0.000; 5.60000
 825.53;  -60.667;  -74.800;    0.000;14.13334
 825.78;  -69.867;  -49.267;    0.000;-20.60000
 826.04;  -58.933;  -92.667;    0.000;33.73333
 826.29;  -58.600;  -72.533;    0.000;13.93333
 826.54;  -56.533;  -85.267;    0.000;28.73334
 826.79;  -37.467;  -51.200;    0.000;13.73333
 827.04;  -62.067;  -92.867;    0.000;30.80000
 827.29;  -45.067;  -64.000;    0.000;18.93333
 827.54;  -66.133;  -77.267;    0.000;11.13334
 827.79;  -76.733;  -57.867;    0.000;-18.86666
 828.04;  -63.000;  -75.267;    0.000;12.26667
 828.29;  -60.733;  -67.067;    0.000; 6.33333
 828.55;  -64.400;  -74.600;    0.000;10.20000
 828.80;  -40.333;  -60.267;    0.000;19.93333
 829.05;  -60.133;  -85.333;    0.000;25.20000
 829.30;  -59.067;  -82.533;    0.000;23.46667
 829.55;  -57.000;  -78.133;    0.000;21.13333
 829.80;  -50.267;  -63.133;    0.000;12.86667
 830.05;  -76.733;  -73.800;    0.000;-2.93333
 830.30;  -64.800;  -69.533;    0.000; 4.73333
 830.55;  -54.000;  -91.600;    0.000;37.60000
 830.80;  -62.000;  -68.467;    0.000; 6.46667
 831.05;  -56.667;  -75.200;    0.000;18.53333
 831.30;  -50.600;  -54.933;    0.000; 4.33334
 831.55;  -45.800; -110.333;    0.000;64.53334
 831.80;  -59.933;  -70.267;    0.000;10.33334
 832.05;  -73.267;  -75.533;    0.000; 2.26666
 832.30;  -45.067;  -55.333;    0.000;10.26667
 832.56;  -52.067;  -75.467;    0.000;23.40000
 832.81;  -78.267;  -69.667;    0.000;-8.60001
 833.06;  -50.333;  -88.267;    0.000;37.93334
 833.31;  -60.933;  -78.200;    0.000;17.26666
 833.56;  -48.667;  -74.533;    0.000;25.86666
 833.81;  -55.667;  -47.133;    0.000;-8.53333
 834.06;  -56.667;  -83.600;    0.000;26.93333
 834.31;  -55.467;  -79.133;    0.000;23.66666
 834.56;  -69.200;  -79.933;    0.000;10.73334
 834.81;  -69.600;  -72.867;    0.000; 3.26667
 835.06;  -66.733;  -79.533;    0.000;12.80000
 835.31;  -37.867;  -51.000;    0.000;13.13334
 835.56;  -73.867;  -71.333;    0.000;-2.53333
 835.81;  -40.200;  -72.333;    0.000;32.13334
 836.06;  -65.000;  -64.800;    0.000;-0.20000
 836.31;  -57.533;  -71.200;    0.000;13.66666
 836.56;  -78.600;  -78.933;    0.000; 0.33334
 836.81;  -48.600;  -74.400;    0.000;25.80000
 837.06;  -55.467;  -71.667;    0.000;16.20000
 837.31;  -60.067;  -79.200;    0.000;19.13333
 837.56;  -80.333;  -93.733;    0.000;13.39999
 837.81;  -43.000;  -52.467;    0.000; 9.46667
 838.06;  -67.267;  -77.267;    0.000;10.00000
 838.31;  -58.467;  -74.000;    0.000;15.53333
 838.56;  -72.667;  -79.400;    0.000; 6.73334
 838.80;  -75.000;  -73.933;    0.000;-1.06667
 839.05;  -67.933;  -90.533;    0.000;22.60000
 839.30;  -79.333;  -48.067;    0.000;-31.26667
 839.55;  -81.267;  -95.733;    0.000;14.46666
 839.80;  -55.600;  -63.400;    0.000; 7.80000
 840.05;  -59.733;  -93.000;    0.000;33.26667
 840.30;  -63.333;  -57.667;    0.000;-5.66666
 840.55;  -55.600;  -63.267;    0.000; 7.66667
 840.80;  -69.733;  -42.000;    0.000;-27.73333
 841.05;  -61.800;  -77.867;    0.000;16.06667
 841.30;  -43.200;  -67.600;    0.000;24.40000
 841.55;  -68.000;  -83.733;    0.000;15.73333
 841.80;  -58.733;  -62.000;    0.000; 3.26667
 842.05;  -70.333;  -79.600;    0.000; 9.26666
 842.30;  -49.600;  -76.667;    0.000;27.06667
 842.55;  -64.533;  -92.667;    0.000;28.13333
 842.79;  -82.533;  -82.400;    0.000;-0.13333
 843.04;  -58.333;  -71.800;    0.000;13.46667
 843.29;  -78.467;  -50.000;    0.000;-28.46667
 843.54;  -48.867;  -64.533;    0.000;15.66667
 843.79;  -79.067;  -57.200;    0.000;-21.86666
 844.04;  -75.867;  -79.400;    0.000; 3.53333
 844.29;  -59.333;  -84.400;    0.000;25.06667
 844.54;  -65.533;  -86.467;    0.000;20.93333
 844.79;  -78.933;  -65.200;    0.000;-13.73334
 845.04;  -61.000;  -84.133;    0.000;23.13333
 845.28;  -66.333;  -56.067;    0.000;-10.26667
 845.53;  -74.867;  -90.333;    0.000;15.46667
 845.78;  -51.133;  -51.400;    0.000; 0.26667
 846.03;  -66.067;  -73.267;    0.000; 7.20000
 846.28;  -53.867;  -73.400;    0.000;19.53334
 846.53;  -50.800;  -82.133;    0.000;31.33333
 846.78;  -54.000;  -74.067;    0.000;20.06667
 847.02;  -70.200;  -86.600;    0.000;16.40000
 847.27;  -62.533;  -82.133;    0.000;19.60000
 847.52;  -73.333;  -97.400;    0.000;24.06667
 847.77;  -64.800;  -68.800;    0.000; 4.00000
 848.02;  -84.267;  -69.667;    0.000;-14.60001
 848.27;  -57.400;  -54.133;    0.000;-3.26667
 848.52;  -55.733;  -99.333;    0.000;43.60000
 848.76;  -55.133;  -66.533;    0.000;11.40000
 849.01;  -64.667;  -64.733;    0.000; 0.06667
 849.26;  -79.667;  -52.333;    0.000;-27.33333
 849.51;  -59.600;  -70.533;    0.000;10.93333
 849.76;  -42.600;  -62.133;    0.000;19.53334
 850.01;  -85.467;  -87.867;    0.000; 2.40000
 850.25;  -63.600;  -73.133;    0.000; 9.53333
 850.50;  -77.200;  -75.800;    0.000;-1.39999
 850.75;  -68.133;  -51.600;    0.000;-16.53333
 851.00;  -59.733;  -88.267;    0.000;28.53334
 851.25;  -60.533;  -46.733;    0.000;-13.80000
 851.49;  -75.000;  -67.667;    0.000;-7.33334
 851.74;  -72.733;  -72.133;    0.000;-0.60000
 851.99;  -75.733;  -96.133;    0.000;20.40000
 852.24;  -46.467;  -64.267;    0.000;17.80000
 852.49;  -73.333;  -96.067;    0.000;22.73333
 852.73;  -77.733;  -64.533;    0.000;-13.20000
 852.98;  -64.733;  -86.200;    0.000;21.46667
 853.23;  -49.667;  -65.800;    0.000;16.13334
 853.48;  -82.200;  -79.333;    0.000;-2.86666
 853.73;  -72.333;  -69.400;    0.000;-2.93333
 853.97;  -61.000;  -94.600;    0.000;33.60000
 854.22;  -63.800;  -63.267;    0.000;-0.53333
 854.47;  -80.000;  -88.400;    0.000; 8.40000
 854.72;  -61.667;  -62.067;    0.000; 0.40000
 854.96;  -75.867;  -87.933;    0.000;12.06667
 855.21;  -61.933;  -53.000;    0.000;-8.93333
 855.46;  -71.200;  -77.467;    0.000; 6.26667
 855.71;  -69.333;  -73.400;    0.000; 4.06667
 855.95;  -86.000;  -70.933;    0.000;-15.06667
 856.20;  -60.533;  -64.933;    0.000; 4.40000
 856.45;  -87.533; -101.067;    0.000;13.53333
 856.70;  -54.267;  -62.800;    0.000; 8.53333
 856.94;  -70.000;  -78.000;    0.000; 8.00000
 857.19;  -71.933;  -57.333;    0.000;-14.60000
 857.44;  -57.533;  -82.800;    0.000;25.26667
 857.69;  -69.467;  -51.000;    0.000;-18.46667
 857.93;  -85.333;  -75.467;    0.000;-9.86667
 858.18;  -65.333;  -34.533;    0.000;-30.80000
 858.43;  -69.800;  -67.200;    0.000;-2.60001
 858.67;  -52.733;  -46.933;    0.000;-5.80000
 858.92;  -62.267;  -79.133;    0.000;16.86666
 859.17;  -22.667;  -42.267;    0.000;19.60000
 859.42;  -65.267;  -91.933;    0.000;26.66666
 859.66;  -64.800;  -51.533;    0.000;-13.26667
 859.91;  -60.133;  -84.800;    0.000;24.66667
 860.16;  -78.000;  -74.133;    0.000;-3.86667
 860.40;  -72.000;  -88.733;    0.000;16.73333
 860.65;  -76.600;  -81.267;    0.000; 4.66667
 860.90;  -78.267; -117.600;    0.000;39.33333
 861.14;  -60.133;  -56.400;    0.000;-3.73333
 861.39;  -92.667;  -79.200;    0.000;-13.46667
 861.64;  -69.200;  -63.067;    0.000;-6.13333
 861.88;  -74.133;  -93.467;    0.000;19.33334
 862.13;  -50.533;  -59.067;    0.000; 8.53333
 862.38;  -86.333; -103.800;    0.000;17.46667
 862.62;  -55.733;  -56.667;    0.000; 0.93333
 862.87;  -71.867;  -77.133;    0.000; 5.26666
 863.12;  -79.333;  -67.000;    0.000;-12.33334
 863.36;  -61.067;  -85.933;    0.000;24.86667
 863.61;  -64.067;  -57.200;    0.000;-6.86666
 863.86;  -74.800;  -74.667;    0.000;-0.13334
 864.10;  -65.933;  -62.933;    0.000;-3.00000
 864.35;  -86.200;  -90.400;    0.000; 4.20000
 864.60;  -55.400;  -64.800;    0.000; 9.40000
 864.84;  -69.667;  -82.533;    0.000;12.86667
 865.09;  -69.467;  -54.667;    0.000;-14.80000
 865.33;  -79.267;  -84.733;    0.000; 5.46666
 865.58;  -69.267;  -54.333;    0.000;-14.93334
 865.83;  -74.467;  -81.933;    0.000; 7.46667
 866.07;  -67.800;  -64.467;    0.000;-3.33334
 866.32;  -44.333;  -61.800;    0.000;17.46667
 866.57;  -49.600;  -52.067;    0.000; 2.46667
 866.81;  -69.333;  -85.200;    0.000;15.86666
 867.06;  -56.133;  -78.133;    0.000;22.00000
 867.30;  -66.733;  -83.267;    0.000;16.53334
 867.55;  -54.400;  -62.000;    0.000; 7.60000
 867.80;  -72.533;  -73.067;    0.000; 0.53333
 868.04;  -59.733;  -66.133;    0.000; 6.40000
 868.29;  -78.600;  -87.067;    0.000; 8.46667
 868.53;  -71.400;  -42.000;    0.000;-29.40000
 868.78;  -66.467;  -99.200;    0.000;32.73333
 869.03;  -61.667;  -67.400;    0.000; 5.73333
 869.27;  -48.733;  -58.800;    0.000;10.06667
 869.52;  -64.333;  -67.800;    0.000; 3.46667
 869.76;  -67.400;  -80.200;    0.000;12.80000
 870.01;  -61.933;  -62.533;    0.000; 0.60000
 870.25;  -64.200;  -81.933;    0.000;17.73334
 870.50;  -56.467;  -67.467;    0.000;11.00000
 870.75;  -61.800;  -69.067;    0.000; 7.26667
 870.99;  -63.467;  -52.467;    0.000;-11.00000
 871.24;  -71.600;  -73.467;    0.000; 1.86667
 871.48;  -68.800;  -48.933;    0.000;-19.86667
 871.73;  -69.933;  -74.467;    0.000; 4.53333
 871.97;  -66.200;  -62.267;    0.000;-3.93333
 872.22;  -43.467;  -90.267;    0.000;46.80000
 872.46;  -46.600;  -67.000;    0.000;20.40000
 872.71;  -80.400;  -82.600;    0.000; 2.20000
 872.95;  -47.867;  -56.667;    0.000; 8.80000
 873.20;  -71.667;  -77.000;    0.000; 5.33334
 873.44;  -40.333;  -74.333;    0.000;34.00000
 873.69;  -67.333;  -79.933;    0.000;12.60000
 873.94;  -76.600;  -39.067;    0.000;-37.53333
 874.18;  -70.267;  -95.400;    0.000;25.13333
 874.43;  -69.467;  -48.867;    0.000;-20.60000
 874.67;  -63.933;  -92.733;    0.000;28.80000
 874.92;  -73.600;  -45.267;    0.000;-28.33333
 875.16;  -81.133;  -77.267;    0.000;-3.86666
 875.41;  -57.733;  -62.267;    0.000; 4.53333
 875.65;  -77.933;  -77.533;    0.000;-0.40000
 875.90;  -66.133;  -48.467;    0.000;-17.66666
 876.14;  -62.733;  -91.267;    0.000;28.53334
 876.39;  -43.667;  -44.933;    0.000; 1.26667
 876.63;  -70.000;  -85.667;    0.000;15.66666
 876.88;  -47.800;  -72.533;    0.000;24.73333
 877.12;  -49.200;  -55.533;    0.000; 6.33333
 877.36;  -69.667;  -60.267;    0.000;-9.40000
 877.61;  -42.733;  -95.533;    0.000;52.80000
 877.85;  -72.533;  -57.733;    0.000;-14.80000
 878.10;  -55.733;  -75.333;    0.000;19.60000
 878.34;  -66.800;  -41.600;    0.000;-25.20000
 878.59;  -66.467;  -46.600;    0.000;-19.86667
 878.83;  -56.200;  -69.467;    0.000;13.26667
 879.08;  -52.733;  -51.467;    0.000;-1.26667
 879.32;  -58.933;  -47.400;    0.000;-11.53333
 879.57;  -40.533;  -67.667;    0.000;27.13333
 879.81;  -70.533;  -48.000;    0.000;-22.53333
 880.05;  -71.533;  -69.200;    0.000;-2.33334
 880.30;  -74.667;  -58.000;    0.000;-16.66666
 880.54;  -52.533;  -86.733;    0.000;34.20000
 880.79;  -56.467;  -61.000;    0.000; 4.53333
 881.03;  -71.733;  -91.933;    0.000;20.20000
 881.28;  -39.267;  -36.267;    0.000;-3.00000
 881.52;  -78.933;  -78.000;    0.000;-0.93333
 881.76;  -58.800;  -62.867;    0.000; 4.06667
 882.01;  -64.467;  -75.933;    0.000;11.46667
 882.25;  -43.333;  -60.600;    0.000;17.26667
 882.50;  -73.467;  -77.067;    0.000; 3.60000
 882.74;  -60.067;  -38.600;    0.000;-21.46667
 882.98;  -75.533;  -72.800;    0.000;-2.73333
 883.23;  -60.133;  -55.133;    0.000;-5.00000
 883.47;  -55.600;  -75.400;    0.000;19.80000
 883.72;  -40.867;  -52.467;    0.000;11.60000
 883.96;  -71.600;  -72.800;    0.000; 1.20000
 884.20;  -45.800;  -52.400;    0.000; 6.60000
 884.45;  -63.733;  -66.200;    0.000; 2.46666
 884.69;  -52.733;  -50.533;    0.000;-2.20000
 884.94;  -47.867;  -54.533;    0.000; 6.66667
 885.18;  -74.600;  -44.400;    0.000;-30.20000
 885.42;  -61.467;  -83.333;    0.000;21.86667
 885.67;  -48.133;  -44.200;    0.000;-3.93333
 885.91;  -63.133;  -75.467;    0.000;12.33333
 886.15;  -44.000;  -59.133;    0.000;15.13334
 886.40;  -66.600;  -52.800;    0.000;-13.80000
 886.64;  -59.933;  -47.667;    0.000;-12.26667
 886.88;  -59.067;  -53.333;    0.000;-5.73333
 887.13;  -41.467;  -38.400;    0.000;-3.06667
 887.37;  -58.333;  -81.600;    0.000;23.26667
 887.62;  -51.467;  -42.867;    0.000;-8.60000
 887.86;  -71.400;  -60.933;    0.000;-10.46667
 888.10;  -48.800;  -46.000;    0.000;-2.80000
 888.35;  -44.533;  -61.467;    0.000;16.93333
 888.59;  -54.933;  -58.200;    0.000; 3.26667
 888.83;  -53.600;  -61.000;    0.000; 7.40000
 889.07;  -59.867;  -49.133;    0.000;-10.73333
 889.32;  -40.867;  -78.133;    0.000;37.26667
 889.56;  -36.733;  -22.467;    0.000;-14.26667
 889.80;  -54.533;  -57.267;    0.000; 2.73333
 890.05;  -59.533;  -65.600;    0.000; 6.06667
 890.29;  -48.133;  -52.200;    0.000; 4.06667
 890.53;  -50.733;  -46.200;    0.000;-4.53333
 890.78;  -58.267;  -86.867;    0.000;28.60000
 891.02;  -42.133;  -39.000;    0.000;-3.13334
 891.26;  -45.400;  -72.600;    0.000;27.20000
 891.51;  -35.733;  -46.600;    0.000;10.86666
 891.75;  -36.667;  -59.067;    0.000;22.40000
 891.99;  -54.400;  -36.467;    0.000;-17.93333
 892.23;  -71.400;  -54.133;    0.000;-17.26667
 892.48;  -42.600;  -42.267;    0.000;-0.33333
 892.72;  -40.200;  -44.933;    0.000; 4.73333
 892.96;  -32.133;  -28.333;    0.000;-3.80000
 893.20;  -28.667;  -37.533;    0.000; 8.86667
 893.45;  -47.400;  -40.933;    0.000;-6.46667
 893.69;  -47.133;  -60.133;    0.000;13.00000
 893.93;  -11.933;  -18.067;    0.000; 6.13333
 894.17;  -43.933;  -71.067;    0.000;27.13333
 894.42;  -47.600;  -30.067;    0.000;-17.53333
 894.66;  -49.200;  -54.267;    0.000; 5.06667
 894.90;  -31.000;  -40.267;    0.000; 9.26667
 895.14;  -33.533;  -29.533;    0.000;-4.00000
 895.39;  -34.933;  -48.267;    0.000;13.33333
 895.63;   -6.800;  -44.333;    0.000;37.53333
 895.87;  -41.533;  -42.000;    0.000; 0.46667
 896.11;  -32.533;  -34.667;    0.000; 2.13334
 896.36;  -35.867;  -26.000;    0.000;-9.86666
 896.60;  -50.467;  -37.800;    0.000;-12.66667
 896.84;  -28.533;  -17.333;    0.000;-11.20000
 897.08;  -31.133;  -43.867;    0.000;12.73333
 897.32;  -11.000;  -13.067;    0.000; 2.06667
 897.57;   -0.667;  -42.800;    0.000;42.13333
 897.81;  -19.400;  -30.000;    0.000;10.60000
 898.05;  -35.867;  -46.533;    0.000;10.66667
 898.29;  -14.467;  -11.667;    0.000;-2.80000
 898.53;  -12.133;  -24.000;    0.000;11.86667
 898.78;   -1.200;   -1.333;    0.000; 0.13333
 899.02;    1.067;  -25.600;    0.000;26.66667
 899.26;    7.667;   -2.400;    0.000;10.06667
 899.50;    1.400;   15.933;    0.000;-14.53333
 899.74;  -11.267;   13.400;    0.000;-24.66667
 899.99;   -9.600;  -20.400;    0.000;10.80000
 900.23;   17.600;   12.400;    0.000; 5.20000
 900.47;   16.667;   -2.067;    0.000;18.73333
 900.71;   27.067;   37.067;    0.000;-10.00000
 900.95;   31.333;   21.200;    0.000;10.13333
 901.19;   34.267;   43.800;    0.000;-9.53333
 901.44;   35.000;   44.733;    0.000;-9.73333
 901.68;   67.067;   90.733;    0.000;-23.66666
 901.92;   89.267;   66.133;    0.000;23.13334
 902.16;  106.400;   85.867;    0.000;20.53333
 902.40;  111.200;   91.933;    0.000;19.26666
 902.64;  149.600;  139.933;    0.000; 9.66667
 902.88;  155.667;  136.067;    0.000;19.60001
 903.13;  181.200;  183.600;    0.000;-2.40001

