point1
Integration time [ms]:  30.000
Averaging Nr. [scans]: 15
Smoothing Nr. [pixels]: 0
Data measured with spectrometer [name]: 1307077U2
Wave   ;Sample   ;Dark     ;Reference;Scope Corrected for Dark
[nm]   ;[counts] ;[counts] ;[counts] 

 350.80;   22.067;   10.133;    0.000;11.93333
 351.10;   -5.733;  -15.000;    0.000; 9.26667
 351.39;   28.467;   32.600;    0.000;-4.13333
 351.69;   -2.867;  -19.200;    0.000;16.33333
 351.99;   -1.600;  -12.200;    0.000;10.60000
 352.28;    4.867;  -30.667;    0.000;35.53333
 352.58;   -3.933;   -7.133;    0.000; 3.20000
 352.88;  -10.400;  -28.067;    0.000;17.66667
 353.17;   -1.133;    3.600;    0.000;-4.73333
 353.47;  -14.000;  -22.600;    0.000; 8.60000
 353.76;   13.000;  -20.000;    0.000;33.00000
 354.06;  -11.467;   13.200;    0.000;-24.66667
 354.36;    1.200;    5.933;    0.000;-4.73333
 354.65;   13.400;    6.667;    0.000; 6.73333
 354.95;    3.467;   -7.667;    0.000;11.13333
 355.24;   -4.400;    5.400;    0.000;-9.80000
 355.54;   16.267;   -2.133;    0.000;18.40000
 355.84;   12.867;  -11.533;    0.000;24.40000
 356.13;   17.467;   19.667;    0.000;-2.20000
 356.43;   -5.600;  -18.400;    0.000;12.80000
 356.72;  -13.267;  -15.000;    0.000; 1.73333
 357.02;   -0.400;   -8.933;    0.000; 8.53333
 357.31;   21.133;   11.867;    0.000; 9.26667
 357.61;   -9.333;  -12.667;    0.000; 3.33333
 357.91;   -5.267;  -28.800;    0.000;23.53333
 358.20;   11.400;  -10.067;    0.000;21.46667
 358.50;  -11.067;   -5.533;    0.000;-5.53333
 358.79;   -4.200;   -7.867;    0.000; 3.66667
 359.09;    6.533;   -3.200;    0.000; 9.73333
 359.38;  -18.333;    2.333;    0.000;-20.66667
 359.68;  -30.000;  -25.533;    0.000;-4.46667
 359.98;    3.733;  -24.867;    0.000;28.60000
 360.27;   12.733;   10.533;    0.000; 2.20000
 360.57;    6.267;  -11.000;    0.000;17.26667
 360.86;    1.600;    0.467;    0.000; 1.13333
 361.16;  -21.000;  -17.267;    0.000;-3.73333
 361.45;    8.000;  -12.133;    0.000;20.13333
 361.75;  -24.867;  -13.133;    0.000;-11.73333
 362.04;   34.733;   24.333;    0.000;10.40000
 362.34;  -13.467;  -16.467;    0.000; 3.00000
 362.64;   15.867;   -9.000;    0.000;24.86667
 362.93;   -4.467;   -3.133;    0.000;-1.33333
 363.23;   -9.600;  -18.333;    0.000; 8.73333
 363.52;   -5.800;   -8.400;    0.000; 2.60000
 363.82;    3.000;  -18.733;    0.000;21.73333
 364.11;   -6.533;    1.067;    0.000;-7.60000
 364.41;  -22.600;  -12.867;    0.000;-9.73333
 364.70;  -10.733;   -7.333;    0.000;-3.40000
 365.00;   14.800;    8.667;    0.000; 6.13333
 365.29;   -7.533;   -7.533;    0.000; 0.00000
 365.59;  -27.133;  -25.600;    0.000;-1.53333
 365.88;  -14.667;  -30.867;    0.000;16.20000
 366.18;  -12.333;   -6.800;    0.000;-5.53333
 366.47;   -9.000;  -14.533;    0.000; 5.53333
 366.77;   14.667;   -3.067;    0.000;17.73333
 367.06;   -9.800;  -25.000;    0.000;15.20000
 367.36;    7.600;   14.200;    0.000;-6.60000
 367.65;    4.867;   -8.800;    0.000;13.66667
 367.95;   -2.533;  -15.733;    0.000;13.20000
 368.24;   -8.267;  -12.867;    0.000; 4.60000
 368.54;   -5.333;  -14.200;    0.000; 8.86667
 368.83;   15.400;   -9.733;    0.000;25.13333
 369.13;    1.267;   -2.333;    0.000; 3.60000
 369.42;  -10.467;   -4.467;    0.000;-6.00000
 369.72;   20.267;  -15.000;    0.000;35.26667
 370.01;   -6.533;  -19.067;    0.000;12.53333
 370.31;    4.667;    3.267;    0.000; 1.40000
 370.60;   23.667;  -10.000;    0.000;33.66667
 370.90;   -4.400;   -9.067;    0.000; 4.66667
 371.19;  -11.533;  -29.200;    0.000;17.66667
 371.49;  -18.400;  -21.133;    0.000; 2.73333
 371.78;   -4.333;  -20.867;    0.000;16.53333
 372.08;    8.800;    1.400;    0.000; 7.40000
 372.37;   -1.400;  -23.467;    0.000;22.06667
 372.67;   16.000;   -1.600;    0.000;17.60000
 372.96;   -3.933;   -9.667;    0.000; 5.73333
 373.26;  -16.933;   -9.200;    0.000;-7.73333
 373.55;   -3.667;  -10.400;    0.000; 6.73333
 373.85;    3.267;  -28.400;    0.000;31.66667
 374.14;  -21.067;   -8.467;    0.000;-12.60000
 374.43;   11.267;  -16.267;    0.000;27.53333
 374.73;   14.200;  -16.333;    0.000;30.53333
 375.02;   10.200;   -0.533;    0.000;10.73333
 375.32;  -12.800;  -28.733;    0.000;15.93333
 375.61;   -9.533;   -5.267;    0.000;-4.26667
 375.91;  -17.600;  -13.000;    0.000;-4.60000
 376.20;  -35.267;  -40.533;    0.000; 5.26667
 376.50;  -16.267;  -23.733;    0.000; 7.46667
 376.79;  -24.067;  -28.200;    0.000; 4.13333
 377.08;  -12.667;  -22.000;    0.000; 9.33333
 377.38;  -14.667;  -24.467;    0.000; 9.80000
 377.67;  -22.667;   -6.800;    0.000;-15.86667
 377.97;  -11.400;  -19.067;    0.000; 7.66667
 378.26;  -17.467;  -27.733;    0.000;10.26667
 378.56;   -8.467;  -37.067;    0.000;28.60000
 378.85;   10.933;    8.000;    0.000; 2.93333
 379.14;  -14.733;  -13.733;    0.000;-1.00000
 379.44;    2.400;  -12.733;    0.000;15.13333
 379.73;    0.733;  -25.000;    0.000;25.73333
 380.03;    0.400;   -8.867;    0.000; 9.26667
 380.32;    0.933;    7.600;    0.000;-6.66667
 380.62;  -15.267;   -7.733;    0.000;-7.53333
 380.91;   -5.200;  -11.533;    0.000; 6.33333
 381.20;  -17.800;  -13.200;    0.000;-4.60000
 381.50;   -8.333;  -11.333;    0.000; 3.00000
 381.79;  -30.800;  -22.800;    0.000;-8.00000
 382.09;  -17.733;  -31.667;    0.000;13.93333
 382.38;  -15.867;  -27.867;    0.000;12.00000
 382.67;  -19.000;  -12.000;    0.000;-7.00000
 382.97;   -4.133;  -19.867;    0.000;15.73333
 383.26;  -13.133;  -10.200;    0.000;-2.93333
 383.56;   -1.067;    1.400;    0.000;-2.46667
 383.85;   -9.867;  -29.467;    0.000;19.60000
 384.14;   13.200;    2.267;    0.000;10.93333
 384.44;   -0.067;  -15.933;    0.000;15.86667
 384.73;   -5.933;  -18.667;    0.000;12.73333
 385.02;  -12.333;  -11.400;    0.000;-0.93333
 385.32;    4.800;   -1.133;    0.000; 5.93333
 385.61;  -16.467;  -40.067;    0.000;23.60000
 385.91;   13.067;   -8.667;    0.000;21.73333
 386.20;  -20.333;  -14.533;    0.000;-5.80000
 386.49;  -22.800;  -27.600;    0.000; 4.80000
 386.79;   -9.333;   -1.733;    0.000;-7.60000
 387.08;   -7.667;  -22.000;    0.000;14.33333
 387.37;  -10.133;   -8.333;    0.000;-1.80000
 387.67;  -14.400;  -18.333;    0.000; 3.93333
 387.96;  -21.200;  -21.933;    0.000; 0.73333
 388.25;   31.133;    7.733;    0.000;23.40000
 388.55;  -10.867;   -9.867;    0.000;-1.00000
 388.84;  -16.400;  -15.400;    0.000;-1.00000
 389.14;   -8.467;   -9.000;    0.000; 0.53333
 389.43;    2.867;  -21.867;    0.000;24.73333
 389.72;  -33.533;  -27.333;    0.000;-6.20000
 390.02;  -23.467;  -34.000;    0.000;10.53333
 390.31;    7.733;  -17.133;    0.000;24.86667
 390.60;  -14.533;  -17.200;    0.000; 2.66667
 390.90;  -32.067;  -24.467;    0.000;-7.60000
 391.19;  -16.400;  -29.133;    0.000;12.73333
 391.48;  -10.067;  -33.467;    0.000;23.40000
 391.78;   -4.933;  -28.333;    0.000;23.40000
 392.07;   59.467;   28.800;    0.000;30.66667
 392.36;   -5.200;    7.067;    0.000;-12.26667
 392.66;  -14.467;  -20.933;    0.000; 6.46667
 392.95;   -5.867;  -27.067;    0.000;21.20000
 393.24;  -24.000;  -35.000;    0.000;11.00000
 393.53;    2.867;  -29.133;    0.000;32.00000
 393.83;  -20.933;  -20.400;    0.000;-0.53333
 394.12;  -16.467;  -17.200;    0.000; 0.73333
 394.41;  -21.400;  -25.867;    0.000; 4.46667
 394.71;   -4.133;  -21.600;    0.000;17.46667
 395.00;   -9.800;  -24.000;    0.000;14.20000
 395.29;   -4.333;   -0.733;    0.000;-3.60000
 395.59;  -34.133;  -19.067;    0.000;-15.06667
 395.88;  -24.467;  -11.533;    0.000;-12.93333
 396.17;  -10.467;  -37.600;    0.000;27.13333
 396.46;    5.867;  -22.000;    0.000;27.86667
 396.76;  -10.333;  -33.600;    0.000;23.26667
 397.05;   23.333;   11.933;    0.000;11.40000
 397.34;  -18.333;  -18.800;    0.000; 0.46667
 397.64;  -17.667;  -13.533;    0.000;-4.13333
 397.93;  -15.667;  -17.667;    0.000; 2.00000
 398.22;  -29.733;  -34.467;    0.000; 4.73333
 398.51;   -8.400;  -17.600;    0.000; 9.20000
 398.81;   13.600;  -25.933;    0.000;39.53333
 399.10;  -18.067;  -31.067;    0.000;13.00000
 399.39;   -8.733;  -10.867;    0.000; 2.13333
 399.69;  -18.400;  -14.933;    0.000;-3.46667
 399.98;  -15.267;   -1.067;    0.000;-14.20000
 400.27;  -22.267;  -36.600;    0.000;14.33333
 400.56;   -0.667;  -21.067;    0.000;20.40000
 400.86;    0.400;  -19.467;    0.000;19.86667
 401.15;    9.000;  -13.133;    0.000;22.13333
 401.44;  -15.467;  -27.400;    0.000;11.93333
 401.73;    7.667;   -7.733;    0.000;15.40000
 402.03;    2.933;   -2.200;    0.000; 5.13333
 402.32;  -39.133;  -26.133;    0.000;-13.00000
 402.61;   -0.800;  -10.400;    0.000; 9.60000
 402.90;  -49.933;  -44.200;    0.000;-5.73333
 403.20;   -6.800;  -17.067;    0.000;10.26667
 403.49;    1.200;   -8.933;    0.000;10.13333
 403.78;   -9.667;  -20.867;    0.000;11.20000
 404.07;  -23.667;  -16.800;    0.000;-6.86667
 404.37;  -12.867;  -10.867;    0.000;-2.00000
 404.66;    2.000;  -10.933;    0.000;12.93333
 404.95;  -14.200;  -18.400;    0.000; 4.20000
 405.24;  -27.333;  -19.800;    0.000;-7.53333
 405.53;  -13.533;  -28.267;    0.000;14.73333
 405.83;   -4.800;   -1.733;    0.000;-3.06667
 406.12;  -11.733;  -31.867;    0.000;20.13333
 406.41;    5.800;   -8.600;    0.000;14.40000
 406.70;  -13.133;  -30.600;    0.000;17.46667
 407.00;   -8.867;   -5.267;    0.000;-3.60000
 407.29;  -10.867;  -19.133;    0.000; 8.26667
 407.58;   -8.667;  -31.533;    0.000;22.86667
 407.87;  -23.200;  -32.933;    0.000; 9.73333
 408.16;  -18.267;  -20.733;    0.000; 2.46667
 408.46;  -15.667;  -28.467;    0.000;12.80000
 408.75;   -3.467;  -23.067;    0.000;19.60000
 409.04;   -3.133;  -23.133;    0.000;20.00000
 409.33;    0.133;  -14.333;    0.000;14.46667
 409.62;    2.600;  -16.467;    0.000;19.06667
 409.92;    1.933;   -8.733;    0.000;10.66667
 410.21;  -30.267;  -28.600;    0.000;-1.66667
 410.50;  -21.333;  -19.933;    0.000;-1.40000
 410.79;   -2.733;    1.333;    0.000;-4.06667
 411.08;  -10.800;  -16.400;    0.000; 5.60000
 411.37;  -11.867;  -21.267;    0.000; 9.40000
 411.67;  -13.067;  -26.333;    0.000;13.26667
 411.96;  -11.533;  -31.800;    0.000;20.26667
 412.25;  -10.000;  -20.467;    0.000;10.46667
 412.54;  -19.200;  -19.867;    0.000; 0.66667
 412.83;  -22.867;  -36.267;    0.000;13.40000
 413.13;    1.533;  -22.133;    0.000;23.66667
 413.42;  -19.067;  -20.933;    0.000; 1.86666
 413.71;    0.133;  -12.467;    0.000;12.60000
 414.00;  -18.667;  -20.467;    0.000; 1.80000
 414.29;  -13.533;  -12.400;    0.000;-1.13333
 414.58;  -21.467;  -31.000;    0.000; 9.53333
 414.87;   -8.333;  -38.067;    0.000;29.73333
 415.17;   -6.067;  -27.533;    0.000;21.46667
 415.46;  -12.733;  -19.667;    0.000; 6.93333
 415.75;  -10.000;  -27.400;    0.000;17.40000
 416.04;   -4.333;  -23.867;    0.000;19.53333
 416.33;  -31.133;  -27.800;    0.000;-3.33333
 416.62;  -16.400;  -37.667;    0.000;21.26667
 416.91;  -21.067;  -25.800;    0.000; 4.73333
 417.21;  -24.267;  -31.467;    0.000; 7.20000
 417.50;  -25.133;  -31.867;    0.000; 6.73333
 417.79;  -21.333;  -23.933;    0.000; 2.60000
 418.08;  -10.133;  -26.267;    0.000;16.13333
 418.37;  -15.533;  -38.400;    0.000;22.86667
 418.66;   -6.867;  -24.600;    0.000;17.73333
 418.95;   10.533;  -16.133;    0.000;26.66667
 419.24;  -16.200;  -28.667;    0.000;12.46667
 419.54;  -15.667;  -23.467;    0.000; 7.80000
 419.83;  -17.000;  -35.267;    0.000;18.26667
 420.12;  -16.467;  -34.933;    0.000;18.46667
 420.41;   15.333;    3.467;    0.000;11.86667
 420.70;  -15.800;  -35.000;    0.000;19.20000
 420.99;   -7.000;   -0.333;    0.000;-6.66667
 421.28;  -12.200;  -16.867;    0.000; 4.66667
 421.57;    9.667;   -9.333;    0.000;19.00000
 421.86;    5.800;  -11.533;    0.000;17.33333
 422.16;  -14.267;  -17.933;    0.000; 3.66667
 422.45;  -16.267;  -37.333;    0.000;21.06667
 422.74;  -29.267;  -36.600;    0.000; 7.33333
 423.03;  -28.400;  -13.933;    0.000;-14.46667
 423.32;   -8.000;  -27.200;    0.000;19.20000
 423.61;  -10.200;  -25.467;    0.000;15.26667
 423.90;   -5.333;  -20.667;    0.000;15.33333
 424.19;   18.000;   27.000;    0.000;-9.00000
 424.48;  -10.200;   -5.400;    0.000;-4.80000
 424.77;  -10.267;   -3.933;    0.000;-6.33333
 425.06;  -13.067;  -18.733;    0.000; 5.66667
 425.35;    0.133;  -13.400;    0.000;13.53333
 425.65;  -29.267;  -33.800;    0.000; 4.53333
 425.94;  -19.467;  -19.867;    0.000; 0.40000
 426.23;  -24.933;  -39.467;    0.000;14.53333
 426.52;  -22.533;  -38.067;    0.000;15.53333
 426.81;   13.200;    3.933;    0.000; 9.26667
 427.10;  -27.467;  -33.400;    0.000; 5.93333
 427.39;  -30.600;  -21.467;    0.000;-9.13333
 427.68;  -12.600;  -17.733;    0.000; 5.13333
 427.97;    0.600;  -13.067;    0.000;13.66667
 428.26;  -16.133;  -24.600;    0.000; 8.46667
 428.55;    2.800;   -4.733;    0.000; 7.53333
 428.84;   -2.467;  -15.800;    0.000;13.33333
 429.13;  -25.133;  -15.800;    0.000;-9.33333
 429.42;   -8.133;  -20.733;    0.000;12.60000
 429.71;  -18.333;  -10.200;    0.000;-8.13333
 430.00;   -5.067;  -38.667;    0.000;33.60000
 430.29;  -34.333;  -41.867;    0.000; 7.53333
 430.58;  -26.800;  -23.867;    0.000;-2.93333
 430.87;   -4.333;  -24.267;    0.000;19.93333
 431.16;  -44.267;  -40.533;    0.000;-3.73333
 431.46;  -16.200;  -15.133;    0.000;-1.06667
 431.75;  -13.000;  -16.067;    0.000; 3.06667
 432.04;  -10.400;  -20.600;    0.000;10.20000
 432.33;  -23.600;  -28.133;    0.000; 4.53333
 432.62;    1.667;  -37.200;    0.000;38.86667
 432.91;  -21.267;  -35.933;    0.000;14.66667
 433.20;  -24.467;  -32.400;    0.000; 7.93333
 433.49;  -13.867;  -30.400;    0.000;16.53333
 433.78;  -19.733;  -43.733;    0.000;24.00000
 434.07;  -15.667;  -24.267;    0.000; 8.60000
 434.36;  -16.933;  -30.933;    0.000;14.00000
 434.65;  -26.333;  -27.867;    0.000; 1.53333
 434.94;  -22.533;  -14.667;    0.000;-7.86667
 435.23;   -7.733;  -18.933;    0.000;11.20000
 435.52;  -20.800;  -22.067;    0.000; 1.26667
 435.81;  -18.533;  -19.133;    0.000; 0.60000
 436.10;   -3.267;   -3.400;    0.000; 0.13333
 436.39;   -8.733;   -6.000;    0.000;-2.73333
 436.68;    8.533;    2.533;    0.000; 6.00000
 436.97;  -30.733;  -29.067;    0.000;-1.66667
 437.26;  -21.733;    0.200;    0.000;-21.93333
 437.55;  -20.067;  -28.067;    0.000; 8.00000
 437.83;  -28.267;  -38.800;    0.000;10.53333
 438.12;  -29.867;  -49.333;    0.000;19.46667
 438.41;  -12.200;   -8.933;    0.000;-3.26667
 438.70;    6.867;   12.267;    0.000;-5.40000
 438.99;   12.067;    3.200;    0.000; 8.86667
 439.28;   -7.933;  -13.800;    0.000; 5.86667
 439.57;  -29.467;  -28.600;    0.000;-0.86667
 439.86;  -23.800;  -32.067;    0.000; 8.26667
 440.15;    4.800;   -9.733;    0.000;14.53333
 440.44;  -14.933;    5.267;    0.000;-20.20000
 440.73;  -26.600;  -30.467;    0.000; 3.86667
 441.02;  -30.333;  -25.933;    0.000;-4.40000
 441.31;   -7.467;  -29.133;    0.000;21.66667
 441.60;  -20.267;   -1.667;    0.000;-18.60000
 441.89;  -35.333;  -36.400;    0.000; 1.06667
 442.18;  -11.600;  -27.200;    0.000;15.60000
 442.47;  -45.600;  -22.533;    0.000;-23.06667
 442.76;  -36.867;  -18.667;    0.000;-18.20000
 443.05;    6.867;   -5.600;    0.000;12.46667
 443.34;  -10.533;   -4.400;    0.000;-6.13333
 443.63;  -27.600;  -30.000;    0.000; 2.40000
 443.91;   -8.867;  -25.333;    0.000;16.46667
 444.20;   -3.600;  -15.000;    0.000;11.40000
 444.49;  -13.600;  -34.667;    0.000;21.06667
 444.78;    7.667;  -20.267;    0.000;27.93333
 445.07;    4.200;  -24.333;    0.000;28.53333
 445.36;  -22.800;  -23.267;    0.000; 0.46667
 445.65;  -10.000;  -21.067;    0.000;11.06667
 445.94;  -14.667;  -21.467;    0.000; 6.80000
 446.23;   -1.333;  -22.933;    0.000;21.60000
 446.52;    3.867;  -25.200;    0.000;29.06667
 446.81;  -22.667;  -17.800;    0.000;-4.86667
 447.10;  -25.400;  -19.133;    0.000;-6.26667
 447.38;  -22.200;  -61.067;    0.000;38.86666
 447.67;  -16.333;  -25.000;    0.000; 8.66667
 447.96;  -31.667;  -50.333;    0.000;18.66667
 448.25;  -31.200;  -28.933;    0.000;-2.26667
 448.54;   74.400;   82.533;    0.000;-8.13333
 448.83;   -2.333;  -23.200;    0.000;20.86667
 449.12;  -35.933;  -51.000;    0.000;15.06667
 449.41;  -11.600;  -14.333;    0.000; 2.73333
 449.70;  -23.733;  -20.867;    0.000;-2.86667
 449.98;  -11.200;  -25.533;    0.000;14.33333
 450.27;  -13.733;  -24.867;    0.000;11.13333
 450.56;  -21.667;  -29.067;    0.000; 7.40000
 450.85;  -32.667;  -35.400;    0.000; 2.73333
 451.14;  -16.333;  -40.733;    0.000;24.40000
 451.43;  -39.000;  -22.333;    0.000;-16.66667
 451.72;  -21.800;  -27.333;    0.000; 5.53333
 452.01;  -23.933;  -26.333;    0.000; 2.40000
 452.29;  -22.400;  -38.533;    0.000;16.13333
 452.58;  -18.933;  -30.000;    0.000;11.06667
 452.87;  -30.733;  -11.933;    0.000;-18.80000
 453.16;  -22.267;  -29.067;    0.000; 6.80000
 453.45;  -10.000;   -9.600;    0.000;-0.40000
 453.74;   -1.667;  -24.200;    0.000;22.53333
 454.03;   -7.733;  -32.867;    0.000;25.13333
 454.31;  -19.067;  -31.133;    0.000;12.06667
 454.60;  -26.933;  -29.667;    0.000; 2.73333
 454.89;   -2.867;  -14.400;    0.000;11.53333
 455.18;  -17.000;  -48.000;    0.000;31.00000
 455.47;  -32.600;  -46.800;    0.000;14.20000
 455.76;  -28.067;  -28.400;    0.000; 0.33333
 456.04;  -28.067;  -26.800;    0.000;-1.26667
 456.33;  -27.467;  -20.733;    0.000;-6.73333
 456.62;  -12.000;  -25.533;    0.000;13.53333
 456.91;   -5.733;  -43.067;    0.000;37.33333
 457.20;   15.867;  -20.200;    0.000;36.06667
 457.49;  -28.133;  -20.067;    0.000;-8.06667
 457.77;  -32.400;  -47.200;    0.000;14.80000
 458.06;  -12.000;  -33.200;    0.000;21.20000
 458.35;  -24.000;  -37.667;    0.000;13.66667
 458.64;  -33.067;  -26.800;    0.000;-6.26667
 458.93;  -13.933;  -27.933;    0.000;14.00000
 459.21;   -0.333;  -24.600;    0.000;24.26667
 459.50;  -22.933;  -25.533;    0.000; 2.60000
 459.79;  -23.667;  -44.867;    0.000;21.20000
 460.08;   -4.933;  -28.067;    0.000;23.13333
 460.37;  -15.267;  -33.467;    0.000;18.20000
 460.65;  -17.867;  -35.467;    0.000;17.60000
 460.94;  -11.200;  -32.467;    0.000;21.26667
 461.23;  -21.667;  -46.400;    0.000;24.73334
 461.52;   11.733;  -24.933;    0.000;36.66667
 461.81;  -15.400;  -32.267;    0.000;16.86667
 462.09;  -17.133;  -39.800;    0.000;22.66667
 462.38;  -27.333;  -48.200;    0.000;20.86667
 462.67;  -23.333;  -44.533;    0.000;21.20000
 462.96;  -15.400;  -34.400;    0.000;19.00000
 463.24;   -1.867;  -31.400;    0.000;29.53333
 463.53;   -6.133;  -17.933;    0.000;11.80000
 463.82;   -9.400;  -38.067;    0.000;28.66667
 464.11;  -28.667;  -44.600;    0.000;15.93333
 464.40;  -23.933;  -28.533;    0.000; 4.60000
 464.68;  -24.133;  -43.667;    0.000;19.53333
 464.97;  -15.533;  -30.733;    0.000;15.20000
 465.26;   -4.600;  -23.600;    0.000;19.00000
 465.55;  -10.667;  -26.867;    0.000;16.20000
 465.83;  -18.667;  -36.533;    0.000;17.86667
 466.12;  -22.200;  -25.400;    0.000; 3.20000
 466.41;  -14.733;  -25.800;    0.000;11.06667
 466.70;  -25.200;  -17.067;    0.000;-8.13333
 466.98;  -37.800;  -45.067;    0.000; 7.26667
 467.27;  -11.267;  -33.133;    0.000;21.86667
 467.56;  -26.133;  -12.733;    0.000;-13.40000
 467.85;   -8.467;  -22.200;    0.000;13.73333
 468.13;  -37.133;  -36.400;    0.000;-0.73333
 468.42;  -18.867;  -27.333;    0.000; 8.46667
 468.71;   -2.000;  -27.600;    0.000;25.60000
 468.99;  -16.533;  -23.533;    0.000; 7.00000
 469.28;   -9.200;  -26.267;    0.000;17.06667
 469.57;  -17.533;  -30.067;    0.000;12.53333
 469.86;  -32.133;  -24.000;    0.000;-8.13334
 470.14;  -27.133;  -55.067;    0.000;27.93333
 470.43;   -0.933;  -37.267;    0.000;36.33333
 470.72;  -13.867;  -43.200;    0.000;29.33333
 471.00;  -14.200;  -47.267;    0.000;33.06667
 471.29;    8.800;    6.733;    0.000; 2.06667
 471.58;    5.733;  -21.800;    0.000;27.53333
 471.87;  -23.667;  -18.467;    0.000;-5.20000
 472.15;  -13.400;  -29.200;    0.000;15.80000
 472.44;   -4.867;   -4.933;    0.000; 0.06667
 472.73;  -34.067;  -40.467;    0.000; 6.40000
 473.01;  -22.867;  -44.733;    0.000;21.86667
 473.30;   -9.200;  -32.800;    0.000;23.60000
 473.59;  -21.533;  -49.667;    0.000;28.13334
 473.87;   -8.000;  -26.133;    0.000;18.13333
 474.16;  -12.067;  -40.133;    0.000;28.06667
 474.45;    8.933;  -34.933;    0.000;43.86667
 474.74;  -26.400;  -51.200;    0.000;24.80000
 475.02;   -6.867;  -40.000;    0.000;33.13333
 475.31;   -6.000;  -19.600;    0.000;13.60000
 475.60;   -3.000;  -20.467;    0.000;17.46667
 475.88;   -0.933;   -9.600;    0.000; 8.66667
 476.17;   10.267;  -17.333;    0.000;27.60000
 476.46;    3.733;  -36.067;    0.000;39.80000
 476.74;    1.133;  -37.400;    0.000;38.53333
 477.03;    2.200;  -50.200;    0.000;52.40000
 477.32;   10.133;  -22.667;    0.000;32.80000
 477.60;   22.733;  -24.867;    0.000;47.60000
 477.89;   27.600;  -12.267;    0.000;39.86667
 478.18;   36.733;  -28.733;    0.000;65.46667
 478.46;   40.200;  -38.933;    0.000;79.13334
 478.75;   27.600;  -35.333;    0.000;62.93333
 479.03;   19.867;  -31.000;    0.000;50.86667
 479.32;   40.200;  -24.933;    0.000;65.13333
 479.61;   43.400;  -35.800;    0.000;79.20000
 479.89;   61.667;  -24.467;    0.000;86.13334
 480.18;   61.267;  -41.600;    0.000;102.86666
 480.47;   92.533;  -44.600;    0.000;137.13333
 480.75;   87.800;  -37.467;    0.000;125.26667
 481.04;   89.800;  -20.600;    0.000;110.40000
 481.33;  118.533;  -20.467;    0.000;139.00000
 481.61;  103.533;  -20.867;    0.000;124.40000
 481.90;  104.600;  -49.200;    0.000;153.80000
 482.18;  151.467;  -24.467;    0.000;175.93333
 482.47;  159.200;  -17.133;    0.000;176.33333
 482.76;  175.867;  -34.867;    0.000;210.73333
 483.04;  175.933;  -37.733;    0.000;213.66667
 483.33;  196.800;  -41.200;    0.000;238.00000
 483.61;  218.800;  -30.667;    0.000;249.46667
 483.90;  242.067;  -13.133;    0.000;255.20000
 484.19;  232.333;  -46.667;    0.000;279.00000
 484.47;  243.733;  -27.600;    0.000;271.33334
 484.76;  266.800;  -50.000;    0.000;316.79999
 485.05;  322.200;  -25.133;    0.000;347.33335
 485.33;  334.333;  -23.133;    0.000;357.46668
 485.62;  346.333;  -36.200;    0.000;382.53334
 485.90;  357.533;  -29.467;    0.000;386.99999
 486.19;  387.333;  -48.067;    0.000;435.40001
 486.47;  445.200;   -8.467;    0.000;453.66668
 486.76;  456.933;  -12.867;    0.000;469.79999
 487.05;  488.000;  -10.533;    0.000;498.53333
 487.33;  513.800;  -28.133;    0.000;541.93332
 487.62;  536.400;  -38.600;    0.000;575.00002
 487.90;  589.667;  -26.000;    0.000;615.66669
 488.19;  598.267;  -22.000;    0.000;620.26666
 488.47;  634.600;  -30.067;    0.000;664.66664
 488.76;  660.333;  -23.933;    0.000;684.26665
 489.05;  735.600;  -30.933;    0.000;766.53331
 489.33;  751.133;  -29.600;    0.000;780.73336
 489.62;  774.733;  -13.600;    0.000;788.33334
 489.90;  804.133;  -62.933;    0.000;867.06670
 490.19;  831.400;  -33.333;    0.000;864.73336
 490.47;  900.467;  -27.400;    0.000;927.86667
 490.76;  950.600;  -38.067;    0.000;988.66664
 491.05; 1016.600;  -18.533;    0.000;1035.13331
 491.33; 1030.867;  -30.133;    0.000;1061.00003
 491.62; 1047.000;  -42.267;    0.000;1089.26667
 491.90; 1109.600;  -43.600;    0.000;1153.19997
 492.19; 1150.133;  -41.200;    0.000;1191.33330
 492.47; 1186.267;  -40.200;    0.000;1226.46672
 492.76; 1248.600;  -43.800;    0.000;1292.39997
 493.04; 1300.267;  -19.733;    0.000;1320.00006
 493.33; 1338.667;  -50.800;    0.000;1389.46663
 493.61; 1383.333;  -34.933;    0.000;1418.26671
 493.90; 1459.467;  -25.667;    0.000;1485.13334
 494.18; 1471.467;  -17.133;    0.000;1488.60001
 494.47; 1556.467;  -25.800;    0.000;1582.26667
 494.75; 1551.333;  -54.467;    0.000;1605.80004
 495.04; 1654.933;  -33.867;    0.000;1688.80001
 495.32; 1714.200;  -31.133;    0.000;1745.33328
 495.61; 1777.200;  -24.800;    0.000;1801.99995
 495.89; 1822.067;  -18.000;    0.000;1840.06665
 496.18; 1865.733;  -23.000;    0.000;1888.73328
 496.46; 1879.800;  -35.133;    0.000;1914.93338
 496.75; 1962.133;  -19.600;    0.000;1981.73330
 497.03; 2003.600;  -40.267;    0.000;2043.86664
 497.32; 2074.267;  -36.200;    0.000;2110.46660
 497.60; 2171.933;  -44.267;    0.000;2216.20002
 497.89; 2283.067;  -23.733;    0.000;2306.79998
 498.17; 2281.733;  -31.400;    0.000;2313.13340
 498.46; 2317.533;  -47.000;    0.000;2364.53345
 498.74; 2393.867;  -27.067;    0.000;2420.93337
 499.03; 2483.533;  -32.533;    0.000;2516.06678
 499.31; 2522.600;  -44.867;    0.000;2567.46676
 499.60; 2621.733;  -23.067;    0.000;2644.80007
 499.88; 2686.400;  -20.667;    0.000;2707.06657
 500.17; 2635.600;  -51.067;    0.000;2686.66676
 500.45; 2754.733;  -29.733;    0.000;2784.46673
 500.74; 2842.333;  -30.800;    0.000;2873.13325
 501.02; 2887.267;  -25.933;    0.000;2913.19993
 501.31; 2941.067;  -39.333;    0.000;2980.39998
 501.59; 3026.333;  -36.867;    0.000;3063.19992
 501.88; 3098.533;  -34.667;    0.000;3133.20012
 502.16; 3133.200;  -35.000;    0.000;3168.19995
 502.45; 3202.333;  -40.867;    0.000;3243.19992
 502.73; 3293.600;  -39.067;    0.000;3332.66676
 503.01; 3361.000;  -44.467;    0.000;3405.46667
 503.30; 3357.133;  -59.600;    0.000;3416.73330
 503.58; 3468.467;  -49.400;    0.000;3517.86655
 503.87; 3499.333;  -34.067;    0.000;3533.39992
 504.15; 3574.400;  -41.800;    0.000;3616.19990
 504.44; 3650.867;  -18.467;    0.000;3669.33337
 504.72; 3707.867;  -21.733;    0.000;3729.60003
 505.00; 3878.733;  -35.133;    0.000;3913.86673
 505.29; 3840.067;  -14.533;    0.000;3854.59998
 505.57; 3897.933;  -49.933;    0.000;3947.86668
 505.86; 3913.200;  -44.600;    0.000;3957.79995
 506.14; 4019.200;  -40.200;    0.000;4059.39995
 506.43; 4143.533;  -35.333;    0.000;4178.86654
 506.71; 4171.067;  -43.133;    0.000;4214.20023
 506.99; 4224.867;  -42.333;    0.000;4267.20003
 507.28; 4290.267;  -26.133;    0.000;4316.39993
 507.56; 4260.600;  -49.667;    0.000;4310.26677
 507.85; 4401.133;  -50.800;    0.000;4451.93330
 508.13; 4496.467;  -22.267;    0.000;4518.73346
 508.41; 4566.867;  -12.267;    0.000;4579.13337
 508.70; 4517.333;  -50.600;    0.000;4567.93349
 508.98; 4599.267;  -39.800;    0.000;4639.06660
 509.27; 4679.667;  -45.133;    0.000;4724.79984
 509.55; 4710.733;  -30.800;    0.000;4741.53340
 509.83; 4851.667;  -58.933;    0.000;4910.59984
 510.12; 4914.933;  -33.400;    0.000;4948.33311
 510.40; 4933.400;  -29.067;    0.000;4962.46657
 510.69; 5005.667;  -52.733;    0.000;5058.39984
 510.97; 5065.200;  -30.667;    0.000;5095.86686
 511.25; 5165.333;  -52.733;    0.000;5218.06683
 511.54; 5155.600;  -27.200;    0.000;5182.80010
 511.82; 5173.467;  -22.933;    0.000;5196.40013
 512.11; 5285.933;  -27.267;    0.000;5313.19977
 512.39; 5307.333;  -34.667;    0.000;5342.00016
 512.67; 5391.467;  -39.467;    0.000;5430.93346
 512.96; 5423.933;  -42.467;    0.000;5466.39977
 513.24; 5560.867;  -19.667;    0.000;5580.53337
 513.52; 5490.800;  -25.000;    0.000;5515.79980
 513.81; 5612.467;  -16.333;    0.000;5628.80013
 514.09; 5684.333;  -49.200;    0.000;5733.53350
 514.37; 5718.467;  -48.600;    0.000;5767.06680
 514.66; 5809.933;  -24.933;    0.000;5834.86644
 514.94; 5877.533;  -41.200;    0.000;5918.73320
 515.22; 5766.333;  -49.467;    0.000;5815.80016
 515.51; 5935.733;  -42.133;    0.000;5977.86673
 515.79; 5961.600;  -32.133;    0.000;5993.73343
 516.07; 6034.133;  -47.067;    0.000;6081.19997
 516.36; 6077.467;  -47.133;    0.000;6124.60013
 516.64; 6056.000;  -31.267;    0.000;6087.26667
 516.92; 6178.200;  -49.200;    0.000;6227.40020
 517.21; 6223.200;  -51.733;    0.000;6274.93353
 517.49; 6311.600;  -44.400;    0.000;6356.00010
 517.77; 6422.733;  -31.467;    0.000;6454.20007
 518.06; 6455.267;  -55.133;    0.000;6510.39994
 518.34; 6522.867;  -33.400;    0.000;6556.26670
 518.62; 6595.667;  -27.667;    0.000;6623.33317
 518.91; 6743.867;  133.400;    0.000;6610.46671
 519.19; 6786.467;  -33.800;    0.000;6820.26680
 519.47; 6781.400;  -37.467;    0.000;6818.86657
 519.76; 6784.733;  -26.400;    0.000;6811.13340
 520.04; 6809.600;  -33.667;    0.000;6843.26677
 520.32; 6834.867;  -25.733;    0.000;6860.60003
 520.61; 6961.133;   -7.133;    0.000;6968.26663
 520.89; 6937.000;  -61.200;    0.000;6998.20000
 521.17; 7028.800;  -36.600;    0.000;7065.39980
 521.45; 7107.400;  -31.600;    0.000;7138.99990
 521.74; 7115.667;  -36.467;    0.000;7152.13317
 522.02; 7175.467;  -27.533;    0.000;7203.00013
 522.30; 7267.267;  -39.133;    0.000;7306.39994
 522.59; 7212.600;  -28.133;    0.000;7240.73343
 522.87; 7365.733;  -28.400;    0.000;7394.13340
 523.15; 7375.467;  -29.667;    0.000;7405.13346
 523.43; 7364.933;  -45.733;    0.000;7410.66644
 523.72; 7495.933;  -41.600;    0.000;7537.53310
 524.00; 7485.467;  -31.400;    0.000;7516.86680
 524.28; 7512.800;  -31.600;    0.000;7544.39981
 524.57; 7603.800;  -36.933;    0.000;7640.73314
 524.85; 7623.933;  -43.067;    0.000;7666.99977
 525.13; 7635.267;  -30.600;    0.000;7665.86660
 525.41; 7829.667;  -38.067;    0.000;7867.73317
 525.70; 7764.933;  -50.533;    0.000;7815.46644
 525.98; 7757.600;  -41.467;    0.000;7799.06676
 526.26; 7819.800;  -49.400;    0.000;7869.19981
 526.54; 7893.800;  -33.533;    0.000;7927.33314
 526.83; 7930.533;  -51.067;    0.000;7981.59987
 527.11; 7911.733;  -16.933;    0.000;7928.66673
 527.39; 8066.600;  -44.933;    0.000;8111.53343
 527.67; 8120.333;  -25.333;    0.000;8145.66683
 527.96; 8178.000;  -69.067;    0.000;8247.06667
 528.24; 8185.400;  -43.133;    0.000;8228.53324
 528.52; 8220.533;  -54.933;    0.000;8275.46654
 528.80; 8278.866;  -11.867;    0.000;8290.73288
 529.08; 8178.533;  -60.400;    0.000;8238.93320
 529.37; 8328.134;  -49.400;    0.000;8377.53379
 529.65; 8401.533;  -36.200;    0.000;8437.73320
 529.93; 8428.667;  -39.000;    0.000;8467.66699
 530.21; 8481.600;  -46.200;    0.000;8527.79961
 530.50; 8587.400;  -26.733;    0.000;8614.13372
 530.78; 8469.467;  -24.200;    0.000;8493.66680
 531.06; 8530.400;  -30.133;    0.000;8560.53372
 531.34; 8590.866;  -46.800;    0.000;8637.66621
 531.62; 8556.333;  -52.800;    0.000;8609.13301
 531.91; 8660.866;  -58.200;    0.000;8719.06621
 532.19; 8678.800;  -44.400;    0.000;8723.19981
 532.47; 8728.000;  -45.000;    0.000;8773.00000
 532.75; 8892.667;  -15.600;    0.000;8908.26699
 533.03; 8792.800;   -3.000;    0.000;8795.79980
 533.32; 8836.267;  -58.533;    0.000;8894.79993
 533.60; 8937.333;  -32.133;    0.000;8969.46634
 533.88; 8866.000;  -22.333;    0.000;8888.33333
 534.16; 8927.467;  -56.200;    0.000;8983.66680
 534.44; 8955.000;  -27.333;    0.000;8982.33333
 534.72; 9041.800;  -50.733;    0.000;9092.53314
 535.01; 9039.200;  -48.200;    0.000;9087.40020
 535.29; 9103.800;  -54.267;    0.000;9158.06647
 535.57; 9054.733;  -39.200;    0.000;9093.93340
 535.85; 9110.400;  -47.467;    0.000;9157.86706
 536.13; 9122.200;  -47.733;    0.000;9169.93353
 536.42; 9218.000;  -49.800;    0.000;9267.80000
 536.70; 9229.400;  -43.133;    0.000;9272.53373
 536.98; 9242.800;  -33.400;    0.000;9276.19981
 537.26; 9254.200;  -38.267;    0.000;9292.46686
 537.54; 9240.400;  -44.133;    0.000;9284.53373
 537.82; 9309.866;  -15.067;    0.000;9324.93288
 538.10; 9408.066;  -58.400;    0.000;9466.46641
 538.39; 9411.333;  -35.933;    0.000;9447.26634
 538.67; 9386.333;  -62.267;    0.000;9448.59967
 538.95; 9485.467;  -45.600;    0.000;9531.06680
 539.23; 9470.267;  -34.933;    0.000;9505.19994
 539.51; 9423.934;  -33.867;    0.000;9457.80026
 539.79; 9584.533;  -47.133;    0.000;9631.66654
 540.07; 9520.333;  -70.867;    0.000;9591.19968
 540.36; 9634.267;  -47.867;    0.000;9682.13327
 540.64; 9534.934;  -47.933;    0.000;9582.86693
 540.92; 9743.934;  -53.667;    0.000;9797.60026
 541.20; 9650.467;  -43.933;    0.000;9694.40013
 541.48; 9745.866;  -28.600;    0.000;9774.46621
 541.76; 9763.000;  -50.267;    0.000;9813.26667
 542.04; 9772.267;  -47.067;    0.000;9819.33327
 542.32; 9740.200;  -43.800;    0.000;9784.00019
 542.61; 9825.267;  -39.733;    0.000;9864.99994
 542.89; 9829.200;  -25.600;    0.000;9854.80020
 543.17; 9857.134;  -46.400;    0.000;9903.53379
 543.45; 9861.866;  -40.533;    0.000;9902.39954
 543.73; 9876.333;  -38.933;    0.000;9915.26634
 544.01; 9814.200;  -42.533;    0.000;9856.73353
 544.29; 9920.134;  -22.333;    0.000;9942.46712
 544.57; 9897.533;  -49.467;    0.000;9946.99987
 544.85;10037.134;  -34.467;    0.000;10071.60046
 545.13; 9930.134;  -33.133;    0.000;9963.26712
 545.42; 9922.134;  -44.400;    0.000;9966.53379
 545.70; 9984.600;  -41.400;    0.000;10025.99961
 545.98;10020.134;  -42.400;    0.000;10062.53379
 546.26; 9992.533;  -39.733;    0.000;10032.26654
 546.54;10031.267;  -69.933;    0.000;10101.19994
 546.82;10121.400;  -29.933;    0.000;10151.33372
 547.10;10079.866;  -18.200;    0.000;10098.06621
 547.38;10128.000;  -51.067;    0.000;10179.06667
 547.66;10101.066;  -39.933;    0.000;10140.99974
 547.94;10149.267;  -43.067;    0.000;10192.33327
 548.22;10095.000;  -49.733;    0.000;10144.73333
 548.50;10159.733;  -64.867;    0.000;10224.60007
 548.78;10206.533;  -52.200;    0.000;10258.73320
 549.06;10126.467;  -33.933;    0.000;10160.40013
 549.34;10177.333;  -51.333;    0.000;10228.66634
 549.63;10236.667;   -1.400;    0.000;10238.06699
 549.91;10209.134;  -31.133;    0.000;10240.26712
 550.19;10189.267;  -46.067;    0.000;10235.33327
 550.47;10188.400;  -48.800;    0.000;10237.20039
 550.75;10207.000;  -57.000;    0.000;10264.00000
 551.03;10158.134;  -62.667;    0.000;10220.80046
 551.31;10251.000;  -48.467;    0.000;10299.46667
 551.59;10232.200;  -48.467;    0.000;10280.66686
 551.87;10250.467;  -33.267;    0.000;10283.73346
 552.15;10167.200;  -41.867;    0.000;10209.06686
 552.43;10217.134;  -26.733;    0.000;10243.86712
 552.71;10219.467;  -38.733;    0.000;10258.20013
 552.99;10276.800;  -46.133;    0.000;10322.93314
 553.27;10238.533;  -58.933;    0.000;10297.46654
 553.55;10276.000;  -44.667;    0.000;10320.66667
 553.83;10362.733;  -47.267;    0.000;10410.00006
 554.11;10229.866;  -27.600;    0.000;10257.46621
 554.39;10304.467;  -43.667;    0.000;10348.13346
 554.67;10265.934;  -51.133;    0.000;10317.06693
 554.95;10295.800;  -18.400;    0.000;10314.19980
 555.23;10313.533;  -22.667;    0.000;10336.19987
 555.51;10284.667;  -50.933;    0.000;10335.60033
 555.79;10298.733;  -52.467;    0.000;10351.20007
 556.07;10259.866;  -46.467;    0.000;10306.33288
 556.35;10292.800;  -48.000;    0.000;10340.79980
 556.63;10220.934;  -47.600;    0.000;10268.53359
 556.91;10184.467;  -20.067;    0.000;10204.53346
 557.19;10265.134;  -47.867;    0.000;10313.00045
 557.47;10246.533;  -46.000;    0.000;10292.53320
 557.75;10187.066;  -37.400;    0.000;10224.46641
 558.03;10266.134;  -32.000;    0.000;10298.13379
 558.31;10284.066;  -64.933;    0.000;10348.99974
 558.59;10267.800;  -41.000;    0.000;10308.79980
 558.87;10288.200;  -30.867;    0.000;10319.06686
 559.15;10257.400;  -41.267;    0.000;10298.66706
 559.43;10294.467;  -37.733;    0.000;10332.20013
 559.71;10309.000;  -31.333;    0.000;10340.33333
 559.99;10345.934;  -56.400;    0.000;10402.33360
 560.27;10258.866;  -28.600;    0.000;10287.46621
 560.55;10278.600;  -36.933;    0.000;10315.53294
 560.82;10204.066;  -45.533;    0.000;10249.59974
 561.10;10169.134;  -30.467;    0.000;10199.60046
 561.38;10281.667;  -24.133;    0.000;10305.80033
 561.66;10203.533;   -8.267;    0.000;10211.79987
 561.94;10220.866;  -53.200;    0.000;10274.06621
 562.22;10205.134;  -45.467;    0.000;10250.60046
 562.50;10169.400;  -32.200;    0.000;10201.60039
 562.78;10178.066;  -41.333;    0.000;10219.39974
 563.06;10122.533;  -30.467;    0.000;10152.99987
 563.34;10230.866;  -41.667;    0.000;10272.53288
 563.62;10105.934;  -47.800;    0.000;10153.73359
 563.90;10089.800;  -54.600;    0.000;10144.39980
 564.18;10084.000;  -47.667;    0.000;10131.66667
 564.46;10015.267;  -52.467;    0.000;10067.73327
 564.74;10004.934;  -35.667;    0.000;10040.60026
 565.01;10006.333;  -36.667;    0.000;10042.99968
 565.29; 9995.000;  -46.400;    0.000;10041.40000
 565.57; 9949.467;  -50.533;    0.000;10000.00013
 565.85; 9981.667;  -30.133;    0.000;10011.80033
 566.13; 9928.000;  -59.733;    0.000;9987.73333
 566.41; 9972.733;  -23.467;    0.000;9996.20007
 566.69;10000.134;  -55.267;    0.000;10055.40046
 566.97; 9978.600;  -40.400;    0.000;10018.99961
 567.25; 9905.200;  -30.600;    0.000;9935.80020
 567.53; 9861.800;  -44.467;    0.000;9906.26647
 567.80; 9866.667;  -35.733;    0.000;9902.40033
 568.08; 9731.267;  -55.067;    0.000;9786.33327
 568.36; 9747.600;  -41.000;    0.000;9788.59961
 568.64; 9735.134;  -62.133;    0.000;9797.26712
 568.92; 9741.066;  -45.667;    0.000;9786.73307
 569.20; 9674.934;  -59.867;    0.000;9734.80026
 569.48; 9675.467;  -47.400;    0.000;9722.86680
 569.76; 9733.667;  -53.467;    0.000;9787.13366
 570.03; 9603.533;  -36.067;    0.000;9639.59987
 570.31; 9617.066;  -40.467;    0.000;9657.53307
 570.59; 9529.333;  -59.000;    0.000;9588.33301
 570.87; 9495.333;  -32.200;    0.000;9527.53301
 571.15; 9640.733;  -43.200;    0.000;9683.93340
 571.43; 9577.667;  -43.600;    0.000;9621.26699
 571.71; 9373.333;  -53.333;    0.000;9426.66634
 571.98; 9445.800;  -40.733;    0.000;9486.53314
 572.26; 9436.066;  -40.200;    0.000;9476.26641
 572.54; 9371.200;  -45.133;    0.000;9416.33353
 572.82; 9346.600;  -56.000;    0.000;9402.59961
 573.10; 9422.000;  -50.333;    0.000;9472.33333
 573.38; 9421.667;  -58.133;    0.000;9479.80033
 573.66; 9253.866;  -55.667;    0.000;9309.53288
 573.93; 9369.800;  -48.200;    0.000;9417.99981
 574.21; 9219.467;  -64.400;    0.000;9283.86680
 574.49; 9245.400;  -34.467;    0.000;9279.86706
 574.77; 9150.000;  -52.200;    0.000;9202.20000
 575.05; 9139.134;  -46.000;    0.000;9185.13379
 575.33; 9158.066;  -49.867;    0.000;9207.93307
 575.60; 9103.267;  -36.933;    0.000;9140.19994
 575.88; 9078.533;  -40.533;    0.000;9119.06654
 576.16; 9013.400;  -41.600;    0.000;9055.00039
 576.44; 8982.733;  -46.467;    0.000;9029.20007
 576.72; 8967.267;  -54.000;    0.000;9021.26660
 576.99; 8970.800;  -56.467;    0.000;9027.26647
 577.27; 8907.667;  -38.400;    0.000;8946.06699
 577.55; 8945.866;  -17.733;    0.000;8963.59954
 577.83; 8881.733;  -50.533;    0.000;8932.26673
 578.11; 8844.066;  -46.400;    0.000;8890.46641
 578.38; 8741.733;  -27.333;    0.000;8769.06673
 578.66; 8747.800;  -54.000;    0.000;8801.79980
 578.94; 8725.066;  -55.333;    0.000;8780.39974
 579.22; 8648.000;  -63.933;    0.000;8711.93333
 579.50; 8723.134;  -42.933;    0.000;8766.06712
 579.77; 8596.800;  -51.867;    0.000;8648.66647
 580.05; 8597.533;  -58.333;    0.000;8655.86654
 580.33; 8573.467;  -51.667;    0.000;8625.13346
 580.61; 8534.066;  -33.533;    0.000;8567.59974
 580.88; 8484.667;  -45.400;    0.000;8530.06699
 581.16; 8437.134;  -49.267;    0.000;8486.40046
 581.44; 8455.400;  -42.933;    0.000;8498.33372
 581.72; 8426.333;  -44.000;    0.000;8470.33301
 581.99; 8215.467;  -30.733;    0.000;8246.20013
 582.27; 8251.866;  -58.600;    0.000;8310.46621
 582.55; 8158.867;  -53.867;    0.000;8212.73336
 582.83; 8206.866;  -47.667;    0.000;8254.53288
 583.10; 8265.866;  -43.867;    0.000;8309.73288
 583.38; 8127.600;  -44.133;    0.000;8171.73343
 583.66; 8046.667;  -44.333;    0.000;8090.99984
 583.94; 8135.600;  -57.467;    0.000;8193.06676
 584.21; 8076.600;  -49.533;    0.000;8126.13343
 584.49; 7925.600;  -43.933;    0.000;7969.53343
 584.77; 7957.733;  -68.467;    0.000;8026.20007
 585.05; 7871.800;  -60.467;    0.000;7932.26647
 585.32; 7961.800;  -40.000;    0.000;8001.79980
 585.60; 7876.400;  -60.867;    0.000;7937.26657
 585.88; 7802.600;  -49.667;    0.000;7852.26677
 586.16; 7686.600;  -27.000;    0.000;7713.60010
 586.43; 7713.733;  -29.867;    0.000;7743.60007
 586.71; 7608.333;  -38.533;    0.000;7646.86683
 586.99; 7610.400;  -59.400;    0.000;7669.79990
 587.26; 7600.333;  -46.200;    0.000;7646.53350
 587.54; 7574.200;  -30.133;    0.000;7604.33353
 587.82; 7457.400;  -41.333;    0.000;7498.73323
 588.10; 7451.867;  -44.600;    0.000;7496.46670
 588.37; 7391.933;  -53.467;    0.000;7445.39977
 588.65; 7330.733;  -61.533;    0.000;7392.26673
 588.93; 7312.600;  -36.067;    0.000;7348.66676
 589.20; 7328.467;  -50.267;    0.000;7378.73346
 589.48; 7199.000;  -35.533;    0.000;7234.53333
 589.76; 7182.267;   -4.467;    0.000;7186.73327
 590.03; 7148.533;  -52.733;    0.000;7201.26654
 590.31; 7106.000;  -28.667;    0.000;7134.66667
 590.59; 7071.333;  -41.133;    0.000;7112.46683
 590.86; 7040.733;  -29.067;    0.000;7069.80007
 591.14; 6992.133;  -45.933;    0.000;7038.06664
 591.42; 6900.533;  -52.133;    0.000;6952.66654
 591.70; 6842.933;  -44.600;    0.000;6887.53310
 591.97; 6883.667;  -44.600;    0.000;6928.26650
 592.25; 6822.533;  -45.200;    0.000;6867.73320
 592.53; 6801.133;  -60.933;    0.000;6862.06664
 592.80; 6689.333;  -41.200;    0.000;6730.53350
 593.08; 6704.000;  -44.333;    0.000;6748.33333
 593.36; 6673.133;  -20.267;    0.000;6693.39997
 593.63; 6682.333;  -32.467;    0.000;6714.80016
 593.91; 6498.467;  -52.000;    0.000;6550.46680
 594.18; 6548.533;  -35.933;    0.000;6584.46654
 594.46; 6425.867;  -57.000;    0.000;6482.86670
 594.74; 6454.867;  -52.533;    0.000;6507.40003
 595.01; 6390.600;  -54.200;    0.000;6444.80010
 595.29; 6386.600;  -67.800;    0.000;6454.40010
 595.57; 6339.067;  -28.333;    0.000;6367.40023
 595.84; 6248.133;  -52.200;    0.000;6300.33330
 596.12; 6207.400;  -52.133;    0.000;6259.53324
 596.40; 6129.333;  -60.533;    0.000;6189.86683
 596.67; 6168.533;  -62.067;    0.000;6230.59987
 596.95; 6115.867;  -44.533;    0.000;6160.40003
 597.22; 5930.667;  -66.667;    0.000;5997.33317
 597.50; 5913.933;  -37.333;    0.000;5951.26644
 597.78; 5969.800;  -55.333;    0.000;6025.13314
 598.05; 5859.733;  -61.667;    0.000;5921.40007
 598.33; 5798.267;  -57.667;    0.000;5855.93327
 598.61; 5871.867;  -50.400;    0.000;5922.26670
 598.88; 5739.000;  -57.200;    0.000;5796.20000
 599.16; 5698.733;  -46.267;    0.000;5745.00006
 599.43; 5708.400;  -60.200;    0.000;5768.59990
 599.71; 5627.200;  -32.400;    0.000;5659.60020
 599.99; 5570.067;  -57.067;    0.000;5627.13356
 600.26; 5517.200;  -44.667;    0.000;5561.86686
 600.54; 5559.933;  -39.533;    0.000;5599.46644
 600.81; 5467.000;  -36.067;    0.000;5503.06667
 601.09; 5417.667;  -54.600;    0.000;5472.26650
 601.36; 5359.067;  -47.667;    0.000;5406.73356
 601.64; 5431.533;  -56.933;    0.000;5488.46654
 601.92; 5390.000;  -45.133;    0.000;5435.13334
 602.19; 5234.133;  -61.600;    0.000;5295.73330
 602.47; 5242.467;  -68.800;    0.000;5311.26680
 602.74; 5232.133;  -45.267;    0.000;5277.39997
 603.02; 5209.200;  -46.200;    0.000;5255.40020
 603.29; 5148.800;  -53.800;    0.000;5202.59980
 603.57; 5137.733;  -52.000;    0.000;5189.73340
 603.85; 5057.667;  -45.133;    0.000;5102.79984
 604.12; 5082.867;  -16.800;    0.000;5099.66670
 604.40; 4979.400;  -63.733;    0.000;5043.13324
 604.67; 4918.933;  -38.200;    0.000;4957.13311
 604.95; 4877.800;  -66.400;    0.000;4944.19981
 605.22; 4915.600;  -51.200;    0.000;4966.80010
 605.50; 4864.800;  -50.800;    0.000;4915.59980
 605.77; 4837.067;  -56.467;    0.000;4893.53356
 606.05; 4795.067;  -48.867;    0.000;4843.93356
 606.33; 4799.000;  -41.200;    0.000;4840.20000
 606.60; 4728.867;  -58.800;    0.000;4787.66670
 606.88; 4685.133;  -28.000;    0.000;4713.13330
 607.15; 4700.067;  -54.267;    0.000;4754.33356
 607.43; 4658.133;  -55.000;    0.000;4713.13330
 607.70; 4663.333;  -46.533;    0.000;4709.86683
 607.98; 4648.133;  -42.733;    0.000;4690.86663
 608.25; 4526.400;  -61.467;    0.000;4587.86657
 608.53; 4502.200;  -62.467;    0.000;4564.66686
 608.80; 4488.400;  -40.600;    0.000;4528.99990
 609.08; 4498.333;  -51.867;    0.000;4550.20016
 609.35; 4455.533;  -55.867;    0.000;4511.39987
 609.63; 4399.400;  -57.867;    0.000;4457.26657
 609.90; 4418.600;  -50.733;    0.000;4469.33343
 610.18; 4398.533;  -21.733;    0.000;4420.26654
 610.45; 4295.400;  -67.667;    0.000;4363.06657
 610.73; 4352.000;  -59.267;    0.000;4411.26667
 611.00; 4355.867;  -33.400;    0.000;4389.26670
 611.28; 4242.800;  -66.333;    0.000;4309.13314
 611.55; 4220.667;  -73.333;    0.000;4293.99984
 611.83; 4181.467;  -48.933;    0.000;4230.40013
 612.10; 4155.600;  -56.133;    0.000;4211.73343
 612.38; 4160.400;  -43.933;    0.000;4204.33324
 612.65; 4138.733;  -47.200;    0.000;4185.93340
 612.93; 4063.733;  -68.533;    0.000;4132.26673
 613.20; 4050.667;  -42.467;    0.000;4093.13342
 613.48; 4006.933;  -47.333;    0.000;4054.26668
 613.75; 4025.133;  -68.333;    0.000;4093.46664
 614.03; 4042.533;  -38.000;    0.000;4080.53345
 614.30; 3993.867;  -69.600;    0.000;4063.46670
 614.57; 3974.133;  -66.133;    0.000;4040.26663
 614.85; 3978.133;  -49.667;    0.000;4027.79997
 615.12; 3942.800;  -45.133;    0.000;3987.93338
 615.40; 3808.267;  -61.067;    0.000;3869.33327
 615.67; 3894.667;  -53.733;    0.000;3948.40008
 615.95; 3843.600;  -57.467;    0.000;3901.06676
 616.22; 3893.067;  -71.000;    0.000;3964.06665
 616.50; 3861.600;  -35.600;    0.000;3897.20010
 616.77; 3789.600;  -52.200;    0.000;3841.80010
 617.05; 3766.267;  -34.267;    0.000;3800.53327
 617.32; 3710.000;  -61.267;    0.000;3771.26667
 617.59; 3680.533;  -49.067;    0.000;3729.60011
 617.87; 3599.933;  -41.067;    0.000;3641.00002
 618.14; 3646.667;  -66.933;    0.000;3713.60008
 618.42; 3593.533;  -60.933;    0.000;3654.46678
 618.69; 3545.400;  -61.667;    0.000;3607.06657
 618.97; 3510.200;  -61.133;    0.000;3571.33329
 619.24; 3488.400;  -53.133;    0.000;3541.53324
 619.51; 3447.200;  -44.333;    0.000;3491.53328
 619.79; 3407.800;  -50.000;    0.000;3457.80005
 620.06; 3344.067;  -48.400;    0.000;3392.46665
 620.34; 3271.200;  -53.133;    0.000;3324.33329
 620.61; 3240.800;  -32.667;    0.000;3273.46672
 620.88; 3233.200;  -44.667;    0.000;3277.86662
 621.16; 3265.400;  -53.467;    0.000;3318.86657
 621.43; 3295.067;  -57.133;    0.000;3352.19999
 621.71; 3292.600;  -48.933;    0.000;3341.53343
 621.98; 3237.333;  -49.467;    0.000;3286.79992
 622.25; 3203.133;  -64.133;    0.000;3267.26663
 622.53; 3181.467;  -65.800;    0.000;3247.26656
 622.80; 3109.533;  -55.600;    0.000;3165.13345
 623.08; 3141.600;  -65.867;    0.000;3207.46677
 623.35; 3091.800;  -56.267;    0.000;3148.06672
 623.62; 3107.867;  -62.133;    0.000;3170.00003
 623.90; 3072.000;  -55.400;    0.000;3127.40000
 624.17; 3072.000;  -43.733;    0.000;3115.73333
 624.44; 3024.400;  -58.867;    0.000;3083.26657
 624.72; 3040.000;  -69.467;    0.000;3109.46667
 624.99; 2996.667;  -61.333;    0.000;3058.00008
 625.26; 2976.067;  -67.067;    0.000;3043.13332
 625.54; 3021.200;  -29.267;    0.000;3050.46662
 625.81; 3037.067;  -64.000;    0.000;3101.06665
 626.09; 3018.267;  -62.933;    0.000;3081.19994
 626.36; 3014.133;  -70.600;    0.000;3084.73330
 626.63; 2990.133;  -53.000;    0.000;3043.13330
 626.91; 2963.267;  -52.067;    0.000;3015.33327
 627.18; 2947.867;  -59.067;    0.000;3006.93336
 627.45; 2973.600;  -46.800;    0.000;3020.40010
 627.73; 3025.333;  -47.400;    0.000;3072.73325
 628.00; 2879.000;  -66.067;    0.000;2945.06667
 628.27; 2925.200;  -39.600;    0.000;2964.79995
 628.55; 2843.933;  -52.800;    0.000;2896.73335
 628.82; 2845.333;  -58.067;    0.000;2903.39992
 629.09; 2886.600;  -48.733;    0.000;2935.33343
 629.37; 2878.933;  -68.800;    0.000;2947.73335
 629.64; 2826.867;  -37.267;    0.000;2864.13337
 629.91; 2797.933;  -65.733;    0.000;2863.66668
 630.18; 2812.733;  -57.933;    0.000;2870.66673
 630.46; 2848.200;  -53.867;    0.000;2902.06662
 630.73; 2790.800;  -46.667;    0.000;2837.46672
 631.00; 2773.533;  -66.467;    0.000;2840.00011
 631.28; 2766.200;  -48.667;    0.000;2814.86662
 631.55; 2772.333;  -51.733;    0.000;2824.06659
 631.82; 2735.600;  -45.400;    0.000;2781.00010
 632.10; 2730.933;  -42.867;    0.000;2773.80001
 632.37; 2706.267;  -63.133;    0.000;2769.39994
 632.64; 2702.067;  -28.933;    0.000;2730.99998
 632.91; 2689.267;  -36.267;    0.000;2725.53327
 633.19; 2670.867;  -55.333;    0.000;2726.20003
 633.46; 2640.800;  -58.533;    0.000;2699.33338
 633.73; 2710.533;  -28.733;    0.000;2739.26678
 634.01; 2678.067;  -40.533;    0.000;2718.59998
 634.28; 2672.467;  -38.333;    0.000;2710.79988
 634.55; 2671.800;  -20.267;    0.000;2692.06672
 634.82; 2721.333;  -45.800;    0.000;2767.13325
 635.10; 2669.533;  -47.867;    0.000;2717.40011
 635.37; 2675.600;  -51.533;    0.000;2727.13343
 635.64; 2581.667;  -44.733;    0.000;2626.40008
 635.91; 2701.533;  -60.533;    0.000;2762.06678
 636.19; 2647.000;  -63.600;    0.000;2710.60000
 636.46; 2706.200;  -56.267;    0.000;2762.46662
 636.73; 2672.333;  -37.133;    0.000;2709.46659
 637.00; 2723.267;  -78.067;    0.000;2801.33327
 637.28; 2687.333;  -66.067;    0.000;2753.39992
 637.55; 2737.067;  -37.133;    0.000;2774.19999
 637.82; 2620.733;  -42.200;    0.000;2662.93340
 638.09; 2648.133;  -55.867;    0.000;2703.99997
 638.37; 2545.800;  -75.600;    0.000;2621.40005
 638.64; 2578.000;  -72.800;    0.000;2650.80000
 638.91; 2569.800;  -53.333;    0.000;2623.13338
 639.18; 2532.800;  -51.467;    0.000;2584.26672
 639.46; 2514.067;  -58.067;    0.000;2572.13332
 639.73; 2497.733;  -59.867;    0.000;2557.60006
 640.00; 2442.267;  -62.733;    0.000;2504.99994
 640.27; 2424.000;  -56.000;    0.000;2480.00000
 640.54; 2475.400;  -49.067;    0.000;2524.46657
 640.82; 2387.733;  -56.000;    0.000;2443.73340
 641.09; 2438.400;  -57.867;    0.000;2496.26657
 641.36; 2422.800;  -75.733;    0.000;2498.53338
 641.63; 2353.133;  -50.467;    0.000;2403.59997
 641.91; 2350.600;  -50.333;    0.000;2400.93343
 642.18; 2312.733;  -58.400;    0.000;2371.13340
 642.45; 2279.400;  -77.067;    0.000;2356.46657
 642.72; 2232.667;  -62.400;    0.000;2295.06675
 642.99; 2268.867;  -44.667;    0.000;2313.53337
 643.26; 2235.933;  -60.533;    0.000;2296.46668
 643.54; 2201.467;  -52.333;    0.000;2253.79988
 643.81; 2188.133;  -69.000;    0.000;2257.13330
 644.08; 2156.600;  -41.200;    0.000;2197.80010
 644.35; 2133.133;  -44.800;    0.000;2177.93330
 644.62; 2120.133;  -59.067;    0.000;2179.19997
 644.90; 2108.333;  -51.933;    0.000;2160.26659
 645.17; 2103.600;  -54.867;    0.000;2158.46676
 645.44; 2063.933;  -60.667;    0.000;2124.60002
 645.71; 2083.200;  -55.000;    0.000;2138.19995
 645.98; 2086.133;  -64.400;    0.000;2150.53330
 646.25; 2046.400;  -56.400;    0.000;2102.80003
 646.53; 2035.800;  -65.800;    0.000;2101.60005
 646.80; 2004.467;  -47.200;    0.000;2051.66668
 647.07; 2002.533;  -49.933;    0.000;2052.46666
 647.34; 1983.067;  -61.133;    0.000;2044.19999
 647.61; 1985.400;  -36.267;    0.000;2021.66669
 647.88; 1970.533;  -25.867;    0.000;1996.39999
 648.15; 1954.200;  -65.933;    0.000;2020.13329
 648.43; 1913.533;  -36.400;    0.000;1949.93333
 648.70; 1920.600;  -69.467;    0.000;1990.06664
 648.97; 1913.667;  -66.067;    0.000;1979.73329
 649.24; 1915.600;  -48.600;    0.000;1964.19997
 649.51; 1884.467;  -72.400;    0.000;1956.86668
 649.78; 1836.333;  -82.267;    0.000;1918.60004
 650.05; 1899.400;  -36.867;    0.000;1936.26669
 650.32; 1942.200;   17.333;    0.000;1924.86662
 650.60; 1855.400;  -55.467;    0.000;1910.86669
 650.87; 1873.867;  -53.067;    0.000;1926.93336
 651.14; 1797.333;  -80.400;    0.000;1877.73338
 651.41; 1795.133;  -69.400;    0.000;1864.53330
 651.68; 1785.600;  -56.467;    0.000;1842.06664
 651.95; 1806.533;  -60.800;    0.000;1867.33332
 652.22; 1799.067;  -53.667;    0.000;1852.73332
 652.49; 1734.200;  -71.533;    0.000;1805.73328
 652.76; 1766.933;  -61.133;    0.000;1828.06668
 653.03; 1769.600;  -62.000;    0.000;1831.59998
 653.31; 1735.067;  -44.333;    0.000;1779.39998
 653.58; 1727.467;  -65.533;    0.000;1793.00001
 653.85; 1696.600;  -64.933;    0.000;1761.53331
 654.12; 1699.133;  -41.667;    0.000;1740.79997
 654.39; 1677.267;  -49.667;    0.000;1726.93339
 654.66; 1672.600;  -22.733;    0.000;1695.33331
 654.93; 1685.133;  -36.600;    0.000;1721.73330
 655.20; 1642.600;  -84.133;    0.000;1726.73331
 655.47; 1639.933;  -63.667;    0.000;1703.60002
 655.74; 1642.000;  -41.867;    0.000;1683.86666
 656.01; 1610.533;  -72.333;    0.000;1682.86666
 656.28; 1611.067;  -70.200;    0.000;1681.26665
 656.55; 1604.200;  -43.133;    0.000;1647.33329
 656.83; 1581.800;  -66.933;    0.000;1648.73338
 657.10; 1561.067;  -77.133;    0.000;1638.19998
 657.37; 1533.867;  -37.067;    0.000;1570.93336
 657.64; 1569.133;  -56.800;    0.000;1625.93330
 657.91; 1538.533;  -44.467;    0.000;1582.99999
 658.18; 1546.667;  -47.133;    0.000;1593.79996
 658.45; 1545.400;  -62.733;    0.000;1608.13336
 658.72; 1468.467;  -64.933;    0.000;1533.40001
 658.99; 1498.267;  -64.400;    0.000;1562.66673
 659.26; 1507.733;  -63.400;    0.000;1571.13328
 659.53; 1434.400;  -67.000;    0.000;1501.40002
 659.80; 1503.467;  -63.667;    0.000;1567.13334
 660.07; 1478.867;  -69.800;    0.000;1548.66670
 660.34; 1448.933;  -56.067;    0.000;1505.00002
 660.61; 1441.333;  -68.000;    0.000;1509.33337
 660.88; 1434.733;  -59.533;    0.000;1494.26661
 661.15; 1425.867;  -65.067;    0.000;1490.93336
 661.42; 1417.800;  -48.067;    0.000;1465.86671
 661.69; 1393.133;  -76.933;    0.000;1470.06664
 661.96; 1360.133;  -77.467;    0.000;1437.59997
 662.23; 1351.267;  -69.800;    0.000;1421.06673
 662.50; 1367.600;  -65.200;    0.000;1432.79997
 662.77; 1354.600;  -53.867;    0.000;1408.46664
 663.04; 1323.400;  -63.933;    0.000;1387.33336
 663.31; 1346.067;  -75.467;    0.000;1421.53332
 663.58; 1350.067;  -55.000;    0.000;1405.06665
 663.85; 1351.333;  -66.467;    0.000;1417.80004
 664.12; 1311.400;  -62.400;    0.000;1373.80003
 664.39; 1261.600;  -53.600;    0.000;1315.19997
 664.66; 1285.867;  -59.200;    0.000;1345.06670
 664.93; 1274.000;  -75.733;    0.000;1349.73333
 665.20; 1261.600;  -72.200;    0.000;1333.79997
 665.47; 1242.733;  -55.467;    0.000;1298.19994
 665.74; 1254.333;  -69.067;    0.000;1323.40004
 666.01; 1238.333;  -49.533;    0.000;1287.86671
 666.28; 1225.933;  -66.867;    0.000;1292.80002
 666.55; 1185.067;  -65.067;    0.000;1250.13332
 666.82; 1177.667;  -68.600;    0.000;1246.26662
 667.09; 1202.800;  -70.933;    0.000;1273.73338
 667.36; 1210.933;  -48.400;    0.000;1259.33335
 667.63; 1173.867;  -56.400;    0.000;1230.26670
 667.90; 1199.533;  -75.000;    0.000;1274.53333
 668.16; 1162.533;  -63.000;    0.000;1225.53333
 668.43; 1156.800;  -61.400;    0.000;1218.20005
 668.70; 1129.667;  -41.533;    0.000;1171.19996
 668.97; 1149.800;  -53.667;    0.000;1203.46672
 669.24; 1129.533;  -45.667;    0.000;1175.19999
 669.51; 1147.267;  -64.800;    0.000;1212.06673
 669.78; 1086.200;  -60.067;    0.000;1146.26662
 670.05; 1104.333;  -78.600;    0.000;1182.93337
 670.32; 1135.667;  -67.333;    0.000;1202.99996
 670.59; 1082.600;  -61.067;    0.000;1143.66664
 670.86; 1076.467;  -48.200;    0.000;1124.66668
 671.13; 1096.733;  -62.133;    0.000;1158.86661
 671.40; 1041.000;  -57.800;    0.000;1098.80000
 671.67; 1055.867;  -38.333;    0.000;1094.20003
 671.93; 1017.400;  -57.400;    0.000;1074.80003
 672.20; 1035.267;  -67.733;    0.000;1103.00005
 672.47; 1034.200;  -67.267;    0.000;1101.46662
 672.74; 1018.067;  -77.267;    0.000;1095.33332
 673.01; 1005.400;  -77.333;    0.000;1082.73336
 673.28;  996.200;  -48.600;    0.000;1044.80001
 673.55; 1003.133;  -81.067;    0.000;1084.20003
 673.82;  986.667;  -65.867;    0.000;1052.53336
 674.09; 1006.267;  -58.667;    0.000;1064.93333
 674.35; 1008.867;  -76.000;    0.000;1084.86664
 674.62;  957.200;  -72.600;    0.000;1029.80001
 674.89;  937.733;  -56.733;    0.000;994.46667
 675.16;  953.933;  -73.133;    0.000;1027.06668
 675.43;  936.333;  -63.600;    0.000;999.93331
 675.70;  953.067;  -25.000;    0.000;978.06665
 675.97;  956.067;  -61.000;    0.000;1017.06665
 676.24;  936.533;  -64.733;    0.000;1001.26665
 676.50;  916.867;  -82.133;    0.000;998.99997
 676.77;  886.933;  -70.467;    0.000;957.40002
 677.04;  896.867;  -53.933;    0.000;950.79997
 677.31;  867.200;  -83.200;    0.000;950.40001
 677.58;  882.267;  -79.667;    0.000;961.93333
 677.85;  885.600;  -58.267;    0.000;943.86664
 678.12;  897.133;  -63.733;    0.000;960.86670
 678.38;  889.133;  -62.067;    0.000;951.20003
 678.65;  823.000;  -82.867;    0.000;905.86667
 678.92;  837.200;  -63.000;    0.000;900.20001
 679.19;  880.467;  -31.533;    0.000;912.00001
 679.46;  819.200;  -68.000;    0.000;887.20001
 679.73;  820.133;  -63.933;    0.000;884.06670
 679.99;  817.533;  -72.133;    0.000;889.66666
 680.26;  820.467;  -77.400;    0.000;897.86668
 680.53;  800.133;  -71.067;    0.000;871.20003
 680.80;  794.067;  -66.533;    0.000;860.59998
 681.07;  823.467;  -61.333;    0.000;884.80001
 681.33;  820.800;  -54.667;    0.000;875.46666
 681.60;  773.867;  -39.933;    0.000;813.79997
 681.87;  778.600;  -63.800;    0.000;842.39997
 682.14;  765.667;  -58.800;    0.000;824.46669
 682.41;  744.400;  -67.333;    0.000;811.73336
 682.67;  781.267;  -64.600;    0.000;845.86666
 682.94;  754.533;  -79.267;    0.000;833.80000
 683.21;  726.600;  -74.600;    0.000;801.19997
 683.48;  744.333;  -63.133;    0.000;807.46665
 683.75;  723.933;  -59.600;    0.000;783.53335
 684.01;  731.067;  -61.400;    0.000;792.46665
 684.28;  717.133;  -82.733;    0.000;799.86669
 684.55;  731.467;  -53.867;    0.000;785.33334
 684.82;  708.067;  -77.467;    0.000;785.53332
 685.09;  728.067;  -46.333;    0.000;774.39998
 685.35;  715.133;  -64.000;    0.000;779.13336
 685.62;  722.867;  -53.267;    0.000;776.13330
 685.89;  702.533;  -64.667;    0.000;767.19999
 686.16;  672.933;  -67.067;    0.000;740.00002
 686.42;  697.333;  -55.600;    0.000;752.93331
 686.69;  669.000;  -52.467;    0.000;721.46667
 686.96;  644.733;  -67.467;    0.000;712.20000
 687.23;  685.133;  -45.400;    0.000;730.53336
 687.49;  675.533;  -41.600;    0.000;717.13332
 687.76;  634.533;  -85.733;    0.000;720.26665
 688.03;  630.600;  -64.867;    0.000;695.46664
 688.30;  595.933;  -72.000;    0.000;667.93335
 688.56;  616.133;  -80.333;    0.000;696.46670
 688.83;  619.333;  -85.467;    0.000;704.79998
 689.10;  601.133;  -83.200;    0.000;684.33336
 689.37;  594.467;  -82.867;    0.000;677.33334
 689.63;  603.000;  -68.400;    0.000;671.40000
 689.90;  594.800;  -56.467;    0.000;651.26665
 690.17;  554.000;  -67.400;    0.000;621.40000
 690.44;  573.733;  -69.000;    0.000;642.73334
 690.70;  572.733;  -71.200;    0.000;643.93333
 690.97;  569.667;  -57.000;    0.000;626.66669
 691.24;  587.667;  -55.000;    0.000;642.66669
 691.50;  559.000;  -71.733;    0.000;630.73333
 691.77;  544.200;  -91.467;    0.000;635.66668
 692.04;  538.533;  -56.867;    0.000;595.39999
 692.30;  519.667;  -84.400;    0.000;604.06669
 692.57;  542.000;  -62.533;    0.000;604.53333
 692.84;  530.333;  -83.933;    0.000;614.26665
 693.11;  518.933;  -59.200;    0.000;578.13335
 693.37;  500.933;  -59.867;    0.000;560.79998
 693.64;  486.933;  -82.600;    0.000;569.53332
 693.91;  524.000;  -77.667;    0.000;601.66666
 694.17;  504.467;  -63.000;    0.000;567.46667
 694.44;  515.733;  -58.400;    0.000;574.13334
 694.71;  491.867;  -71.067;    0.000;562.93333
 694.97;  484.667;  -54.067;    0.000;538.73332
 695.24;  491.600;  -83.133;    0.000;574.73334
 695.51;  451.533;  -72.467;    0.000;523.99999
 695.77;  473.333;  -73.733;    0.000;547.06667
 696.04;  464.867;  -66.200;    0.000;531.06667
 696.31;  441.467;  -62.800;    0.000;504.26667
 696.57;  464.200;  -50.133;    0.000;514.33335
 696.84;  451.467;  -46.333;    0.000;497.80001
 697.11;  465.800;  -67.533;    0.000;533.33332
 697.37;  459.133;  -60.467;    0.000;519.60000
 697.64;  416.133;  -73.333;    0.000;489.46667
 697.91;  415.467;  -60.067;    0.000;475.53334
 698.17;  405.067;  -77.133;    0.000;482.20001
 698.44;  421.200;  -76.733;    0.000;497.93334
 698.71;  390.467;  -61.667;    0.000;452.13334
 698.97;  410.400;  -59.267;    0.000;469.66666
 699.24;  390.000;  -38.600;    0.000;428.60000
 699.50;  372.667;  -66.333;    0.000;438.99999
 699.77;  405.467;  -43.467;    0.000;448.93334
 700.04;  368.933;  -55.600;    0.000;424.53332
 700.30;  372.800;  -69.200;    0.000;441.99998
 700.57;  350.333;  -70.133;    0.000;420.46667
 700.84;  366.867;  -56.333;    0.000;423.20000
 701.10;  364.733;  -79.733;    0.000;444.46667
 701.37;  351.267;  -63.733;    0.000;415.00000
 701.63;  343.000;  -65.733;    0.000;408.73333
 701.90;  357.400;  -51.667;    0.000;409.06666
 702.17;  358.000;  -24.400;    0.000;382.40000
 702.43;  310.333;  -70.333;    0.000;380.66668
 702.70;  356.667;  -48.733;    0.000;405.39999
 702.96;  311.267;  -76.800;    0.000;388.06667
 703.23;  289.133;  -79.733;    0.000;368.86666
 703.50;  277.333;  -72.933;    0.000;350.26668
 703.76;  300.000;  -60.200;    0.000;360.20000
 704.03;  320.600;  -64.867;    0.000;385.46667
 704.29;  319.933;  -57.733;    0.000;377.66665
 704.56;  283.667;  -77.667;    0.000;361.33332
 704.82;  281.133;  -63.000;    0.000;344.13333
 705.09;  296.400;  -59.533;    0.000;355.93333
 705.36;  252.000;  -78.067;    0.000;330.06667
 705.62;  297.200;  -31.333;    0.000;328.53335
 705.89;  261.667;  -68.533;    0.000;330.19999
 706.15;  251.200;  -57.200;    0.000;308.40000
 706.42;  282.000;  -56.333;    0.000;338.33333
 706.68;  227.933;  -66.800;    0.000;294.73334
 706.95;  240.000;  -80.867;    0.000;320.86667
 707.21;  215.467;  -75.667;    0.000;291.13332
 707.48;  245.267;  -58.533;    0.000;303.80000
 707.75;  234.533;  -85.600;    0.000;320.13334
 708.01;  228.133;  -70.067;    0.000;298.20000
 708.28;  217.600;  -80.000;    0.000;297.60001
 708.54;  221.200;  -60.600;    0.000;281.80000
 708.81;  197.267;  -49.267;    0.000;246.53333
 709.07;  189.667;  -71.333;    0.000;261.00001
 709.34;  209.067;  -73.733;    0.000;282.80000
 709.60;  153.867;  -88.000;    0.000;241.86667
 709.87;  207.067;  -61.867;    0.000;268.93333
 710.13;  158.667;  -59.667;    0.000;218.33334
 710.40;  174.467;  -79.800;    0.000;254.26666
 710.66;  189.133;  -71.267;    0.000;260.40000
 710.93;  179.267;  -65.733;    0.000;244.99999
 711.19;  159.600;  -75.000;    0.000;234.60001
 711.46;  177.933;  -58.000;    0.000;235.93333
 711.72;  179.067;  -66.667;    0.000;245.73333
 711.99;  164.533;  -76.133;    0.000;240.66667
 712.25;  190.067;  -59.867;    0.000;249.93333
 712.52;  170.800;  -51.400;    0.000;222.20000
 712.78;  175.133;  -65.200;    0.000;240.33333
 713.05;  160.667;  -65.533;    0.000;226.20000
 713.31;  137.267;  -59.267;    0.000;196.53333
 713.58;  148.933;  -67.200;    0.000;216.13333
 713.84;  146.733;  -64.067;    0.000;210.80000
 714.11;  153.000;  -76.333;    0.000;229.33334
 714.37;  162.733;  -51.867;    0.000;214.60000
 714.64;  142.867;  -80.200;    0.000;223.06667
 714.90;  138.533;  -71.267;    0.000;209.80001
 715.17;  120.400;  -76.667;    0.000;197.06667
 715.43;  137.333;  -75.600;    0.000;212.93333
 715.70;  155.000;  -68.867;    0.000;223.86667
 715.96;  125.800;  -67.067;    0.000;192.86667
 716.22;  142.733;  -70.667;    0.000;213.40000
 716.49;  123.867;  -71.733;    0.000;195.60000
 716.75;  109.667;  -96.000;    0.000;205.66666
 717.02;  136.400;  -50.200;    0.000;186.59999
 717.28;  111.467;  -76.267;    0.000;187.73334
 717.55;  139.867;  -82.067;    0.000;221.93333
 717.81;  149.067;  -69.067;    0.000;218.13333
 718.08;  121.400;  -62.333;    0.000;183.73333
 718.34;  118.267;  -86.133;    0.000;204.40000
 718.60;  148.933;  -54.867;    0.000;203.80000
 718.87;  121.800;  -63.600;    0.000;185.40000
 719.13;  123.333;  -72.733;    0.000;196.06667
 719.40;  131.267;  -58.067;    0.000;189.33333
 719.66;  116.133;  -75.533;    0.000;191.66666
 719.93;  121.467;  -74.467;    0.000;195.93333
 720.19;  132.667;  -85.533;    0.000;218.20000
 720.45;  126.533;  -60.867;    0.000;187.40000
 720.72;   98.800;  -68.600;    0.000;167.40000
 720.98;  133.000;  -55.800;    0.000;188.80000
 721.25;  108.533;  -85.067;    0.000;193.60000
 721.51;  112.333;  -82.467;    0.000;194.80000
 721.77;  116.667;  -66.333;    0.000;183.00000
 722.04;  139.933;  -42.067;    0.000;182.00000
 722.30;  126.533;  -50.533;    0.000;177.06667
 722.57;  129.467;  -60.067;    0.000;189.53333
 722.83;  104.533;  -77.200;    0.000;181.73333
 723.09;  111.867;  -92.733;    0.000;204.60000
 723.36;  114.533;  -93.867;    0.000;208.40000
 723.62;  114.000;  -64.933;    0.000;178.93333
 723.88;  106.133;  -69.600;    0.000;175.73333
 724.15;  128.933;  -62.400;    0.000;191.33334
 724.41;  107.933;  -77.067;    0.000;185.00000
 724.68;  108.000;  -70.400;    0.000;178.40000
 724.94;  149.400;  -47.867;    0.000;197.26666
 725.20;  113.133;  -71.800;    0.000;184.93333
 725.47;  100.400;  -78.800;    0.000;179.20000
 725.73;  111.333;  -74.600;    0.000;185.93333
 725.99;  113.467;  -61.800;    0.000;175.26667
 726.26;  115.333;  -67.933;    0.000;183.26667
 726.52;  118.067;  -67.133;    0.000;185.20000
 726.78;  118.200;  -66.067;    0.000;184.26666
 727.05;  110.467;  -63.867;    0.000;174.33333
 727.31;  119.933;  -76.067;    0.000;196.00000
 727.57;   89.733;  -74.467;    0.000;164.20000
 727.84;  127.800;  -55.333;    0.000;183.13334
 728.10;  133.867;  -75.467;    0.000;209.33334
 728.36;  112.000;  -40.467;    0.000;152.46667
 728.63;  101.467;  -54.800;    0.000;156.26667
 728.89;   91.867;  -69.200;    0.000;161.06667
 729.15;   88.600;  -65.067;    0.000;153.66666
 729.42;   76.400;  -79.800;    0.000;156.20000
 729.68;  127.933;  -69.333;    0.000;197.26667
 729.94;   86.400;  -79.400;    0.000;165.80000
 730.21;  105.733;  -69.667;    0.000;175.39999
 730.47;   95.333;  -78.867;    0.000;174.20000
 730.73;   96.933;  -63.133;    0.000;160.06667
 731.00;   96.800;  -51.333;    0.000;148.13334
 731.26;   95.400;  -65.667;    0.000;161.06667
 731.52;  104.733;  -62.267;    0.000;167.00000
 731.78;   91.333;  -85.133;    0.000;176.46667
 732.05;   85.067;  -67.333;    0.000;152.40000
 732.31;   97.333;  -73.133;    0.000;170.46667
 732.57;   92.067;  -73.133;    0.000;165.20000
 732.84;   83.600;  -82.000;    0.000;165.60000
 733.10;   74.133;  -78.600;    0.000;152.73333
 733.36;   93.600;  -76.333;    0.000;169.93333
 733.62;   68.000;  -71.000;    0.000;139.00000
 733.89;   76.267;  -74.667;    0.000;150.93333
 734.15;   90.000;  -77.133;    0.000;167.13333
 734.41;  100.800;  -62.467;    0.000;163.26667
 734.67;   83.867;  -74.467;    0.000;158.33334
 734.94;   80.267;  -74.933;    0.000;155.20000
 735.20;  100.933;  -71.733;    0.000;172.66666
 735.46;   82.533;  -60.200;    0.000;142.73333
 735.73;   75.000;  -64.533;    0.000;139.53333
 735.99;   75.400;  -61.000;    0.000;136.40000
 736.25;   61.800;  -48.267;    0.000;110.06667
 736.51;   91.133;  -91.133;    0.000;182.26666
 736.77;   80.000;  -73.333;    0.000;153.33334
 737.04;  101.067;  -65.267;    0.000;166.33334
 737.30;   60.467;  -72.400;    0.000;132.86667
 737.56;   74.733;  -67.733;    0.000;142.46666
 737.82;   61.800;  -76.533;    0.000;138.33333
 738.09;   57.467;  -74.800;    0.000;132.26667
 738.35;   65.267;  -88.733;    0.000;154.00000
 738.61;   73.800;  -56.467;    0.000;130.26667
 738.87;   71.733;  -71.533;    0.000;143.26666
 739.14;   84.533;  -69.533;    0.000;154.06667
 739.40;   57.467;  -77.467;    0.000;134.93333
 739.66;   77.800;  -80.267;    0.000;158.06667
 739.92;   41.867;  -80.333;    0.000;122.20000
 740.18;   66.067;  -61.267;    0.000;127.33333
 740.45;   42.133;  -83.333;    0.000;125.46667
 740.71;   55.267;  -37.467;    0.000;92.73333
 740.97;   42.933;  -61.200;    0.000;104.13334
 741.23;   56.067;  -68.600;    0.000;124.66666
 741.49;   57.800;  -75.933;    0.000;133.73333
 741.76;   61.733;  -96.400;    0.000;158.13334
 742.02;   36.467;  -73.867;    0.000;110.33334
 742.28;   73.667;  -50.400;    0.000;124.06667
 742.54;   24.333;  -64.133;    0.000;88.46667
 742.80;   53.600;  -78.400;    0.000;132.00000
 743.06;   47.200;  -70.000;    0.000;117.20000
 743.33;   52.533;  -60.067;    0.000;112.60000
 743.59;   42.067;  -92.000;    0.000;134.06667
 743.85;   34.800;  -63.667;    0.000;98.46667
 744.11;   60.667;  -75.600;    0.000;136.26667
 744.37;   64.067;  -62.000;    0.000;126.06667
 744.63;   36.000;  -66.933;    0.000;102.93333
 744.90;   45.733;  -88.333;    0.000;134.06667
 745.16;   31.933;  -76.933;    0.000;108.86667
 745.42;   42.667;  -72.133;    0.000;114.80000
 745.68;   32.533;  -85.000;    0.000;117.53333
 745.94;   64.933;  -47.333;    0.000;112.26667
 746.20;   21.800;  -68.867;    0.000;90.66667
 746.46;   48.267;  -67.467;    0.000;115.73333
 746.72;   29.667;  -56.533;    0.000;86.20000
 746.99;   44.133;  -66.400;    0.000;110.53334
 747.25;   49.733;  -62.267;    0.000;112.00000
 747.51;   28.200;  -77.667;    0.000;105.86666
 747.77;   36.667;  -81.200;    0.000;117.86666
 748.03;    7.533;  -82.667;    0.000;90.20000
 748.29;   42.867;  -66.200;    0.000;109.06666
 748.55;   37.333;  -79.267;    0.000;116.60000
 748.81;    2.333;  -77.400;    0.000;79.73333
 749.08;   28.667;  -67.600;    0.000;96.26666
 749.34;   23.000;  -57.133;    0.000;80.13334
 749.60;   39.267;  -73.333;    0.000;112.60000
 749.86;   24.267;  -73.333;    0.000;97.60000
 750.12;   20.600;  -63.933;    0.000;84.53333
 750.38;   32.267;  -77.600;    0.000;109.86666
 750.64;   16.733;  -70.800;    0.000;87.53334
 750.90;   27.600;  -70.733;    0.000;98.33333
 751.16;   16.867;  -87.133;    0.000;104.00000
 751.42;    9.067;  -86.467;    0.000;95.53333
 751.68;   14.533;  -49.933;    0.000;64.46667
 751.95;    3.133;  -94.933;    0.000;98.06667
 752.21;   -3.267;  -76.800;    0.000;73.53334
 752.47;  -14.733;  -97.533;    0.000;82.80000
 752.73;   14.667;  -76.800;    0.000;91.46667
 752.99;   16.400;  -69.267;    0.000;85.66667
 753.25;    9.933;  -80.933;    0.000;90.86667
 753.51;    2.800;  -87.267;    0.000;90.06667
 753.77;   19.867;  -74.600;    0.000;94.46667
 754.03;  -12.267;  -88.467;    0.000;76.20000
 754.29;   11.400;  -64.667;    0.000;76.06666
 754.55;   -1.867;  -72.267;    0.000;70.40000
 754.81;    1.333;  -64.667;    0.000;66.00000
 755.07;  -19.267;  -77.400;    0.000;58.13334
 755.33;   18.200;  -65.067;    0.000;83.26667
 755.59;   -1.467;  -79.267;    0.000;77.80000
 755.85;   -1.667;  -68.333;    0.000;66.66667
 756.11;  -17.800;  -89.667;    0.000;71.86666
 756.37;  -10.933;  -85.800;    0.000;74.86667
 756.63;    7.400;  -52.067;    0.000;59.46667
 756.89;   -1.467;  -76.133;    0.000;74.66666
 757.15;    3.400;  -63.600;    0.000;67.00000
 757.41;   17.267;  -38.467;    0.000;55.73333
 757.68;  -19.600;  -72.000;    0.000;52.40000
 757.94;   14.800;  -64.667;    0.000;79.46666
 758.20;   -8.867;  -62.867;    0.000;54.00000
 758.46;  -12.800;  -88.600;    0.000;75.80000
 758.72;  -20.200;  -81.600;    0.000;61.40000
 758.98;   -9.800;  -52.267;    0.000;42.46667
 759.24;   -4.133;  -69.867;    0.000;65.73334
 759.50;    4.733;  -75.400;    0.000;80.13333
 759.76;   13.133;  -59.600;    0.000;72.73333
 760.02;    5.333;  -73.200;    0.000;78.53333
 760.27;  -10.667;  -78.400;    0.000;67.73333
 760.53;    3.267;  -59.600;    0.000;62.86667
 760.79;   -0.133;  -66.267;    0.000;66.13334
 761.05;  -21.467;  -56.200;    0.000;34.73333
 761.31;   -0.933;  -63.067;    0.000;62.13333
 761.57;    3.133;  -47.533;    0.000;50.66667
 761.83;  -20.800;  -75.333;    0.000;54.53334
 762.09;  -23.267;  -75.933;    0.000;52.66667
 762.35;  -31.600;  -82.733;    0.000;51.13333
 762.61;  -13.467;  -61.867;    0.000;48.40000
 762.87;  -17.933;  -52.933;    0.000;35.00000
 763.13;  -38.467;  -84.867;    0.000;46.40000
 763.39;    6.000;  -63.000;    0.000;69.00000
 763.65;  -27.467;  -80.733;    0.000;53.26666
 763.91;  -25.867;  -69.933;    0.000;44.06667
 764.17;  -14.200;  -58.667;    0.000;44.46667
 764.43;  -12.467;  -63.933;    0.000;51.46667
 764.69;  -11.667;  -78.933;    0.000;67.26667
 764.95;    2.133;  -62.533;    0.000;64.66667
 765.21;  -24.467;  -80.533;    0.000;56.06667
 765.47;   -7.467;  -93.000;    0.000;85.53333
 765.73;    7.000;  -71.267;    0.000;78.26667
 765.98;  -20.867;  -70.267;    0.000;49.40000
 766.24;  -20.200;  -89.800;    0.000;69.60000
 766.50;  -24.800;  -65.000;    0.000;40.20000
 766.76;  -10.600;  -68.933;    0.000;58.33333
 767.02;  -29.133;  -76.067;    0.000;46.93333
 767.28;  -24.800;  -72.000;    0.000;47.20000
 767.54;  -15.200;  -70.800;    0.000;55.60000
 767.80;   -6.800;  -74.267;    0.000;67.46667
 768.06;  -22.867;  -69.800;    0.000;46.93334
 768.32;  -32.067;  -56.467;    0.000;24.40000
 768.58;  -40.933;  -68.267;    0.000;27.33334
 768.83;  -14.667;  -79.667;    0.000;65.00000
 769.09;  -25.600;  -80.133;    0.000;54.53333
 769.35;   -6.267;  -67.200;    0.000;60.93333
 769.61;   -0.867;  -68.600;    0.000;67.73333
 769.87;  -17.600;  -67.200;    0.000;49.60000
 770.13;  -29.533;  -60.200;    0.000;30.66667
 770.39;  -41.333;  -88.000;    0.000;46.66667
 770.65;  -22.467;  -68.600;    0.000;46.13333
 770.90;  -26.733;  -92.800;    0.000;66.06667
 771.16;  -24.333;  -65.067;    0.000;40.73333
 771.42;  -24.533;  -86.800;    0.000;62.26667
 771.68;  -39.733;  -91.400;    0.000;51.66667
 771.94;  -13.867;  -76.600;    0.000;62.73333
 772.20;  -40.867;  -72.600;    0.000;31.73333
 772.46;  -23.667;  -95.133;    0.000;71.46667
 772.71;  -17.600;  -74.200;    0.000;56.60000
 772.97;  -21.133;  -61.467;    0.000;40.33333
 773.23;  -33.133;  -80.467;    0.000;47.33333
 773.49;  -14.267;  -60.800;    0.000;46.53333
 773.75;  -30.600;  -93.467;    0.000;62.86667
 774.01;  -38.800;  -80.000;    0.000;41.20000
 774.26;  -43.333;  -82.733;    0.000;39.40000
 774.52;  -25.733;  -55.933;    0.000;30.20000
 774.78;  -29.933;  -68.533;    0.000;38.60000
 775.04;   22.867;  -39.267;    0.000;62.13333
 775.30;    3.400;  -28.600;    0.000;32.00000
 775.56;  -45.933;  -76.867;    0.000;30.93333
 775.81;  -41.667;  -63.867;    0.000;22.20000
 776.07;  -59.600;  -79.867;    0.000;20.26667
 776.33;  -30.067;  -74.533;    0.000;44.46667
 776.59;  -35.000;  -83.467;    0.000;48.46667
 776.85;  -43.933;  -79.800;    0.000;35.86667
 777.10;  -34.400;  -76.933;    0.000;42.53333
 777.36;  -40.067;  -86.933;    0.000;46.86667
 777.62;  -27.600;  -74.800;    0.000;47.20000
 777.88;  -44.733;  -89.067;    0.000;44.33333
 778.14;  -50.800;  -67.933;    0.000;17.13334
 778.39;  -24.133;  -75.267;    0.000;51.13334
 778.65;  -23.400;  -63.733;    0.000;40.33333
 778.91;  -47.600;  -76.067;    0.000;28.46667
 779.17;  -31.400;  -74.800;    0.000;43.40000
 779.42;  -44.933;  -70.600;    0.000;25.66666
 779.68;  -47.067;  -82.400;    0.000;35.33334
 779.94;  -53.600;  -84.667;    0.000;31.06667
 780.20;  -50.000;  -74.667;    0.000;24.66666
 780.46;  -42.333;  -77.133;    0.000;34.80000
 780.71;  -48.400;  -67.000;    0.000;18.60000
 780.97;  -39.800;  -75.533;    0.000;35.73333
 781.23;  -31.933;  -83.733;    0.000;51.80000
 781.49;  -33.867;  -60.267;    0.000;26.40000
 781.74;  -38.400;  -75.333;    0.000;36.93333
 782.00;  -38.133;  -75.867;    0.000;37.73333
 782.26;  -34.733;  -64.067;    0.000;29.33333
 782.52;  -39.667;  -60.800;    0.000;21.13333
 782.77;  -40.400;  -66.733;    0.000;26.33333
 783.03;  -49.867;  -86.467;    0.000;36.60000
 783.29;  -50.267;  -83.333;    0.000;33.06667
 783.54;  -41.000;  -64.067;    0.000;23.06667
 783.80;  -24.133;  -76.000;    0.000;51.86667
 784.06;  -36.000;  -80.800;    0.000;44.80000
 784.32;  -52.333;  -76.467;    0.000;24.13334
 784.57;  -15.600;  -61.667;    0.000;46.06667
 784.83;  -60.800;  -81.467;    0.000;20.66667
 785.09;  -52.867;  -92.533;    0.000;39.66667
 785.34;  -47.533;  -95.200;    0.000;47.66666
 785.60;  -38.733;  -66.200;    0.000;27.46666
 785.86;  -51.533;  -83.333;    0.000;31.80000
 786.12;  -35.400;  -77.867;    0.000;42.46667
 786.37;  -10.333;  -48.133;    0.000;37.80000
 786.63;  -32.600;  -76.400;    0.000;43.80000
 786.89;  -29.667;  -63.600;    0.000;33.93333
 787.14;  -36.933;  -70.000;    0.000;33.06667
 787.40;  -47.067;  -71.733;    0.000;24.66666
 787.66;  -51.800;  -63.533;    0.000;11.73333
 787.91;   -9.067;  -40.667;    0.000;31.60000
 788.17;  -38.733;  -78.067;    0.000;39.33333
 788.43;  -49.933;  -81.333;    0.000;31.40000
 788.68;  -53.800;  -95.000;    0.000;41.20000
 788.94;  -34.667;  -56.867;    0.000;22.20000
 789.20;  -43.533;  -71.667;    0.000;28.13333
 789.45;  -66.333;  -84.400;    0.000;18.06667
 789.71;  -60.133;  -70.733;    0.000;10.59999
 789.97;  -38.067;  -61.533;    0.000;23.46667
 790.22;  -61.333;  -68.933;    0.000; 7.60000
 790.48;  -57.533;  -93.267;    0.000;35.73334
 790.74;  -59.067;  -78.400;    0.000;19.33334
 790.99;  -50.933;  -80.933;    0.000;30.00000
 791.25;  -65.667;  -80.000;    0.000;14.33334
 791.51;  -41.133;  -74.467;    0.000;33.33333
 791.76;  -23.867;  -52.200;    0.000;28.33333
 792.02;  -43.133;  -75.467;    0.000;32.33333
 792.27;  -36.667;  -57.533;    0.000;20.86666
 792.53;  -53.533;  -59.000;    0.000; 5.46667
 792.79;  -56.467;  -66.200;    0.000; 9.73333
 793.04;  -35.867;  -83.667;    0.000;47.80000
 793.30;  -53.467;  -89.200;    0.000;35.73333
 793.56;  -69.000;  -65.800;    0.000;-3.20000
 793.81;  -36.467;  -59.600;    0.000;23.13333
 794.07;  -55.800;  -84.933;    0.000;29.13334
 794.32;  -52.467;  -78.667;    0.000;26.20000
 794.58;  -40.267;  -96.467;    0.000;56.20000
 794.84;  -57.333;  -84.933;    0.000;27.60000
 795.09;  -43.667;  -54.133;    0.000;10.46667
 795.35;  -39.867;  -69.667;    0.000;29.80000
 795.60;  -40.733;  -49.933;    0.000; 9.20000
 795.86;  -31.533;  -53.000;    0.000;21.46667
 796.12;  -52.533;  -85.400;    0.000;32.86667
 796.37;  -51.800;  -89.867;    0.000;38.06667
 796.63;  -46.200;  -61.667;    0.000;15.46667
 796.88;  -58.000;  -68.533;    0.000;10.53333
 797.14;  -39.867;  -71.733;    0.000;31.86666
 797.39;  -33.467;  -56.133;    0.000;22.66667
 797.65;  -64.067;  -79.133;    0.000;15.06667
 797.91;  -56.867;  -80.467;    0.000;23.60000
 798.16;  -49.600;  -66.867;    0.000;17.26667
 798.42;  -52.533;  -83.600;    0.000;31.06667
 798.67;  -39.400;  -85.267;    0.000;45.86667
 798.93;  -54.733;  -90.800;    0.000;36.06667
 799.18;  -58.733;  -79.800;    0.000;21.06667
 799.44;  -55.133;  -88.267;    0.000;33.13334
 799.69;  -35.467;  -76.867;    0.000;41.40000
 799.95;  -60.667;  -97.867;    0.000;37.20000
 800.21;  -63.867;  -72.533;    0.000; 8.66667
 800.46;  -29.400;  -67.533;    0.000;38.13333
 800.72;  -68.067;  -78.733;    0.000;10.66666
 800.97;  -65.867;  -74.867;    0.000; 9.00000
 801.23;  -51.333;  -66.933;    0.000;15.60000
 801.48;  -49.867;  -89.733;    0.000;39.86666
 801.74;  -63.400;  -81.000;    0.000;17.60000
 801.99;  -42.400;  -76.800;    0.000;34.40000
 802.25;  -59.267;  -71.133;    0.000;11.86666
 802.50;  -42.267;  -78.400;    0.000;36.13334
 802.76;  -36.667;  -66.067;    0.000;29.40000
 803.01;  -44.333;  -74.400;    0.000;30.06667
 803.27;  -43.733;  -78.667;    0.000;34.93333
 803.52;  -52.467;  -79.333;    0.000;26.86667
 803.78;  -33.800;  -58.133;    0.000;24.33334
 804.03;  -52.333;  -69.067;    0.000;16.73333
 804.29;  -71.133;  -77.667;    0.000; 6.53333
 804.54;  -56.200;  -56.267;    0.000; 0.06667
 804.80;  -57.200;  -71.867;    0.000;14.66667
 805.05;  -31.067;  -73.067;    0.000;42.00000
 805.31;  -44.933;  -54.133;    0.000; 9.20000
 805.56;  -43.133;  -57.200;    0.000;14.06667
 805.82;  -67.733;  -90.733;    0.000;23.00000
 806.07;  -63.933;  -63.400;    0.000;-0.53333
 806.33;  -66.400;  -77.600;    0.000;11.20000
 806.58;  -65.467;  -86.533;    0.000;21.06667
 806.84;  -62.400;  -69.333;    0.000; 6.93333
 807.09;  -64.733;  -76.667;    0.000;11.93333
 807.34;  -45.333;  -72.733;    0.000;27.40000
 807.60;  -41.200;  -74.067;    0.000;32.86666
 807.85;  -33.333;  -62.800;    0.000;29.46667
 808.11;  -69.133;  -92.933;    0.000;23.80000
 808.36;  -47.000;  -65.600;    0.000;18.60000
 808.62;  -67.467;  -86.667;    0.000;19.20000
 808.87;  -64.200;  -78.733;    0.000;14.53333
 809.13;  -58.200;  -71.467;    0.000;13.26667
 809.38;  -37.800;  -48.200;    0.000;10.40000
 809.63;  -81.933;  -98.067;    0.000;16.13333
 809.89;  -50.867;  -58.667;    0.000; 7.80000
 810.14;  -71.867;  -74.333;    0.000; 2.46667
 810.40;  -36.667;  -51.267;    0.000;14.60000
 810.65;  -55.400;  -64.133;    0.000; 8.73333
 810.91;  -60.533;  -85.533;    0.000;25.00000
 811.16;  -47.933;  -56.333;    0.000; 8.40000
 811.41;  -32.733;  -55.067;    0.000;22.33333
 811.67;  -63.000;  -71.333;    0.000; 8.33334
 811.92;  -57.467;  -82.333;    0.000;24.86667
 812.18;  -52.800;  -70.667;    0.000;17.86666
 812.43;  -49.467;  -60.533;    0.000;11.06667
 812.68;  -46.200;  -80.333;    0.000;34.13334
 812.94;  -59.933;  -76.933;    0.000;17.00000
 813.19;  -68.267;  -99.867;    0.000;31.60000
 813.45;  -23.200;  -33.933;    0.000;10.73333
 813.70;  -67.533;  -74.533;    0.000; 7.00000
 813.95;  -73.733;  -70.667;    0.000;-3.06667
 814.21;  -62.933;  -75.933;    0.000;13.00000
 814.46;  -57.933;  -88.000;    0.000;30.06667
 814.71;  -72.267;  -81.933;    0.000; 9.66666
 814.97;  -77.067;  -77.867;    0.000; 0.80000
 815.22;  -56.933;  -88.867;    0.000;31.93333
 815.48;  -47.267;  -85.133;    0.000;37.86666
 815.73;  -22.067;  -20.867;    0.000;-1.20000
 815.98;  -57.467;  -74.867;    0.000;17.40000
 816.24;  -71.733;  -79.000;    0.000; 7.26667
 816.49;  -50.600;  -72.067;    0.000;21.46667
 816.74;  -45.933;  -74.600;    0.000;28.66666
 817.00;  -35.267;  -43.400;    0.000; 8.13334
 817.25;  -54.733;  -58.000;    0.000; 3.26667
 817.50;  -53.333;  -71.000;    0.000;17.66667
 817.76;  -72.467;  -91.000;    0.000;18.53333
 818.01;  -75.467;  -93.533;    0.000;18.06667
 818.26;  -60.733;  -97.133;    0.000;36.40000
 818.52;  -74.800;  -85.400;    0.000;10.60000
 818.77;  -66.667;  -78.200;    0.000;11.53333
 819.02;  156.000;  116.467;    0.000;39.53333
 819.28;  -69.067;  -76.867;    0.000; 7.80000
 819.53;  -69.400;  -90.467;    0.000;21.06667
 819.78;  -59.200;  -78.600;    0.000;19.40000
 820.04;  -45.000;  -70.333;    0.000;25.33334
 820.29;  -61.867;  -72.533;    0.000;10.66667
 820.54;  -30.200;  -66.800;    0.000;36.60000
 820.79;  -48.467;  -63.600;    0.000;15.13333
 821.05;  -62.533;  -89.800;    0.000;27.26667
 821.30;  -31.000;  -35.467;    0.000; 4.46667
 821.55;  -40.467;  -59.133;    0.000;18.66667
 821.81;  -65.800;  -84.067;    0.000;18.26666
 822.06;  -61.267;  -87.800;    0.000;26.53334
 822.31;  -53.400;  -52.200;    0.000;-1.20000
 822.56;  -78.267;  -59.533;    0.000;-18.73334
 822.82;  -66.533;  -75.867;    0.000; 9.33334
 823.07;  -55.333;  -72.200;    0.000;16.86666
 823.32;  -74.533;  -88.867;    0.000;14.33334
 823.58;  -43.067;  -47.600;    0.000; 4.53333
 823.83;  -74.200;  -82.200;    0.000; 8.00000
 824.08;  -63.333;  -80.867;    0.000;17.53334
 824.33;  -67.867;  -84.067;    0.000;16.20000
 824.59;  -44.400;  -97.667;    0.000;53.26666
 824.84;  -61.733;  -92.067;    0.000;30.33333
 825.09;  -47.333;  -83.667;    0.000;36.33333
 825.34;  -69.200;  -79.933;    0.000;10.73334
 825.60;  -55.867;  -83.667;    0.000;27.80000
 825.85;  -72.200;  -92.800;    0.000;20.60001
 826.10;  -67.333;  -94.133;    0.000;26.80000
 826.35;  -44.267;  -72.000;    0.000;27.73333
 826.61;  -72.467;  -81.067;    0.000; 8.60000
 826.86;  -69.600;  -91.400;    0.000;21.80000
 827.11;  -53.000;  -62.267;    0.000; 9.26667
 827.36;  -65.533;  -81.667;    0.000;16.13333
 827.61;  -73.800;  -75.600;    0.000; 1.80000
 827.87;  -55.733;  -79.933;    0.000;24.20000
 828.12;  -62.800;  -76.733;    0.000;13.93333
 828.37;  -64.067;  -74.133;    0.000;10.06667
 828.62;  -69.467;  -73.133;    0.000; 3.66666
 828.88;  -74.133;  -69.133;    0.000;-5.00000
 829.13;  -53.800;  -52.733;    0.000;-1.06667
 829.38;  -74.867;  -79.000;    0.000; 4.13333
 829.63;  -63.800;  -94.333;    0.000;30.53334
 829.88;  -78.667;  -86.267;    0.000; 7.60001
 830.14;  -67.600;  -94.733;    0.000;27.13333
 830.39;  -64.000;  -70.200;    0.000; 6.20000
 830.64;  -58.067;  -89.933;    0.000;31.86667
 830.89;  -41.867;  -50.200;    0.000; 8.33334
 831.14;  -56.467;  -68.067;    0.000;11.60000
 831.39;  -81.933;  -93.333;    0.000;11.40000
 831.65;  -80.733;  -92.933;    0.000;12.20000
 831.90;  -75.867;  -88.400;    0.000;12.53333
 832.15;  -66.333;  -77.933;    0.000;11.60000
 832.40;  -64.533;  -75.067;    0.000;10.53333
 832.65;  -67.867;  -79.667;    0.000;11.80000
 832.90;  -82.267;  -83.067;    0.000; 0.80000
 833.16;  -77.333;  -79.467;    0.000; 2.13333
 833.41;  -60.200;  -72.933;    0.000;12.73333
 833.66;  -82.667;  -84.200;    0.000; 1.53333
 833.91;  -66.133;  -63.133;    0.000;-3.00000
 834.16;  -63.267;  -82.600;    0.000;19.33333
 834.41;  -69.200;  -66.333;    0.000;-2.86666
 834.66;  -51.933;  -72.400;    0.000;20.46667
 834.92;  -65.133;  -69.933;    0.000; 4.80000
 835.17;  -77.733;  -88.200;    0.000;10.46667
 835.42;  -66.467;  -80.800;    0.000;14.33334
 835.67;  -73.467;  -81.800;    0.000; 8.33334
 835.92;  -69.000;  -79.667;    0.000;10.66666
 836.17;  -74.667;  -92.933;    0.000;18.26667
 836.42;  -87.733;  -96.067;    0.000; 8.33334
 836.67;  -96.800;  -85.667;    0.000;-11.13334
 836.93;  -57.200;  -83.733;    0.000;26.53333
 837.18;  -58.267;  -69.867;    0.000;11.60000
 837.43;  -83.267;  -60.667;    0.000;-22.60000
 837.68;  -79.667;  -68.000;    0.000;-11.66666
 837.93;  -88.067;  -96.467;    0.000; 8.40000
 838.18;  -63.800;  -71.733;    0.000; 7.93333
 838.43;  -75.933;  -85.600;    0.000; 9.66666
 838.68;  -62.333;  -64.067;    0.000; 1.73333
 838.93;  -67.667;  -82.933;    0.000;15.26667
 839.18;  -83.267;  -88.400;    0.000; 5.13333
 839.43;  -69.867;  -77.333;    0.000; 7.46667
 839.69;  -74.467;  -80.667;    0.000; 6.20000
 839.94;  -77.333;  -98.200;    0.000;20.86666
 840.19;  -57.067;  -69.067;    0.000;12.00000
 840.44;  -66.533;  -73.933;    0.000; 7.40000
 840.69;  -50.333;  -59.533;    0.000; 9.20000
 840.94;  -82.667;  -68.733;    0.000;-13.93333
 841.19;  -54.267;  -72.733;    0.000;18.46666
 841.44;  -67.400;  -90.333;    0.000;22.93333
 841.69;  -57.867;  -51.800;    0.000;-6.06667
 841.94;  -56.400;  -89.667;    0.000;33.26666
 842.19;  -68.800;  -76.467;    0.000; 7.66666
 842.44;  -64.267;  -83.933;    0.000;19.66666
 842.69;  -58.200;  -70.800;    0.000;12.60000
 842.94;  -73.133;  -86.000;    0.000;12.86667
 843.19;  -74.667;  -90.733;    0.000;16.06667
 843.44;  -79.133;  -81.733;    0.000; 2.60000
 843.69;  -69.400;  -81.533;    0.000;12.13333
 843.94;  -35.467;  -27.133;    0.000;-8.33333
 844.19;  -64.867;  -87.800;    0.000;22.93333
 844.44;  -46.267;  -64.733;    0.000;18.46666
 844.69;  -72.867;  -81.800;    0.000; 8.93333
 844.95;  -78.600;  -88.000;    0.000; 9.40000
 845.20;  -93.533;  -96.200;    0.000; 2.66666
 845.45;  -69.533;  -57.067;    0.000;-12.46667
 845.70;  -57.267;  -69.933;    0.000;12.66667
 845.95;  -98.200;  -84.267;    0.000;-13.93333
 846.20;  -64.267;  -81.133;    0.000;16.86666
 846.45;  -66.667;  -76.267;    0.000; 9.60001
 846.70;  -75.533;  -90.333;    0.000;14.80000
 846.95;  -71.733;  -88.867;    0.000;17.13334
 847.20;  -84.067;  -77.933;    0.000;-6.13333
 847.44;  -39.467;  -40.467;    0.000; 1.00000
 847.69;  -79.067;  -90.467;    0.000;11.40000
 847.94;  -55.867;  -73.400;    0.000;17.53334
 848.19;  -76.533;  -75.467;    0.000;-1.06667
 848.44;  -51.667;  -61.867;    0.000;10.20000
 848.69;  -63.133;  -89.533;    0.000;26.40000
 848.94;  -68.400;  -63.000;    0.000;-5.40000
 849.19;  -76.867;  -85.333;    0.000; 8.46667
 849.44;  -62.533;  -88.333;    0.000;25.80000
 849.69;  -55.933;  -82.667;    0.000;26.73333
 849.94;  -76.600;  -87.933;    0.000;11.33334
 850.19;  -68.533;  -79.267;    0.000;10.73334
 850.44;  -78.267;  -49.733;    0.000;-28.53334
 850.69;  -49.867;  -80.067;    0.000;30.20000
 850.94;  -90.800;  -80.800;    0.000;-10.00000
 851.19;  -66.200;  -80.667;    0.000;14.46667
 851.44;  -68.267;  -70.933;    0.000; 2.66666
 851.69;  -66.533;  -51.467;    0.000;-15.06667
 851.94;  -57.133;  -55.733;    0.000;-1.40000
 852.19;  -57.267;  -63.333;    0.000; 6.06667
 852.44;  -93.733;  -76.333;    0.000;-17.39999
 852.68;  -86.933;  -80.800;    0.000;-6.13333
 852.93;  -71.667;  -63.133;    0.000;-8.53333
 853.18;  -96.467;  -86.467;    0.000;-10.00000
 853.43;  -74.467;  -72.067;    0.000;-2.40000
 853.68;  -70.333;  -79.733;    0.000; 9.39999
 853.93;  -56.733;  -74.267;    0.000;17.53334
 854.18;  -49.867;  -83.800;    0.000;33.93334
 854.43;  -77.467;  -51.733;    0.000;-25.73333
 854.68;  -68.867;  -58.067;    0.000;-10.80000
 854.93;  -45.000;  -67.667;    0.000;22.66666
 855.18;  -62.400;  -75.067;    0.000;12.66666
 855.42;  -49.467;  -65.200;    0.000;15.73333
 855.67;  -69.133;  -78.733;    0.000; 9.60000
 855.92;  -82.467;  -84.067;    0.000; 1.60000
 856.17;  -65.067;  -70.067;    0.000; 5.00000
 856.42;  -77.200;  -83.333;    0.000; 6.13334
 856.67;  -65.867;  -78.067;    0.000;12.20000
 856.92;  -62.267;  -57.200;    0.000;-5.06667
 857.17;  -70.067;  -77.533;    0.000; 7.46667
 857.41;  -74.000;  -63.267;    0.000;-10.73333
 857.66;  -66.933;  -79.400;    0.000;12.46667
 857.91;  -72.133;  -71.467;    0.000;-0.66666
 858.16;  -60.800;  -77.667;    0.000;16.86666
 858.41;  -70.000;  -70.933;    0.000; 0.93333
 858.66;  -64.000;  -74.733;    0.000;10.73333
 858.91;  -54.467;  -69.200;    0.000;14.73333
 859.15;  -71.400;  -71.333;    0.000;-0.06667
 859.40;  -50.667;  -66.400;    0.000;15.73333
 859.65;  -60.133;  -94.733;    0.000;34.59999
 859.90;  -88.467;  -90.867;    0.000; 2.40000
 860.15;  -53.000;  -80.400;    0.000;27.40000
 860.40;  -54.733;  -54.200;    0.000;-0.53333
 860.64;  -71.933;  -66.733;    0.000;-5.20000
 860.89;  -73.000;  -67.067;    0.000;-5.93333
 861.14;  -81.667;  -72.067;    0.000;-9.60000
 861.39;  -64.200;  -49.200;    0.000;-15.00000
 861.64;  -67.133;  -72.533;    0.000; 5.40000
 861.88;  -42.733;  -59.333;    0.000;16.60000
 862.13;  -72.667;  -70.733;    0.000;-1.93333
 862.38;  -88.267;  -91.467;    0.000; 3.20000
 862.63;  -70.533;  -62.533;    0.000;-8.00000
 862.88;  -57.467;  -64.333;    0.000; 6.86667
 863.12;  -59.133;  -64.267;    0.000; 5.13334
 863.37;  -68.200;  -82.400;    0.000;14.20000
 863.62;  -86.733;  -57.933;    0.000;-28.80000
 863.87;  -80.933;  -82.133;    0.000; 1.20000
 864.12;  -61.133;  -63.733;    0.000; 2.60000
 864.36;  -56.733;  -79.067;    0.000;22.33333
 864.61;  -70.533;  -86.467;    0.000;15.93333
 864.86;  -66.000;  -56.000;    0.000;-10.00000
 865.11;  -61.067;  -72.800;    0.000;11.73334
 865.35;  -63.467;  -53.067;    0.000;-10.40000
 865.60;  -65.067;  -72.200;    0.000; 7.13333
 865.85;  -46.067;  -60.067;    0.000;14.00000
 866.10;  -77.133;  -57.400;    0.000;-19.73333
 866.34;  -63.600;  -75.667;    0.000;12.06667
 866.59;  -46.867;  -65.933;    0.000;19.06667
 866.84;  -81.733;  -67.067;    0.000;-14.66666
 867.09;  -60.067;  -69.800;    0.000; 9.73334
 867.33;  -87.200;  -77.067;    0.000;-10.13333
 867.58;  -70.933;  -76.667;    0.000; 5.73333
 867.83;  -77.533;  -80.067;    0.000; 2.53333
 868.08;  -59.733;  -68.600;    0.000; 8.86666
 868.32;  -65.867;  -56.600;    0.000;-9.26667
 868.57;  -77.467;  -70.333;    0.000;-7.13333
 868.82;  -54.200;  -69.800;    0.000;15.60000
 869.07;  -74.933;  -81.400;    0.000; 6.46667
 869.31;  -65.933;  -51.267;    0.000;-14.66667
 869.56;  -60.067;  -78.867;    0.000;18.80000
 869.81;  -70.800;  -79.467;    0.000; 8.66666
 870.05;  -74.067; -100.400;    0.000;26.33334
 870.30;  -59.533;  -63.800;    0.000; 4.26667
 870.55;  -58.533;  -43.133;    0.000;-15.40000
 870.80;  -56.267;  -54.933;    0.000;-1.33333
 871.04;  -61.933;  -60.133;    0.000;-1.80000
 871.29;  -59.933;  -73.333;    0.000;13.40000
 871.54;  -69.467;  -73.467;    0.000; 4.00000
 871.78;  -52.800;  -87.800;    0.000;35.00000
 872.03;  -50.200;  -74.467;    0.000;24.26667
 872.28;  -79.000;  -67.733;    0.000;-11.26667
 872.52;  -54.133;  -69.133;    0.000;15.00000
 872.77;  -44.467;  -90.133;    0.000;45.66666
 873.02;  -77.933;  -83.000;    0.000; 5.06667
 873.26;  -70.533;  -74.200;    0.000; 3.66666
 873.51;  -43.533;  -51.200;    0.000; 7.66667
 873.76;  -77.067;  -79.600;    0.000; 2.53333
 874.00;  -54.400;  -52.467;    0.000;-1.93333
 874.25;  -55.800;  -77.800;    0.000;22.00000
 874.50;  -71.400;  -72.200;    0.000; 0.80000
 874.74;  -70.867;  -75.933;    0.000; 5.06667
 874.99;  -76.867;  -64.733;    0.000;-12.13334
 875.24;  -44.667;  -31.867;    0.000;-12.80000
 875.48;  -49.933;  -58.667;    0.000; 8.73333
 875.73;  -67.067;  -79.400;    0.000;12.33334
 875.98;  -71.933;  -60.000;    0.000;-11.93333
 876.22;  -61.267;  -54.333;    0.000;-6.93333
 876.47;  -67.667;  -67.867;    0.000; 0.20000
 876.71;  -51.533;  -64.667;    0.000;13.13333
 876.96;  -54.600;  -53.800;    0.000;-0.80000
 877.21;  -64.600;  -65.067;    0.000; 0.46667
 877.45;  -77.400;  -62.133;    0.000;-15.26667
 877.70;  -63.667;  -58.467;    0.000;-5.20000
 877.95;  -23.400;  -52.333;    0.000;28.93333
 878.19;  -40.800;  -46.933;    0.000; 6.13334
 878.44;  -55.800;  -64.667;    0.000; 8.86666
 878.68;  -26.667;  -31.267;    0.000; 4.60000
 878.93;  -53.000;  -42.467;    0.000;-10.53333
 879.18;  -48.333;  -62.267;    0.000;13.93333
 879.42;  -65.400;  -50.200;    0.000;-15.20000
 879.67;  -54.267;  -94.267;    0.000;40.00000
 879.91;  -66.667;  -61.467;    0.000;-5.20000
 880.16;  -50.733;  -52.867;    0.000; 2.13333
 880.40;  -58.733;  -74.333;    0.000;15.60000
 880.65;  -50.467;  -66.000;    0.000;15.53333
 880.90;  -41.400;  -51.600;    0.000;10.20000
 881.14;  -53.000;  -42.867;    0.000;-10.13334
 881.39;  -55.467;  -67.533;    0.000;12.06667
 881.63;  -65.333;  -57.200;    0.000;-8.13334
 881.88;  -37.733;  -49.200;    0.000;11.46667
 882.12;  -60.933;  -65.933;    0.000; 5.00000
 882.37;  -38.467;  -41.133;    0.000; 2.66667
 882.62;  -68.000;  -60.467;    0.000;-7.53333
 882.86;  -60.733;  -76.867;    0.000;16.13334
 883.11;  -54.400;  -53.667;    0.000;-0.73333
 883.35;  -50.467;  -57.867;    0.000; 7.40000
 883.60;  -22.867;  -33.000;    0.000;10.13333
 883.84;  -51.800;  -66.400;    0.000;14.60000
 884.09;  -44.333;  -54.200;    0.000; 9.86667
 884.33;  -43.067;  -55.733;    0.000;12.66667
 884.58;  -45.867;  -54.333;    0.000; 8.46667
 884.82;  -45.867;  -53.667;    0.000; 7.80000
 885.07;  -52.867;  -45.333;    0.000;-7.53333
 885.31;  -50.000;  -65.933;    0.000;15.93333
 885.56;  -28.667;  -37.133;    0.000; 8.46667
 885.80;  -60.400;  -53.733;    0.000;-6.66667
 886.05;  -86.200;  -78.867;    0.000;-7.33333
 886.29;  -33.667;  -48.400;    0.000;14.73333
 886.54;  -39.733;  -59.800;    0.000;20.06667
 886.78;  -34.133;  -52.133;    0.000;18.00000
 887.03;  -40.200;  -42.867;    0.000; 2.66666
 887.27;  -28.667;  -29.067;    0.000; 0.40000
 887.52;  -49.467;  -80.600;    0.000;31.13333
 887.76;  -36.000;  -53.333;    0.000;17.33333
 888.01;  -52.933;  -54.533;    0.000; 1.60000
 888.25;  -56.533;  -61.400;    0.000; 4.86667
 888.50;  -46.600;  -41.000;    0.000;-5.60000
 888.74;  -32.267;  -36.133;    0.000; 3.86667
 888.99;  -38.533;  -53.800;    0.000;15.26667
 889.23;  -31.067;  -45.867;    0.000;14.80000
 889.48;  -62.267;  -61.600;    0.000;-0.66667
 889.72;   -7.600;  -33.600;    0.000;26.00000
 889.97;  -43.933;  -54.000;    0.000;10.06667
 890.21;  -30.933;  -15.533;    0.000;-15.40000
 890.46;  -22.867;  -26.333;    0.000; 3.46667
 890.70;  -35.533;  -35.267;    0.000;-0.26667
 890.94;  -26.400;  -38.333;    0.000;11.93333
 891.19;  -42.933;  -42.733;    0.000;-0.20000
 891.43;  -35.133;  -27.400;    0.000;-7.73334
 891.68;   -5.733;  -24.933;    0.000;19.20000
 891.92;  -26.667;  -50.667;    0.000;24.00000
 892.17;  -25.067;  -22.533;    0.000;-2.53333
 892.41;  -34.533;  -34.800;    0.000; 0.26667
 892.66;  -30.867;  -40.933;    0.000;10.06667
 892.90;   -3.200;  -22.800;    0.000;19.60000
 893.14;  -21.067;  -46.800;    0.000;25.73333
 893.39;  -21.333;  -31.400;    0.000;10.06667
 893.63;  -27.667;  -46.733;    0.000;19.06667
 893.88;  -43.933;  -52.000;    0.000; 8.06667
 894.12;  -26.867;  -34.333;    0.000; 7.46667
 894.36;  -20.400;  -45.533;    0.000;25.13333
 894.61;  -16.800;  -27.067;    0.000;10.26667
 894.85;  -14.133;  -26.333;    0.000;12.20000
 895.10;  -20.467;  -23.067;    0.000; 2.60000
 895.34;  -49.667;  -28.467;    0.000;-21.20000
 895.58;  -12.333;  -24.667;    0.000;12.33333
 895.83;  -17.000;  -29.067;    0.000;12.06667
 896.07;   -8.200;  -29.067;    0.000;20.86667
 896.32;  -17.467;  -11.267;    0.000;-6.20000
 896.56;   -7.333;  -10.333;    0.000; 3.00000
 896.80;  -13.733;  -32.867;    0.000;19.13333
 897.05;  -14.467;  -32.933;    0.000;18.46667
 897.29;  -11.600;   -2.400;    0.000;-9.20000
 897.53;  -10.533;  -26.400;    0.000;15.86667
 897.78;  -12.000;   -9.000;    0.000;-3.00000
 898.02;    6.267;    2.333;    0.000; 3.93333
 898.26;  -10.533;  -12.600;    0.000; 2.06667
 898.51;   -9.667;  -15.400;    0.000; 5.73333
 898.75;   -8.333;   -4.667;    0.000;-3.66667
 898.99;    6.133;   -7.333;    0.000;13.46667
 899.24;  -20.733;  -23.533;    0.000; 2.80000
 899.48;   -2.533;   15.533;    0.000;-18.06667
 899.73;   15.267;   -6.867;    0.000;22.13333
 899.97;   27.333;   36.867;    0.000;-9.53333
 900.21;   21.400;   19.400;    0.000; 2.00000
 900.46;   34.000;   21.067;    0.000;12.93333
 900.70;   22.067;   41.467;    0.000;-19.40000
 900.94;   36.533;   35.333;    0.000; 1.20000
 901.18;   38.933;   44.600;    0.000;-5.66666
 901.43;   20.200;   26.000;    0.000;-5.80000
 901.67;   50.467;   30.000;    0.000;20.46667
 901.91;   65.600;   49.200;    0.000;16.40000
 902.16;   65.267;   39.733;    0.000;25.53334
 902.40;   74.000;   84.800;    0.000;-10.80000
 902.64;   63.600;   67.467;    0.000;-3.86667
 902.89;   87.667;   79.867;    0.000; 7.80000
 903.13;  107.400;   84.000;    0.000;23.40000
 903.37;  102.333;  107.200;    0.000;-4.86666
 903.61;  123.333;  139.600;    0.000;-16.26667
 903.86;  138.933;  108.733;    0.000;30.20000
 904.10;  146.333;  158.133;    0.000;-11.80000
 904.34;  193.533;  176.000;    0.000;17.53334
 904.59;  196.800;  180.733;    0.000;16.06667
 904.83;  217.733;  248.267;    0.000;-30.53333
 905.07;  258.600;  258.267;    0.000; 0.33334
 905.31;  286.267;  288.067;    0.000;-1.80002
 905.56;  330.333;  317.000;    0.000;13.33334
 905.80;  377.333;  381.067;    0.000;-3.73334

