point2
Integration time [ms]:  30.000
Averaging Nr. [scans]: 15
Smoothing Nr. [pixels]: 0
Data measured with spectrometer [name]: 1307077U2
Wave   ;Sample   ;Dark     ;Reference;Scope Corrected for Dark
[nm]   ;[counts] ;[counts] ;[counts] 

 350.80;    4.200;   10.133;    0.000;-5.93333
 351.10;   -1.333;  -15.000;    0.000;13.66667
 351.39;   36.267;   32.600;    0.000; 3.66667
 351.69;   -7.000;  -19.200;    0.000;12.20000
 351.99;   -7.200;  -12.200;    0.000; 5.00000
 352.28;   -6.867;  -30.667;    0.000;23.80000
 352.58;  -16.667;   -7.133;    0.000;-9.53333
 352.88;    7.933;  -28.067;    0.000;36.00000
 353.17;    9.667;    3.600;    0.000; 6.06667
 353.47;   -1.467;  -22.600;    0.000;21.13333
 353.76;   -3.800;  -20.000;    0.000;16.20000
 354.06;    4.400;   13.200;    0.000;-8.80000
 354.36;  -16.733;    5.933;    0.000;-22.66667
 354.65;    7.533;    6.667;    0.000; 0.86667
 354.95;   -0.800;   -7.667;    0.000; 6.86667
 355.24;    2.067;    5.400;    0.000;-3.33333
 355.54;   -1.400;   -2.133;    0.000; 0.73333
 355.84;   -0.333;  -11.533;    0.000;11.20000
 356.13;   19.200;   19.667;    0.000;-0.46667
 356.43;  -15.733;  -18.400;    0.000; 2.66667
 356.72;  -14.600;  -15.000;    0.000; 0.40000
 357.02;   -1.867;   -8.933;    0.000; 7.06667
 357.31;   16.267;   11.867;    0.000; 4.40000
 357.61;   18.667;  -12.667;    0.000;31.33333
 357.91;   -9.000;  -28.800;    0.000;19.80000
 358.20;   -4.400;  -10.067;    0.000; 5.66667
 358.50;   -0.133;   -5.533;    0.000; 5.40000
 358.79;   -0.333;   -7.867;    0.000; 7.53333
 359.09;    7.933;   -3.200;    0.000;11.13333
 359.38;    9.267;    2.333;    0.000; 6.93333
 359.68;  -21.067;  -25.533;    0.000; 4.46667
 359.98;    8.133;  -24.867;    0.000;33.00000
 360.27;   -0.933;   10.533;    0.000;-11.46667
 360.57;  -15.400;  -11.000;    0.000;-4.40000
 360.86;  -22.733;    0.467;    0.000;-23.20000
 361.16;  -15.467;  -17.267;    0.000; 1.80000
 361.45;  -11.200;  -12.133;    0.000; 0.93333
 361.75;   -9.067;  -13.133;    0.000; 4.06667
 362.04;   29.333;   24.333;    0.000; 5.00000
 362.34;   -0.733;  -16.467;    0.000;15.73333
 362.64;    3.267;   -9.000;    0.000;12.26667
 362.93;   -8.600;   -3.133;    0.000;-5.46667
 363.23;  -13.067;  -18.333;    0.000; 5.26667
 363.52;   -2.400;   -8.400;    0.000; 6.00000
 363.82;   -5.200;  -18.733;    0.000;13.53333
 364.11;    5.533;    1.067;    0.000; 4.46667
 364.41;  -21.667;  -12.867;    0.000;-8.80000
 364.70;  -14.133;   -7.333;    0.000;-6.80000
 365.00;   -9.067;    8.667;    0.000;-17.73333
 365.29;    3.200;   -7.533;    0.000;10.73333
 365.59;  -23.267;  -25.600;    0.000; 2.33333
 365.88;  -16.867;  -30.867;    0.000;14.00000
 366.18;  -12.467;   -6.800;    0.000;-5.66667
 366.47;   -3.133;  -14.533;    0.000;11.40000
 366.77;  -18.067;   -3.067;    0.000;-15.00000
 367.06;   16.600;  -25.000;    0.000;41.60000
 367.36;    3.933;   14.200;    0.000;-10.26667
 367.65;   -6.533;   -8.800;    0.000; 2.26667
 367.95;  -11.133;  -15.733;    0.000; 4.60000
 368.24;   -1.933;  -12.867;    0.000;10.93333
 368.54;  -26.667;  -14.200;    0.000;-12.46667
 368.83;   24.867;   -9.733;    0.000;34.60000
 369.13;    6.733;   -2.333;    0.000; 9.06667
 369.42;  -12.733;   -4.467;    0.000;-8.26667
 369.72;    5.933;  -15.000;    0.000;20.93333
 370.01;    5.133;  -19.067;    0.000;24.20000
 370.31;    1.533;    3.267;    0.000;-1.73333
 370.60;   18.733;  -10.000;    0.000;28.73333
 370.90;  -23.533;   -9.067;    0.000;-14.46667
 371.19;  -15.467;  -29.200;    0.000;13.73333
 371.49;  -20.867;  -21.133;    0.000; 0.26667
 371.78;   -5.533;  -20.867;    0.000;15.33333
 372.08;  -16.733;    1.400;    0.000;-18.13333
 372.37;   -4.867;  -23.467;    0.000;18.60000
 372.67;    3.133;   -1.600;    0.000; 4.73333
 372.96;    4.000;   -9.667;    0.000;13.66667
 373.26;  -13.067;   -9.200;    0.000;-3.86667
 373.55;   -5.733;  -10.400;    0.000; 4.66667
 373.85;   -5.600;  -28.400;    0.000;22.80000
 374.14;    5.800;   -8.467;    0.000;14.26667
 374.43;  -12.667;  -16.267;    0.000; 3.60000
 374.73;    9.067;  -16.333;    0.000;25.40000
 375.02;    5.200;   -0.533;    0.000; 5.73333
 375.32;   -6.933;  -28.733;    0.000;21.80000
 375.61;  -11.333;   -5.267;    0.000;-6.06667
 375.91;    0.200;  -13.000;    0.000;13.20000
 376.20;  -31.867;  -40.533;    0.000; 8.66667
 376.50;   -9.067;  -23.733;    0.000;14.66667
 376.79;  -17.467;  -28.200;    0.000;10.73333
 377.08;  -23.867;  -22.000;    0.000;-1.86667
 377.38;  -21.333;  -24.467;    0.000; 3.13333
 377.67;   -5.800;   -6.800;    0.000; 1.00000
 377.97;  -26.933;  -19.067;    0.000;-7.86666
 378.26;    7.600;  -27.733;    0.000;35.33333
 378.56;  -38.733;  -37.067;    0.000;-1.66667
 378.85;   -7.467;    8.000;    0.000;-15.46667
 379.14;  -10.000;  -13.733;    0.000; 3.73333
 379.44;  -28.600;  -12.733;    0.000;-15.86667
 379.73;   -7.133;  -25.000;    0.000;17.86667
 380.03;    7.667;   -8.867;    0.000;16.53333
 380.32;   -5.867;    7.600;    0.000;-13.46667
 380.62;   -8.067;   -7.733;    0.000;-0.33333
 380.91;  -12.267;  -11.533;    0.000;-0.73333
 381.20;    4.533;  -13.200;    0.000;17.73333
 381.50;  -14.200;  -11.333;    0.000;-2.86667
 381.79;  -17.333;  -22.800;    0.000; 5.46667
 382.09;  -12.133;  -31.667;    0.000;19.53333
 382.38;   -1.933;  -27.867;    0.000;25.93333
 382.67;    3.867;  -12.000;    0.000;15.86667
 382.97;  -13.200;  -19.867;    0.000; 6.66667
 383.26;   -7.533;  -10.200;    0.000; 2.66667
 383.56;    1.867;    1.400;    0.000; 0.46667
 383.85;   -4.133;  -29.467;    0.000;25.33333
 384.14;    3.533;    2.267;    0.000; 1.26667
 384.44;   -7.200;  -15.933;    0.000; 8.73333
 384.73;  -13.733;  -18.667;    0.000; 4.93333
 385.02;  -13.333;  -11.400;    0.000;-1.93333
 385.32;    5.333;   -1.133;    0.000; 6.46667
 385.61;  -45.333;  -40.067;    0.000;-5.26667
 385.91;   -2.933;   -8.667;    0.000; 5.73333
 386.20;  -13.800;  -14.533;    0.000; 0.73333
 386.49;   -8.200;  -27.600;    0.000;19.40000
 386.79;  -11.933;   -1.733;    0.000;-10.20000
 387.08;   -2.533;  -22.000;    0.000;19.46667
 387.37;  -15.133;   -8.333;    0.000;-6.80000
 387.67;   -8.267;  -18.333;    0.000;10.06667
 387.96;  -31.733;  -21.933;    0.000;-9.80000
 388.25;   11.600;    7.733;    0.000; 3.86667
 388.55;  -25.733;   -9.867;    0.000;-15.86667
 388.84;   -1.333;  -15.400;    0.000;14.06667
 389.14;    2.800;   -9.000;    0.000;11.80000
 389.43;   22.267;  -21.867;    0.000;44.13333
 389.72;  -29.067;  -27.333;    0.000;-1.73333
 390.02;   -5.867;  -34.000;    0.000;28.13333
 390.31;  -12.533;  -17.133;    0.000; 4.60000
 390.60;  -17.867;  -17.200;    0.000;-0.66667
 390.90;  -34.400;  -24.467;    0.000;-9.93333
 391.19;    2.533;  -29.133;    0.000;31.66667
 391.48;   -6.867;  -33.467;    0.000;26.60000
 391.78;    0.000;  -28.333;    0.000;28.33333
 392.07;   36.800;   28.800;    0.000; 8.00000
 392.36;   12.000;    7.067;    0.000; 4.93333
 392.66;  -11.000;  -20.933;    0.000; 9.93333
 392.95;  -15.667;  -27.067;    0.000;11.40000
 393.24;  -24.333;  -35.000;    0.000;10.66667
 393.53;   -4.200;  -29.133;    0.000;24.93333
 393.83;  -24.667;  -20.400;    0.000;-4.26667
 394.12;  -13.933;  -17.200;    0.000; 3.26667
 394.41;  -27.067;  -25.867;    0.000;-1.20000
 394.71;    9.800;  -21.600;    0.000;31.40000
 395.00;  -14.400;  -24.000;    0.000; 9.60000
 395.29;   -6.800;   -0.733;    0.000;-6.06667
 395.59;  -32.933;  -19.067;    0.000;-13.86667
 395.88;  -10.533;  -11.533;    0.000; 1.00000
 396.17;  -26.267;  -37.600;    0.000;11.33333
 396.46;  -23.067;  -22.000;    0.000;-1.06667
 396.76;  -11.333;  -33.600;    0.000;22.26667
 397.05;   29.600;   11.933;    0.000;17.66667
 397.34;  -32.800;  -18.800;    0.000;-14.00000
 397.64;   12.133;  -13.533;    0.000;25.66667
 397.93;  -23.533;  -17.667;    0.000;-5.86667
 398.22;  -20.800;  -34.467;    0.000;13.66667
 398.51;  -15.467;  -17.600;    0.000; 2.13333
 398.81;  -14.733;  -25.933;    0.000;11.20000
 399.10;  -33.533;  -31.067;    0.000;-2.46667
 399.39;    1.133;  -10.867;    0.000;12.00000
 399.69;   -1.533;  -14.933;    0.000;13.40000
 399.98;   -1.467;   -1.067;    0.000;-0.40000
 400.27;  -24.067;  -36.600;    0.000;12.53333
 400.56;    4.933;  -21.067;    0.000;26.00000
 400.86;  -22.867;  -19.467;    0.000;-3.40000
 401.15;   -1.000;  -13.133;    0.000;12.13333
 401.44;  -40.067;  -27.400;    0.000;-12.66667
 401.73;    2.000;   -7.733;    0.000; 9.73333
 402.03;   -3.133;   -2.200;    0.000;-0.93333
 402.32;  -31.067;  -26.133;    0.000;-4.93333
 402.61;  -15.600;  -10.400;    0.000;-5.20000
 402.90;  -22.133;  -44.200;    0.000;22.06667
 403.20;  -11.067;  -17.067;    0.000; 6.00000
 403.49;  -12.000;   -8.933;    0.000;-3.06667
 403.78;  -33.200;  -20.867;    0.000;-12.33333
 404.07;   -9.600;  -16.800;    0.000; 7.20000
 404.37;  -11.267;  -10.867;    0.000;-0.40000
 404.66;  -15.067;  -10.933;    0.000;-4.13333
 404.95;  -16.267;  -18.400;    0.000; 2.13333
 405.24;  -15.200;  -19.800;    0.000; 4.60000
 405.53;  -25.667;  -28.267;    0.000; 2.60000
 405.83;    8.067;   -1.733;    0.000; 9.80000
 406.12;  -25.733;  -31.867;    0.000; 6.13333
 406.41;   16.733;   -8.600;    0.000;25.33333
 406.70;  -24.800;  -30.600;    0.000; 5.80000
 407.00;    6.200;   -5.267;    0.000;11.46667
 407.29;   -7.000;  -19.133;    0.000;12.13333
 407.58;  -18.667;  -31.533;    0.000;12.86667
 407.87;   -3.267;  -32.933;    0.000;29.66667
 408.16;   -9.933;  -20.733;    0.000;10.80000
 408.46;  -31.200;  -28.467;    0.000;-2.73333
 408.75;  -10.733;  -23.067;    0.000;12.33333
 409.04;  -33.467;  -23.133;    0.000;-10.33333
 409.33;    5.133;  -14.333;    0.000;19.46667
 409.62;   -4.267;  -16.467;    0.000;12.20000
 409.92;    6.267;   -8.733;    0.000;15.00000
 410.21;  -16.133;  -28.600;    0.000;12.46667
 410.50;  -25.467;  -19.933;    0.000;-5.53333
 410.79;   -6.467;    1.333;    0.000;-7.80000
 411.08;  -13.733;  -16.400;    0.000; 2.66667
 411.37;  -29.467;  -21.267;    0.000;-8.20000
 411.67;   -7.800;  -26.333;    0.000;18.53333
 411.96;  -25.533;  -31.800;    0.000; 6.26667
 412.25;   -5.267;  -20.467;    0.000;15.20000
 412.54;    0.533;  -19.867;    0.000;20.40000
 412.83;   -8.800;  -36.267;    0.000;27.46667
 413.13;  -16.867;  -22.133;    0.000; 5.26667
 413.42;   -4.733;  -20.933;    0.000;16.20000
 413.71;    7.867;  -12.467;    0.000;20.33333
 414.00;   -7.600;  -20.467;    0.000;12.86667
 414.29;   -7.067;  -12.400;    0.000; 5.33333
 414.58;  -15.067;  -31.000;    0.000;15.93333
 414.87;  -38.400;  -38.067;    0.000;-0.33334
 415.17;  -15.333;  -27.533;    0.000;12.20000
 415.46;   -5.267;  -19.667;    0.000;14.40000
 415.75;    0.333;  -27.400;    0.000;27.73333
 416.04;    7.267;  -23.867;    0.000;31.13333
 416.33;   -9.467;  -27.800;    0.000;18.33333
 416.62;  -24.733;  -37.667;    0.000;12.93333
 416.91;  -14.000;  -25.800;    0.000;11.80000
 417.21;  -19.933;  -31.467;    0.000;11.53333
 417.50;  -10.133;  -31.867;    0.000;21.73333
 417.79;  -22.000;  -23.933;    0.000; 1.93333
 418.08;   -6.133;  -26.267;    0.000;20.13333
 418.37;  -32.467;  -38.400;    0.000; 5.93333
 418.66;  -13.933;  -24.600;    0.000;10.66667
 418.95;  -11.667;  -16.133;    0.000; 4.46667
 419.24;  -25.933;  -28.667;    0.000; 2.73333
 419.54;   -9.733;  -23.467;    0.000;13.73333
 419.83;  -15.933;  -35.267;    0.000;19.33333
 420.12;  -21.600;  -34.933;    0.000;13.33333
 420.41;   23.400;    3.467;    0.000;19.93333
 420.70;  -20.333;  -35.000;    0.000;14.66667
 420.99;   -0.667;   -0.333;    0.000;-0.33333
 421.28;   -5.867;  -16.867;    0.000;11.00000
 421.57;   -0.933;   -9.333;    0.000; 8.40000
 421.86;    2.733;  -11.533;    0.000;14.26667
 422.16;   -6.200;  -17.933;    0.000;11.73333
 422.45;  -15.267;  -37.333;    0.000;22.06667
 422.74;  -34.600;  -36.600;    0.000; 2.00000
 423.03;  -21.200;  -13.933;    0.000;-7.26667
 423.32;  -17.800;  -27.200;    0.000; 9.40000
 423.61;  -12.733;  -25.467;    0.000;12.73333
 423.90;   -9.400;  -20.667;    0.000;11.26667
 424.19;   39.467;   27.000;    0.000;12.46667
 424.48;  -18.200;   -5.400;    0.000;-12.80000
 424.77;  -19.533;   -3.933;    0.000;-15.60000
 425.06;   -3.267;  -18.733;    0.000;15.46667
 425.35;  -23.000;  -13.400;    0.000;-9.60000
 425.65;  -23.333;  -33.800;    0.000;10.46667
 425.94;  -22.200;  -19.867;    0.000;-2.33333
 426.23;   -3.067;  -39.467;    0.000;36.40000
 426.52;  -33.933;  -38.067;    0.000; 4.13333
 426.81;   14.467;    3.933;    0.000;10.53333
 427.10;  -27.867;  -33.400;    0.000; 5.53333
 427.39;  -11.467;  -21.467;    0.000;10.00000
 427.68;  -20.200;  -17.733;    0.000;-2.46667
 427.97;   19.533;  -13.067;    0.000;32.60000
 428.26;  -19.800;  -24.600;    0.000; 4.80000
 428.55;   12.733;   -4.733;    0.000;17.46667
 428.84;  -21.000;  -15.800;    0.000;-5.20000
 429.13;  -17.467;  -15.800;    0.000;-1.66667
 429.42;   -3.133;  -20.733;    0.000;17.60000
 429.71;    5.200;  -10.200;    0.000;15.40000
 430.00;  -28.800;  -38.667;    0.000; 9.86667
 430.29;   -9.267;  -41.867;    0.000;32.60000
 430.58;  -21.667;  -23.867;    0.000; 2.20000
 430.87;  -19.467;  -24.267;    0.000; 4.80000
 431.16;  -31.333;  -40.533;    0.000; 9.20000
 431.46;    5.000;  -15.133;    0.000;20.13333
 431.75;  -31.733;  -16.067;    0.000;-15.66667
 432.04;   17.933;  -20.600;    0.000;38.53333
 432.33;  -27.200;  -28.133;    0.000; 0.93333
 432.62;   -7.133;  -37.200;    0.000;30.06667
 432.91;  -35.400;  -35.933;    0.000; 0.53333
 433.20;    0.667;  -32.400;    0.000;33.06667
 433.49;  -11.067;  -30.400;    0.000;19.33333
 433.78;  -35.000;  -43.733;    0.000; 8.73333
 434.07;  -26.800;  -24.267;    0.000;-2.53333
 434.36;  -31.133;  -30.933;    0.000;-0.20000
 434.65;  -11.400;  -27.867;    0.000;16.46667
 434.94;  -28.667;  -14.667;    0.000;-14.00000
 435.23;  -10.667;  -18.933;    0.000; 8.26667
 435.52;    1.000;  -22.067;    0.000;23.06667
 435.81;  -20.533;  -19.133;    0.000;-1.40000
 436.10;   -0.467;   -3.400;    0.000; 2.93333
 436.39;    4.667;   -6.000;    0.000;10.66667
 436.68;   13.867;    2.533;    0.000;11.33333
 436.97;  -24.467;  -29.067;    0.000; 4.60000
 437.26;   -7.467;    0.200;    0.000;-7.66667
 437.55;  -27.667;  -28.067;    0.000; 0.40000
 437.83;  -17.067;  -38.800;    0.000;21.73333
 438.12;  -30.533;  -49.333;    0.000;18.80000
 438.41;  -19.267;   -8.933;    0.000;-10.33333
 438.70;    4.333;   12.267;    0.000;-7.93333
 438.99;   21.800;    3.200;    0.000;18.60000
 439.28;  -24.267;  -13.800;    0.000;-10.46667
 439.57;  -15.467;  -28.600;    0.000;13.13333
 439.86;  -26.867;  -32.067;    0.000; 5.20000
 440.15;  -17.067;   -9.733;    0.000;-7.33333
 440.44;  -15.600;    5.267;    0.000;-20.86667
 440.73;  -29.667;  -30.467;    0.000; 0.80000
 441.02;  -30.267;  -25.933;    0.000;-4.33333
 441.31;    4.000;  -29.133;    0.000;33.13333
 441.60;  -28.867;   -1.667;    0.000;-27.20000
 441.89;  -39.867;  -36.400;    0.000;-3.46666
 442.18;  -14.667;  -27.200;    0.000;12.53333
 442.47;  -25.400;  -22.533;    0.000;-2.86667
 442.76;  -23.800;  -18.667;    0.000;-5.13333
 443.05;    6.533;   -5.600;    0.000;12.13333
 443.34;  -36.667;   -4.400;    0.000;-32.26667
 443.63;  -18.667;  -30.000;    0.000;11.33333
 443.91;   -1.133;  -25.333;    0.000;24.20000
 444.20;  -28.067;  -15.000;    0.000;-13.06667
 444.49;  -37.867;  -34.667;    0.000;-3.20000
 444.78;   -5.200;  -20.267;    0.000;15.06667
 445.07;  -15.667;  -24.333;    0.000; 8.66667
 445.36;  -37.000;  -23.267;    0.000;-13.73333
 445.65;  -12.067;  -21.067;    0.000; 9.00000
 445.94;  -23.533;  -21.467;    0.000;-2.06667
 446.23;   -4.933;  -22.933;    0.000;18.00000
 446.52;   -3.600;  -25.200;    0.000;21.60000
 446.81;  -11.733;  -17.800;    0.000; 6.06667
 447.10;  -11.467;  -19.133;    0.000; 7.66667
 447.38;  -44.267;  -61.067;    0.000;16.80000
 447.67;   -0.133;  -25.000;    0.000;24.86667
 447.96;  -37.600;  -50.333;    0.000;12.73333
 448.25;  -17.467;  -28.933;    0.000;11.46667
 448.54;   87.067;   82.533;    0.000; 4.53333
 448.83;  -25.600;  -23.200;    0.000;-2.40000
 449.12;  -37.267;  -51.000;    0.000;13.73333
 449.41;   -6.400;  -14.333;    0.000; 7.93333
 449.70;  -29.667;  -20.867;    0.000;-8.80000
 449.98;  -10.067;  -25.533;    0.000;15.46667
 450.27;  -17.267;  -24.867;    0.000; 7.60000
 450.56;  -38.333;  -29.067;    0.000;-9.26666
 450.85;  -14.533;  -35.400;    0.000;20.86667
 451.14;   -3.267;  -40.733;    0.000;37.46667
 451.43;  -28.400;  -22.333;    0.000;-6.06667
 451.72;  -20.200;  -27.333;    0.000; 7.13333
 452.01;  -24.200;  -26.333;    0.000; 2.13333
 452.29;  -21.600;  -38.533;    0.000;16.93333
 452.58;  -27.533;  -30.000;    0.000; 2.46667
 452.87;   -3.667;  -11.933;    0.000; 8.26667
 453.16;  -24.067;  -29.067;    0.000; 5.00000
 453.45;   11.733;   -9.600;    0.000;21.33333
 453.74;  -19.733;  -24.200;    0.000; 4.46667
 454.03;  -24.533;  -32.867;    0.000; 8.33333
 454.31;  -32.933;  -31.133;    0.000;-1.80000
 454.60;  -18.133;  -29.667;    0.000;11.53333
 454.89;   -1.200;  -14.400;    0.000;13.20000
 455.18;    6.533;  -48.000;    0.000;54.53333
 455.47;  -46.333;  -46.800;    0.000; 0.46667
 455.76;  -13.200;  -28.400;    0.000;15.20000
 456.04;  -27.133;  -26.800;    0.000;-0.33333
 456.33;  -22.933;  -20.733;    0.000;-2.20000
 456.62;  -35.133;  -25.533;    0.000;-9.60000
 456.91;  -20.933;  -43.067;    0.000;22.13333
 457.20;   -8.200;  -20.200;    0.000;12.00000
 457.49;   -2.133;  -20.067;    0.000;17.93333
 457.77;  -41.267;  -47.200;    0.000; 5.93333
 458.06;   -8.867;  -33.200;    0.000;24.33333
 458.35;  -25.867;  -37.667;    0.000;11.80000
 458.64;  -22.667;  -26.800;    0.000; 4.13333
 458.93;  -20.000;  -27.933;    0.000; 7.93333
 459.21;  -10.667;  -24.600;    0.000;13.93333
 459.50;  -19.133;  -25.533;    0.000; 6.40000
 459.79;  -21.667;  -44.867;    0.000;23.20000
 460.08;  -23.533;  -28.067;    0.000; 4.53333
 460.37;  -14.867;  -33.467;    0.000;18.60000
 460.65;  -16.933;  -35.467;    0.000;18.53333
 460.94;  -19.467;  -32.467;    0.000;13.00000
 461.23;  -18.533;  -46.400;    0.000;27.86667
 461.52;    7.467;  -24.933;    0.000;32.40000
 461.81;  -26.467;  -32.267;    0.000; 5.80000
 462.09;   -1.867;  -39.800;    0.000;37.93333
 462.38;  -31.133;  -48.200;    0.000;17.06667
 462.67;  -12.467;  -44.533;    0.000;32.06667
 462.96;  -42.600;  -34.400;    0.000;-8.20000
 463.24;  -10.333;  -31.400;    0.000;21.06667
 463.53;    2.333;  -17.933;    0.000;20.26667
 463.82;  -25.267;  -38.067;    0.000;12.80000
 464.11;  -37.667;  -44.600;    0.000; 6.93333
 464.40;  -13.867;  -28.533;    0.000;14.66667
 464.68;  -30.133;  -43.667;    0.000;13.53333
 464.97;  -16.067;  -30.733;    0.000;14.66667
 465.26;  -19.133;  -23.600;    0.000; 4.46667
 465.55;   -8.667;  -26.867;    0.000;18.20000
 465.83;  -34.067;  -36.533;    0.000; 2.46667
 466.12;  -16.600;  -25.400;    0.000; 8.80000
 466.41;  -25.667;  -25.800;    0.000; 0.13333
 466.70;  -15.867;  -17.067;    0.000; 1.20000
 466.98;  -14.733;  -45.067;    0.000;30.33333
 467.27;   -7.133;  -33.133;    0.000;26.00000
 467.56;  -22.867;  -12.733;    0.000;-10.13333
 467.85;  -21.733;  -22.200;    0.000; 0.46667
 468.13;  -24.067;  -36.400;    0.000;12.33333
 468.42;   -3.733;  -27.333;    0.000;23.60000
 468.71;  -25.933;  -27.600;    0.000; 1.66667
 468.99;  -18.133;  -23.533;    0.000; 5.40000
 469.28;  -33.133;  -26.267;    0.000;-6.86667
 469.57;  -21.600;  -30.067;    0.000; 8.46667
 469.86;  -32.267;  -24.000;    0.000;-8.26667
 470.14;  -19.200;  -55.067;    0.000;35.86666
 470.43;    2.533;  -37.267;    0.000;39.80000
 470.72;  -16.067;  -43.200;    0.000;27.13333
 471.00;  -29.000;  -47.267;    0.000;18.26667
 471.29;   17.067;    6.733;    0.000;10.33333
 471.58;   12.067;  -21.800;    0.000;33.86667
 471.87;   -8.667;  -18.467;    0.000; 9.80000
 472.15;  -28.133;  -29.200;    0.000; 1.06667
 472.44;    0.133;   -4.933;    0.000; 5.06667
 472.73;  -33.800;  -40.467;    0.000; 6.66667
 473.01;  -18.733;  -44.733;    0.000;26.00000
 473.30;  -21.200;  -32.800;    0.000;11.60000
 473.59;  -15.733;  -49.667;    0.000;33.93333
 473.87;  -10.600;  -26.133;    0.000;15.53333
 474.16;  -20.733;  -40.133;    0.000;19.40000
 474.45;  -32.267;  -34.933;    0.000; 2.66667
 474.74;  -25.933;  -51.200;    0.000;25.26667
 475.02;  -28.333;  -40.000;    0.000;11.66667
 475.31;   -3.133;  -19.600;    0.000;16.46667
 475.60;  -37.533;  -20.467;    0.000;-17.06667
 475.88;    3.133;   -9.600;    0.000;12.73333
 476.17;   -2.000;  -17.333;    0.000;15.33333
 476.46;   -3.000;  -36.067;    0.000;33.06667
 476.74;  -26.800;  -37.400;    0.000;10.60000
 477.03;   -5.667;  -50.200;    0.000;44.53333
 477.32;  -22.067;  -22.667;    0.000; 0.60000
 477.60;  -16.800;  -24.867;    0.000; 8.06667
 477.89;  -20.267;  -12.267;    0.000;-8.00000
 478.18;  -10.467;  -28.733;    0.000;18.26667
 478.46;   -9.867;  -38.933;    0.000;29.06667
 478.75;  -13.533;  -35.333;    0.000;21.80000
 479.03;  -14.867;  -31.000;    0.000;16.13333
 479.32;  -35.533;  -24.933;    0.000;-10.60000
 479.61;  -39.333;  -35.800;    0.000;-3.53333
 479.89;  -18.600;  -24.467;    0.000; 5.86667
 480.18;  -24.800;  -41.600;    0.000;16.80000
 480.47;  -23.133;  -44.600;    0.000;21.46667
 480.75;  -16.267;  -37.467;    0.000;21.20000
 481.04;   -1.467;  -20.600;    0.000;19.13333
 481.33;    1.333;  -20.467;    0.000;21.80000
 481.61;   -6.600;  -20.867;    0.000;14.26667
 481.90;  -30.000;  -49.200;    0.000;19.20000
 482.18;   -5.067;  -24.467;    0.000;19.40000
 482.47;  -18.467;  -17.133;    0.000;-1.33333
 482.76;    7.067;  -34.867;    0.000;41.93333
 483.04;  -23.933;  -37.733;    0.000;13.80000
 483.33;  -11.400;  -41.200;    0.000;29.80000
 483.61;   -3.867;  -30.667;    0.000;26.80000
 483.90;   12.400;  -13.133;    0.000;25.53333
 484.19;   10.733;  -46.667;    0.000;57.40000
 484.47;   26.267;  -27.600;    0.000;53.86667
 484.76;    0.267;  -50.000;    0.000;50.26667
 485.05;   42.067;  -25.133;    0.000;67.20000
 485.33;    6.400;  -23.133;    0.000;29.53333
 485.62;   37.933;  -36.200;    0.000;74.13334
 485.90;   30.600;  -29.467;    0.000;60.06667
 486.19;   21.200;  -48.067;    0.000;69.26667
 486.47;   60.200;   -8.467;    0.000;68.66667
 486.76;   73.667;  -12.867;    0.000;86.53333
 487.05;   91.667;  -10.533;    0.000;102.20000
 487.33;   85.333;  -28.133;    0.000;113.46667
 487.62;   94.733;  -38.600;    0.000;133.33333
 487.90;  105.133;  -26.000;    0.000;131.13333
 488.19;  108.267;  -22.000;    0.000;130.26667
 488.47;  143.467;  -30.067;    0.000;173.53333
 488.76;  114.933;  -23.933;    0.000;138.86667
 489.05;  197.067;  -30.933;    0.000;228.00000
 489.33;  149.267;  -29.600;    0.000;178.86666
 489.62;  204.000;  -13.600;    0.000;217.60000
 489.90;  197.200;  -62.933;    0.000;260.13333
 490.19;  253.400;  -33.333;    0.000;286.73333
 490.47;  249.200;  -27.400;    0.000;276.60000
 490.76;  276.933;  -38.067;    0.000;314.99998
 491.05;  290.133;  -18.533;    0.000;308.66666
 491.33;  306.400;  -30.133;    0.000;336.53333
 491.62;  317.600;  -42.267;    0.000;359.86667
 491.90;  343.000;  -43.600;    0.000;386.60000
 492.19;  370.933;  -41.200;    0.000;412.13332
 492.47;  410.400;  -40.200;    0.000;450.59999
 492.76;  440.667;  -43.800;    0.000;484.46666
 493.04;  502.133;  -19.733;    0.000;521.86666
 493.33;  473.267;  -50.800;    0.000;524.06666
 493.61;  569.000;  -34.933;    0.000;603.93333
 493.90;  585.333;  -25.667;    0.000;610.99998
 494.18;  640.400;  -17.133;    0.000;657.53336
 494.47;  652.533;  -25.800;    0.000;678.33332
 494.75;  715.933;  -54.467;    0.000;770.40002
 495.04;  757.133;  -33.867;    0.000;791.00003
 495.32;  794.933;  -31.133;    0.000;826.06668
 495.61;  828.600;  -24.800;    0.000;853.39997
 495.89;  890.533;  -18.000;    0.000;908.53333
 496.18;  913.867;  -23.000;    0.000;936.86664
 496.46;  993.867;  -35.133;    0.000;1028.99997
 496.75; 1016.000;  -19.600;    0.000;1035.60000
 497.03; 1074.667;  -40.267;    0.000;1114.93329
 497.32; 1123.267;  -36.200;    0.000;1159.46672
 497.60; 1180.667;  -44.267;    0.000;1224.93329
 497.89; 1220.667;  -23.733;    0.000;1244.39996
 498.17; 1334.467;  -31.400;    0.000;1365.86667
 498.46; 1340.933;  -47.000;    0.000;1387.93335
 498.74; 1420.800;  -27.067;    0.000;1447.86672
 499.03; 1444.733;  -32.533;    0.000;1477.26661
 499.31; 1584.533;  -44.867;    0.000;1629.39999
 499.60; 1610.200;  -23.067;    0.000;1633.26662
 499.88; 1695.533;  -20.667;    0.000;1716.19999
 500.17; 1703.600;  -51.067;    0.000;1754.66664
 500.45; 1810.467;  -29.733;    0.000;1840.20001
 500.74; 1841.667;  -30.800;    0.000;1872.46663
 501.02; 1939.533;  -25.933;    0.000;1965.46666
 501.31; 2014.467;  -39.333;    0.000;2053.80001
 501.59; 2107.067;  -36.867;    0.000;2143.93332
 501.88; 2172.800;  -34.667;    0.000;2207.46672
 502.16; 2219.667;  -35.000;    0.000;2254.66675
 502.45; 2252.800;  -40.867;    0.000;2293.66671
 502.73; 2381.133;  -39.067;    0.000;2420.19997
 503.01; 2466.667;  -44.467;    0.000;2511.13342
 503.30; 2576.400;  -59.600;    0.000;2635.99990
 503.58; 2604.867;  -49.400;    0.000;2654.26670
 503.87; 2731.867;  -34.067;    0.000;2765.93336
 504.15; 2733.067;  -41.800;    0.000;2774.86665
 504.44; 2895.200;  -18.467;    0.000;2913.66662
 504.72; 2924.667;  -21.733;    0.000;2946.40008
 505.00; 3080.800;  -35.133;    0.000;3115.93338
 505.29; 3108.800;  -14.533;    0.000;3123.33338
 505.57; 3156.533;  -49.933;    0.000;3206.46678
 505.86; 3252.467;  -44.600;    0.000;3297.06655
 506.14; 3303.333;  -40.200;    0.000;3343.53325
 506.43; 3452.133;  -35.333;    0.000;3487.46663
 506.71; 3463.067;  -43.133;    0.000;3506.19999
 506.99; 3525.200;  -42.333;    0.000;3567.53328
 507.28; 3664.600;  -26.133;    0.000;3690.73343
 507.56; 3698.400;  -49.667;    0.000;3748.06657
 507.85; 3831.267;  -50.800;    0.000;3882.06660
 508.13; 3933.000;  -22.267;    0.000;3955.26667
 508.41; 4037.600;  -12.267;    0.000;4049.86676
 508.70; 4078.800;  -50.600;    0.000;4129.40005
 508.98; 4157.800;  -39.800;    0.000;4197.59980
 509.27; 4266.333;  -45.133;    0.000;4311.46683
 509.55; 4275.867;  -30.800;    0.000;4306.66670
 509.83; 4360.133;  -58.933;    0.000;4419.06664
 510.12; 4488.000;  -33.400;    0.000;4521.40000
 510.40; 4552.267;  -29.067;    0.000;4581.33327
 510.69; 4636.600;  -52.733;    0.000;4689.33343
 510.97; 4727.733;  -30.667;    0.000;4758.40006
 511.25; 4800.267;  -52.733;    0.000;4852.99994
 511.54; 4861.467;  -27.200;    0.000;4888.66680
 511.82; 4985.200;  -22.933;    0.000;5008.13353
 512.11; 5032.200;  -27.267;    0.000;5059.46686
 512.39; 5124.533;  -34.667;    0.000;5159.19987
 512.67; 5190.667;  -39.467;    0.000;5230.13317
 512.96; 5236.067;  -42.467;    0.000;5278.53356
 513.24; 5368.933;  -19.667;    0.000;5388.59977
 513.52; 5423.133;  -25.000;    0.000;5448.13330
 513.81; 5411.333;  -16.333;    0.000;5427.66683
 514.09; 5612.467;  -49.200;    0.000;5661.66680
 514.37; 5588.667;  -48.600;    0.000;5637.26650
 514.66; 5679.200;  -24.933;    0.000;5704.13353
 514.94; 5813.800;  -41.200;    0.000;5854.99981
 515.22; 5788.000;  -49.467;    0.000;5837.46667
 515.51; 5892.200;  -42.133;    0.000;5934.33353
 515.79; 5939.733;  -32.133;    0.000;5971.86673
 516.07; 6027.533;  -47.067;    0.000;6074.59987
 516.36; 6140.867;  -47.133;    0.000;6188.00003
 516.64; 6151.733;  -31.267;    0.000;6183.00006
 516.92; 6290.067;  -49.200;    0.000;6339.26690
 517.21; 6253.733;  -51.733;    0.000;6305.46673
 517.49; 6439.467;  -44.400;    0.000;6483.86680
 517.77; 6494.333;  -31.467;    0.000;6525.80016
 518.06; 6638.267;  -55.133;    0.000;6693.39994
 518.34; 6703.267;  -33.400;    0.000;6736.66660
 518.62; 6689.333;  -27.667;    0.000;6717.00016
 518.91; 7025.867;  133.400;    0.000;6892.46671
 519.19; 6802.800;  -33.800;    0.000;6836.59980
 519.47; 6974.800;  -37.467;    0.000;7012.26647
 519.76; 7029.933;  -26.400;    0.000;7056.33311
 520.04; 7059.133;  -33.667;    0.000;7092.79997
 520.32; 7073.800;  -25.733;    0.000;7099.53314
 520.61; 7235.667;   -7.133;    0.000;7242.79984
 520.89; 7293.467;  -61.200;    0.000;7354.66680
 521.17; 7290.800;  -36.600;    0.000;7327.39980
 521.45; 7356.800;  -31.600;    0.000;7388.39981
 521.74; 7503.400;  -36.467;    0.000;7539.86657
 522.02; 7506.200;  -27.533;    0.000;7533.73353
 522.30; 7575.133;  -39.133;    0.000;7614.26664
 522.59; 7640.000;  -28.133;    0.000;7668.13333
 522.87; 7715.467;  -28.400;    0.000;7743.86680
 523.15; 7740.933;  -29.667;    0.000;7770.59977
 523.43; 7827.267;  -45.733;    0.000;7872.99994
 523.72; 7809.733;  -41.600;    0.000;7851.33340
 524.00; 7965.600;  -31.400;    0.000;7997.00010
 524.28; 7911.600;  -31.600;    0.000;7943.20010
 524.57; 8059.000;  -36.933;    0.000;8095.93333
 524.85; 8058.067;  -43.067;    0.000;8101.13356
 525.13; 8182.400;  -30.600;    0.000;8212.99990
 525.41; 8199.400;  -38.067;    0.000;8237.46706
 525.70; 8291.733;  -50.533;    0.000;8342.26673
 525.98; 8276.333;  -41.467;    0.000;8317.79967
 526.26; 8298.866;  -49.400;    0.000;8348.26621
 526.54; 8355.134;  -33.533;    0.000;8388.66712
 526.83; 8498.934;  -51.067;    0.000;8550.00026
 527.11; 8464.333;  -16.933;    0.000;8481.26634
 527.39; 8560.467;  -44.933;    0.000;8605.40013
 527.67; 8610.733;  -25.333;    0.000;8636.06673
 527.96; 8592.066;  -69.067;    0.000;8661.13307
 528.24; 8756.733;  -43.133;    0.000;8799.86673
 528.52; 8752.467;  -54.933;    0.000;8807.40013
 528.80; 8875.667;  -11.867;    0.000;8887.53366
 529.08; 8842.200;  -60.400;    0.000;8902.60020
 529.37; 9000.866;  -49.400;    0.000;9050.26621
 529.65; 8990.066;  -36.200;    0.000;9026.26641
 529.93; 9057.333;  -39.000;    0.000;9096.33301
 530.21; 9124.267;  -46.200;    0.000;9170.46660
 530.50; 9151.800;  -26.733;    0.000;9178.53314
 530.78; 9130.333;  -24.200;    0.000;9154.53301
 531.06; 9265.667;  -30.133;    0.000;9295.80033
 531.34; 9270.533;  -46.800;    0.000;9317.33320
 531.62; 9200.934;  -52.800;    0.000;9253.73359
 531.91; 9310.733;  -58.200;    0.000;9368.93340
 532.19; 9433.667;  -44.400;    0.000;9478.06699
 532.47; 9455.866;  -45.000;    0.000;9500.86621
 532.75; 9481.934;  -15.600;    0.000;9497.53359
 533.03; 9519.267;   -3.000;    0.000;9522.26660
 533.32; 9599.467;  -58.533;    0.000;9658.00013
 533.60; 9604.934;  -32.133;    0.000;9637.06693
 533.88; 9659.667;  -22.333;    0.000;9682.00033
 534.16; 9635.467;  -56.200;    0.000;9691.66680
 534.44; 9755.333;  -27.333;    0.000;9782.66634
 534.72; 9805.866;  -50.733;    0.000;9856.59954
 535.01; 9795.467;  -48.200;    0.000;9843.66680
 535.29; 9803.333;  -54.267;    0.000;9857.59967
 535.57; 9847.733;  -39.200;    0.000;9886.93340
 535.85; 9938.934;  -47.467;    0.000;9986.40026
 536.13;10046.333;  -47.733;    0.000;10094.06634
 536.42; 9940.467;  -49.800;    0.000;9990.26680
 536.70;10069.333;  -43.133;    0.000;10112.46634
 536.98;10039.134;  -33.400;    0.000;10072.53379
 537.26;10145.267;  -38.267;    0.000;10183.53327
 537.54;10114.066;  -44.133;    0.000;10158.19974
 537.82;10174.200;  -15.067;    0.000;10189.26686
 538.10;10162.800;  -58.400;    0.000;10221.19981
 538.39;10272.866;  -35.933;    0.000;10308.79955
 538.67;10261.066;  -62.267;    0.000;10323.33307
 538.95;10286.000;  -45.600;    0.000;10331.60000
 539.23;10283.866;  -34.933;    0.000;10318.79955
 539.51;10404.800;  -33.867;    0.000;10438.66647
 539.79;10430.467;  -47.133;    0.000;10477.60013
 540.07;10450.667;  -70.867;    0.000;10521.53366
 540.36;10439.467;  -47.867;    0.000;10487.33346
 540.64;10529.467;  -47.933;    0.000;10577.40013
 540.92;10456.333;  -53.667;    0.000;10509.99968
 541.20;10511.600;  -43.933;    0.000;10555.53294
 541.48;10621.333;  -28.600;    0.000;10649.93301
 541.76;10648.800;  -50.267;    0.000;10699.06647
 542.04;10777.733;  -47.067;    0.000;10824.80006
 542.32;10740.733;  -43.800;    0.000;10784.53340
 542.61;10752.600;  -39.733;    0.000;10792.33294
 542.89;10814.533;  -25.600;    0.000;10840.13320
 543.17;10688.800;  -46.400;    0.000;10735.19981
 543.45;10722.134;  -40.533;    0.000;10762.66712
 543.73;10808.467;  -38.933;    0.000;10847.40013
 544.01;10841.066;  -42.533;    0.000;10883.59974
 544.29;10910.333;  -22.333;    0.000;10932.66634
 544.57;10870.800;  -49.467;    0.000;10920.26647
 544.85;10938.200;  -34.467;    0.000;10972.66686
 545.13;10868.800;  -33.133;    0.000;10901.93314
 545.42;10837.267;  -44.400;    0.000;10881.66660
 545.70;11014.533;  -41.400;    0.000;11055.93320
 545.98;11064.733;  -42.400;    0.000;11107.13340
 546.26;10986.000;  -39.733;    0.000;11025.73333
 546.54;10942.667;  -69.933;    0.000;11012.60033
 546.82;11059.533;  -29.933;    0.000;11089.46654
 547.10;11133.800;  -18.200;    0.000;11151.99981
 547.38;11177.467;  -51.067;    0.000;11228.53346
 547.66;11075.333;  -39.933;    0.000;11115.26634
 547.94;11147.533;  -43.067;    0.000;11190.59987
 548.22;11116.800;  -49.733;    0.000;11166.53314
 548.50;11126.600;  -64.867;    0.000;11191.46628
 548.78;11194.066;  -52.200;    0.000;11246.26641
 549.06;11097.600;  -33.933;    0.000;11131.53294
 549.34;11046.866;  -51.333;    0.000;11098.19954
 549.63;11224.467;   -1.400;    0.000;11225.86680
 549.91;11184.333;  -31.133;    0.000;11215.46634
 550.19;11155.200;  -46.067;    0.000;11201.26686
 550.47;11180.333;  -48.800;    0.000;11229.13301
 550.75;11277.134;  -57.000;    0.000;11334.13379
 551.03;11177.667;  -62.667;    0.000;11240.33366
 551.31;11236.066;  -48.467;    0.000;11284.53307
 551.59;11229.533;  -48.467;    0.000;11277.99987
 551.87;11290.066;  -33.267;    0.000;11323.33307
 552.15;11248.200;  -41.867;    0.000;11290.06686
 552.43;11232.866;  -26.733;    0.000;11259.59954
 552.71;11254.267;  -38.733;    0.000;11292.99994
 552.99;11351.200;  -46.133;    0.000;11397.33353
 553.27;11226.467;  -58.933;    0.000;11285.40013
 553.55;11300.400;  -44.667;    0.000;11345.06706
 553.83;11351.134;  -47.267;    0.000;11398.40046
 554.11;11395.333;  -27.600;    0.000;11422.93301
 554.39;11430.667;  -43.667;    0.000;11474.33366
 554.67;11374.200;  -51.133;    0.000;11425.33353
 554.95;11335.600;  -18.400;    0.000;11353.99961
 555.23;11385.200;  -22.667;    0.000;11407.86686
 555.51;11301.200;  -50.933;    0.000;11352.13353
 555.79;11338.000;  -52.467;    0.000;11390.46667
 556.07;11313.134;  -46.467;    0.000;11359.60046
 556.35;11326.467;  -48.000;    0.000;11374.46680
 556.63;11369.733;  -47.600;    0.000;11417.33340
 556.91;11334.400;  -20.067;    0.000;11354.46706
 557.19;11341.934;  -47.867;    0.000;11389.80026
 557.47;11350.934;  -46.000;    0.000;11396.93359
 557.75;11304.400;  -37.400;    0.000;11341.80039
 558.03;11417.066;  -32.000;    0.000;11449.06641
 558.31;11469.733;  -64.933;    0.000;11534.66673
 558.59;11349.733;  -41.000;    0.000;11390.73340
 558.87;11321.134;  -30.867;    0.000;11352.00046
 559.15;11263.533;  -41.267;    0.000;11304.79987
 559.43;11402.267;  -37.733;    0.000;11439.99994
 559.71;11462.934;  -31.333;    0.000;11494.26693
 559.99;11276.333;  -56.400;    0.000;11332.73301
 560.27;11291.134;  -28.600;    0.000;11319.73379
 560.55;11268.267;  -36.933;    0.000;11305.19994
 560.82;11357.467;  -45.533;    0.000;11403.00013
 561.10;11259.066;  -30.467;    0.000;11289.53307
 561.38;11256.400;  -24.133;    0.000;11280.53372
 561.66;11244.866;   -8.267;    0.000;11253.13288
 561.94;11318.134;  -53.200;    0.000;11371.33379
 562.22;11159.400;  -45.467;    0.000;11204.86706
 562.50;11265.934;  -32.200;    0.000;11298.13359
 562.78;11249.066;  -41.333;    0.000;11290.39974
 563.06;11327.134;  -30.467;    0.000;11357.60046
 563.34;11257.066;  -41.667;    0.000;11298.73307
 563.62;11151.200;  -47.800;    0.000;11199.00019
 563.90;11177.467;  -54.600;    0.000;11232.06680
 564.18;11093.267;  -47.667;    0.000;11140.93327
 564.46;11156.134;  -52.467;    0.000;11208.60046
 564.74;11227.600;  -35.667;    0.000;11263.26628
 565.01;11162.866;  -36.667;    0.000;11199.53288
 565.29;11081.667;  -46.400;    0.000;11128.06699
 565.57;11127.733;  -50.533;    0.000;11178.26673
 565.85;11031.800;  -30.133;    0.000;11061.93314
 566.13;11037.733;  -59.733;    0.000;11097.46673
 566.41;10979.533;  -23.467;    0.000;11002.99987
 566.69;11054.000;  -55.267;    0.000;11109.26667
 566.97;11075.533;  -40.400;    0.000;11115.93320
 567.25;11034.333;  -30.600;    0.000;11064.93301
 567.53;10897.600;  -44.467;    0.000;10942.06628
 567.80;10992.866;  -35.733;    0.000;11028.59954
 568.08;10839.733;  -55.067;    0.000;10894.80006
 568.36;10835.667;  -41.000;    0.000;10876.66699
 568.64;10855.600;  -62.133;    0.000;10917.73294
 568.92;10835.600;  -45.667;    0.000;10881.26628
 569.20;10817.200;  -59.867;    0.000;10877.06686
 569.48;10826.733;  -47.400;    0.000;10874.13340
 569.76;10713.333;  -53.467;    0.000;10766.79967
 570.03;10753.934;  -36.067;    0.000;10790.00026
 570.31;10767.134;  -40.467;    0.000;10807.60046
 570.59;10710.000;  -59.000;    0.000;10769.00000
 570.87;10657.200;  -32.200;    0.000;10689.40020
 571.15;10691.733;  -43.200;    0.000;10734.93340
 571.43;10663.533;  -43.600;    0.000;10707.13320
 571.71;10527.866;  -53.333;    0.000;10581.19954
 571.98;10595.066;  -40.733;    0.000;10635.79974
 572.26;10534.066;  -40.200;    0.000;10574.26641
 572.54;10432.200;  -45.133;    0.000;10477.33353
 572.82;10395.267;  -56.000;    0.000;10451.26660
 573.10;10363.000;  -50.333;    0.000;10413.33333
 573.38;10464.667;  -58.133;    0.000;10522.80033
 573.66;10323.600;  -55.667;    0.000;10379.26628
 573.93;10348.267;  -48.200;    0.000;10396.46660
 574.21;10363.800;  -64.400;    0.000;10428.19981
 574.49;10334.467;  -34.467;    0.000;10368.93346
 574.77;10351.000;  -52.200;    0.000;10403.20000
 575.05;10222.267;  -46.000;    0.000;10268.26660
 575.33;10213.267;  -49.867;    0.000;10263.13327
 575.60;10170.467;  -36.933;    0.000;10207.40013
 575.88;10095.733;  -40.533;    0.000;10136.26673
 576.16;10057.000;  -41.600;    0.000;10098.60000
 576.44;10010.667;  -46.467;    0.000;10057.13366
 576.72;10037.866;  -54.000;    0.000;10091.86621
 576.99; 9944.333;  -56.467;    0.000;10000.79967
 577.27; 9913.267;  -38.400;    0.000;9951.66660
 577.55; 9903.400;  -17.733;    0.000;9921.13372
 577.83; 9790.400;  -50.533;    0.000;9840.93372
 578.11; 9911.733;  -46.400;    0.000;9958.13340
 578.38; 9802.934;  -27.333;    0.000;9830.26693
 578.66; 9750.467;  -54.000;    0.000;9804.46680
 578.94; 9770.467;  -55.333;    0.000;9825.80013
 579.22; 9723.467;  -63.933;    0.000;9787.40013
 579.50; 9667.800;  -42.933;    0.000;9710.73314
 579.77; 9617.134;  -51.867;    0.000;9669.00045
 580.05; 9604.866;  -58.333;    0.000;9663.19954
 580.33; 9570.066;  -51.667;    0.000;9621.73307
 580.61; 9550.733;  -33.533;    0.000;9584.26673
 580.88; 9449.800;  -45.400;    0.000;9495.19981
 581.16; 9463.533;  -49.267;    0.000;9512.79987
 581.44; 9402.934;  -42.933;    0.000;9445.86693
 581.72; 9302.667;  -44.000;    0.000;9346.66699
 581.99; 9370.400;  -30.733;    0.000;9401.13372
 582.27; 9240.267;  -58.600;    0.000;9298.86660
 582.55; 9209.667;  -53.867;    0.000;9263.53366
 582.83; 9162.800;  -47.667;    0.000;9210.46647
 583.10; 9220.667;  -43.867;    0.000;9264.53366
 583.38; 9095.000;  -44.133;    0.000;9139.13334
 583.66; 9095.134;  -44.333;    0.000;9139.46712
 583.94; 9085.134;  -57.467;    0.000;9142.60046
 584.21; 9101.400;  -49.533;    0.000;9150.93372
 584.49; 8939.934;  -43.933;    0.000;8983.86693
 584.77; 8927.800;  -68.467;    0.000;8996.26647
 585.05; 8849.800;  -60.467;    0.000;8910.26647
 585.32; 8763.600;  -40.000;    0.000;8803.59961
 585.60; 8659.733;  -60.867;    0.000;8720.60006
 585.88; 8700.000;  -49.667;    0.000;8749.66667
 586.16; 8698.200;  -27.000;    0.000;8725.20020
 586.43; 8622.533;  -29.867;    0.000;8652.39987
 586.71; 8509.200;  -38.533;    0.000;8547.73353
 586.99; 8513.200;  -59.400;    0.000;8572.60020
 587.26; 8510.800;  -46.200;    0.000;8556.99981
 587.54; 8458.333;  -30.133;    0.000;8488.46634
 587.82; 8389.533;  -41.333;    0.000;8430.86654
 588.10; 8343.134;  -44.600;    0.000;8387.73379
 588.37; 8274.934;  -53.467;    0.000;8328.40026
 588.65; 8295.400;  -61.533;    0.000;8356.93372
 588.93; 8164.133;  -36.067;    0.000;8200.19997
 589.20; 8205.467;  -50.267;    0.000;8255.73346
 589.48; 8105.333;  -35.533;    0.000;8140.86683
 589.76; 7997.267;   -4.467;    0.000;8001.73327
 590.03; 7996.467;  -52.733;    0.000;8049.20013
 590.31; 7980.533;  -28.667;    0.000;8009.19987
 590.59; 7988.800;  -41.133;    0.000;8029.93314
 590.86; 7942.533;  -29.067;    0.000;7971.59987
 591.14; 7849.600;  -45.933;    0.000;7895.53343
 591.42; 7725.933;  -52.133;    0.000;7778.06644
 591.70; 7727.800;  -44.600;    0.000;7772.39980
 591.97; 7699.933;  -44.600;    0.000;7744.53310
 592.25; 7639.400;  -45.200;    0.000;7684.59990
 592.53; 7575.600;  -60.933;    0.000;7636.53343
 592.80; 7585.600;  -41.200;    0.000;7626.80010
 593.08; 7519.000;  -44.333;    0.000;7563.33333
 593.36; 7461.333;  -20.267;    0.000;7481.60016
 593.63; 7392.067;  -32.467;    0.000;7424.53356
 593.91; 7300.867;  -52.000;    0.000;7352.86670
 594.18; 7272.600;  -35.933;    0.000;7308.53343
 594.46; 7251.000;  -57.000;    0.000;7308.00000
 594.74; 7175.200;  -52.533;    0.000;7227.73353
 595.01; 7192.200;  -54.200;    0.000;7246.40020
 595.29; 7127.067;  -67.800;    0.000;7194.86690
 595.57; 7091.933;  -28.333;    0.000;7120.26644
 595.84; 7030.067;  -52.200;    0.000;7082.26690
 596.12; 6895.000;  -52.133;    0.000;6947.13334
 596.40; 6926.267;  -60.533;    0.000;6986.79993
 596.67; 6898.200;  -62.067;    0.000;6960.26686
 596.95; 6873.267;  -44.533;    0.000;6917.79993
 597.22; 6753.067;  -66.667;    0.000;6819.73356
 597.50; 6751.267;  -37.333;    0.000;6788.59993
 597.78; 6676.200;  -55.333;    0.000;6731.53353
 598.05; 6604.867;  -61.667;    0.000;6666.53337
 598.33; 6503.733;  -57.667;    0.000;6561.40007
 598.61; 6539.667;  -50.400;    0.000;6590.06651
 598.88; 6527.400;  -57.200;    0.000;6584.59990
 599.16; 6409.067;  -46.267;    0.000;6455.33356
 599.43; 6399.867;  -60.200;    0.000;6460.06670
 599.71; 6324.067;  -32.400;    0.000;6356.46690
 599.99; 6290.933;  -57.067;    0.000;6347.99977
 600.26; 6286.733;  -44.667;    0.000;6331.40007
 600.54; 6134.400;  -39.533;    0.000;6173.93324
 600.81; 6191.667;  -36.067;    0.000;6227.73317
 601.09; 6083.467;  -54.600;    0.000;6138.06680
 601.36; 5991.933;  -47.667;    0.000;6039.59977
 601.64; 6005.667;  -56.933;    0.000;6062.59984
 601.92; 6005.867;  -45.133;    0.000;6051.00003
 602.19; 5884.467;  -61.600;    0.000;5946.06680
 602.47; 5848.600;  -68.800;    0.000;5917.40010
 602.74; 5864.800;  -45.267;    0.000;5910.06647
 603.02; 5831.467;  -46.200;    0.000;5877.66680
 603.29; 5715.867;  -53.800;    0.000;5769.66670
 603.57; 5785.467;  -52.000;    0.000;5837.46680
 603.85; 5651.600;  -45.133;    0.000;5696.73343
 604.12; 5726.467;  -16.800;    0.000;5743.26680
 604.40; 5647.667;  -63.733;    0.000;5711.39984
 604.67; 5607.200;  -38.200;    0.000;5645.40020
 604.95; 5552.533;  -66.400;    0.000;5618.93320
 605.22; 5487.067;  -51.200;    0.000;5538.26690
 605.50; 5492.600;  -50.800;    0.000;5543.40010
 605.77; 5428.800;  -56.467;    0.000;5485.26647
 606.05; 5390.133;  -48.867;    0.000;5438.99997
 606.33; 5432.467;  -41.200;    0.000;5473.66680
 606.60; 5288.467;  -58.800;    0.000;5347.26680
 606.88; 5392.600;  -28.000;    0.000;5420.60010
 607.15; 5253.933;  -54.267;    0.000;5308.19977
 607.43; 5299.400;  -55.000;    0.000;5354.39990
 607.70; 5276.267;  -46.533;    0.000;5322.79993
 607.98; 5133.067;  -42.733;    0.000;5175.80023
 608.25; 5078.400;  -61.467;    0.000;5139.86657
 608.53; 5089.733;  -62.467;    0.000;5152.20007
 608.80; 5079.600;  -40.600;    0.000;5120.20010
 609.08; 5054.600;  -51.867;    0.000;5106.46676
 609.35; 4978.067;  -55.867;    0.000;5033.93356
 609.63; 4962.667;  -57.867;    0.000;5020.53317
 609.90; 4913.467;  -50.733;    0.000;4964.20013
 610.18; 4949.000;  -21.733;    0.000;4970.73333
 610.45; 4888.733;  -67.667;    0.000;4956.40006
 610.73; 4854.400;  -59.267;    0.000;4913.66657
 611.00; 4890.333;  -33.400;    0.000;4923.73350
 611.28; 4821.267;  -66.333;    0.000;4887.59994
 611.55; 4755.400;  -73.333;    0.000;4828.73324
 611.83; 4761.333;  -48.933;    0.000;4810.26683
 612.10; 4749.600;  -56.133;    0.000;4805.73343
 612.38; 4681.200;  -43.933;    0.000;4725.13353
 612.65; 4648.867;  -47.200;    0.000;4696.06670
 612.93; 4653.133;  -68.533;    0.000;4721.66663
 613.20; 4606.667;  -42.467;    0.000;4649.13317
 613.48; 4561.067;  -47.333;    0.000;4608.40023
 613.75; 4513.133;  -68.333;    0.000;4581.46664
 614.03; 4559.000;  -38.000;    0.000;4597.00000
 614.30; 4502.200;  -69.600;    0.000;4571.80019
 614.57; 4564.400;  -66.133;    0.000;4630.53323
 614.85; 4432.400;  -49.667;    0.000;4482.06657
 615.12; 4448.733;  -45.133;    0.000;4493.86673
 615.40; 4402.600;  -61.067;    0.000;4463.66676
 615.67; 4392.267;  -53.733;    0.000;4445.99994
 615.95; 4376.200;  -57.467;    0.000;4433.66686
 616.22; 4341.200;  -71.000;    0.000;4412.20020
 616.50; 4305.267;  -35.600;    0.000;4340.86660
 616.77; 4331.467;  -52.200;    0.000;4383.66680
 617.05; 4252.000;  -34.267;    0.000;4286.26667
 617.32; 4243.200;  -61.267;    0.000;4304.46686
 617.59; 4195.267;  -49.067;    0.000;4244.33327
 617.87; 4164.067;  -41.067;    0.000;4205.13356
 618.14; 4042.467;  -66.933;    0.000;4109.39989
 618.42; 4007.133;  -60.933;    0.000;4068.06664
 618.69; 4045.267;  -61.667;    0.000;4106.93327
 618.97; 3980.467;  -61.133;    0.000;4041.59989
 619.24; 3978.000;  -53.133;    0.000;4031.13334
 619.51; 3906.200;  -44.333;    0.000;3950.53328
 619.79; 3804.267;  -50.000;    0.000;3854.26660
 620.06; 3778.067;  -48.400;    0.000;3826.46665
 620.34; 3650.867;  -53.133;    0.000;3704.00003
 620.61; 3734.600;  -32.667;    0.000;3767.26677
 620.88; 3633.400;  -44.667;    0.000;3678.06657
 621.16; 3685.200;  -53.467;    0.000;3738.66662
 621.43; 3694.200;  -57.133;    0.000;3751.33329
 621.71; 3772.667;  -48.933;    0.000;3821.60008
 621.98; 3690.133;  -49.467;    0.000;3739.59997
 622.25; 3589.667;  -64.133;    0.000;3653.80008
 622.53; 3615.000;  -65.800;    0.000;3680.80000
 622.80; 3551.133;  -55.600;    0.000;3606.73330
 623.08; 3557.200;  -65.867;    0.000;3623.06662
 623.35; 3541.267;  -56.267;    0.000;3597.53327
 623.62; 3491.533;  -62.133;    0.000;3553.66678
 623.90; 3493.133;  -55.400;    0.000;3548.53330
 624.17; 3484.467;  -43.733;    0.000;3528.19989
 624.44; 3431.733;  -58.867;    0.000;3490.60006
 624.72; 3435.333;  -69.467;    0.000;3504.79992
 624.99; 3394.400;  -61.333;    0.000;3455.73323
 625.26; 3369.667;  -67.067;    0.000;3436.73341
 625.54; 3454.667;  -29.267;    0.000;3483.93341
 625.81; 3418.200;  -64.000;    0.000;3482.19995
 626.09; 3426.867;  -62.933;    0.000;3489.80003
 626.36; 3399.333;  -70.600;    0.000;3469.93325
 626.63; 3372.733;  -53.000;    0.000;3425.73340
 626.91; 3403.333;  -52.067;    0.000;3455.39992
 627.18; 3349.133;  -59.067;    0.000;3408.19997
 627.45; 3314.667;  -46.800;    0.000;3361.46675
 627.73; 3290.600;  -47.400;    0.000;3338.00010
 628.00; 3252.533;  -66.067;    0.000;3318.60011
 628.27; 3297.467;  -39.600;    0.000;3337.06655
 628.55; 3317.267;  -52.800;    0.000;3370.06660
 628.82; 3234.067;  -58.067;    0.000;3292.13332
 629.09; 3258.200;  -48.733;    0.000;3306.93328
 629.37; 3216.667;  -68.800;    0.000;3285.46675
 629.64; 3178.267;  -37.267;    0.000;3215.53327
 629.91; 3206.333;  -65.733;    0.000;3272.06658
 630.18; 3182.133;  -57.933;    0.000;3240.06664
 630.46; 3184.600;  -53.867;    0.000;3238.46676
 630.73; 3176.200;  -46.667;    0.000;3222.86662
 631.00; 3123.000;  -66.467;    0.000;3189.46667
 631.28; 3112.067;  -48.667;    0.000;3160.73332
 631.55; 3124.667;  -51.733;    0.000;3176.40008
 631.82; 3121.800;  -45.400;    0.000;3167.20005
 632.10; 3117.600;  -42.867;    0.000;3160.46676
 632.37; 3077.067;  -63.133;    0.000;3140.19999
 632.64; 3113.333;  -28.933;    0.000;3142.26658
 632.91; 3070.867;  -36.267;    0.000;3107.13337
 633.19; 3063.133;  -55.333;    0.000;3118.46663
 633.46; 3041.267;  -58.533;    0.000;3099.79993
 633.73; 3011.667;  -28.733;    0.000;3040.40008
 634.01; 3022.867;  -40.533;    0.000;3063.40003
 634.28; 3051.867;  -38.333;    0.000;3090.20003
 634.55; 3064.000;  -20.267;    0.000;3084.26667
 634.82; 3070.867;  -45.800;    0.000;3116.66670
 635.10; 3049.267;  -47.867;    0.000;3097.13327
 635.37; 3054.867;  -51.533;    0.000;3106.40003
 635.64; 3021.533;  -44.733;    0.000;3066.26678
 635.91; 3004.933;  -60.533;    0.000;3065.46668
 636.19; 3019.733;  -63.600;    0.000;3083.33340
 636.46; 3080.600;  -56.267;    0.000;3136.86676
 636.73; 3070.533;  -37.133;    0.000;3107.66678
 637.00; 3116.867;  -78.067;    0.000;3194.93336
 637.28; 3098.267;  -66.067;    0.000;3164.33327
 637.55; 3116.733;  -37.133;    0.000;3153.86673
 637.82; 3000.800;  -42.200;    0.000;3043.00005
 638.09; 2962.067;  -55.867;    0.000;3017.93332
 638.37; 2932.800;  -75.600;    0.000;3008.40005
 638.64; 2909.933;  -72.800;    0.000;2982.73335
 638.91; 2871.533;  -53.333;    0.000;2924.86678
 639.18; 2896.733;  -51.467;    0.000;2948.20007
 639.46; 2891.267;  -58.067;    0.000;2949.33327
 639.73; 2867.200;  -59.867;    0.000;2927.06662
 640.00; 2836.933;  -62.733;    0.000;2899.66668
 640.27; 2794.467;  -56.000;    0.000;2850.46655
 640.54; 2789.933;  -49.067;    0.000;2839.00002
 640.82; 2789.733;  -56.000;    0.000;2845.73340
 641.09; 2744.467;  -57.867;    0.000;2802.33322
 641.36; 2743.933;  -75.733;    0.000;2819.66668
 641.63; 2692.133;  -50.467;    0.000;2742.59997
 641.91; 2691.000;  -50.333;    0.000;2741.33333
 642.18; 2620.067;  -58.400;    0.000;2678.46665
 642.45; 2603.067;  -77.067;    0.000;2680.13332
 642.72; 2523.067;  -62.400;    0.000;2585.46665
 642.99; 2555.400;  -44.667;    0.000;2600.06657
 643.26; 2573.533;  -60.533;    0.000;2634.06678
 643.54; 2463.400;  -52.333;    0.000;2515.73323
 643.81; 2514.067;  -69.000;    0.000;2583.06665
 644.08; 2413.667;  -41.200;    0.000;2454.86675
 644.35; 2446.200;  -44.800;    0.000;2490.99995
 644.62; 2402.600;  -59.067;    0.000;2461.66676
 644.90; 2440.667;  -51.933;    0.000;2492.60008
 645.17; 2443.800;  -54.867;    0.000;2498.66671
 645.44; 2410.667;  -60.667;    0.000;2471.33342
 645.71; 2391.133;  -55.000;    0.000;2446.13330
 645.98; 2330.067;  -64.400;    0.000;2394.46665
 646.25; 2358.133;  -56.400;    0.000;2414.53330
 646.53; 2319.267;  -65.800;    0.000;2385.06660
 646.80; 2279.467;  -47.200;    0.000;2326.66655
 647.07; 2252.933;  -49.933;    0.000;2302.86668
 647.34; 2231.200;  -61.133;    0.000;2292.33329
 647.61; 2275.867;  -36.267;    0.000;2312.13337
 647.88; 2247.067;  -25.867;    0.000;2272.93332
 648.15; 2205.867;  -65.933;    0.000;2271.80003
 648.43; 2216.533;  -36.400;    0.000;2252.93345
 648.70; 2178.733;  -69.467;    0.000;2248.20007
 648.97; 2176.133;  -66.067;    0.000;2242.19997
 649.24; 2164.733;  -48.600;    0.000;2213.33340
 649.51; 2114.067;  -72.400;    0.000;2186.46665
 649.78; 2147.467;  -82.267;    0.000;2229.73322
 650.05; 2150.267;  -36.867;    0.000;2187.13327
 650.32; 2218.933;   17.333;    0.000;2201.60002
 650.60; 2067.600;  -55.467;    0.000;2123.06676
 650.87; 2075.933;  -53.067;    0.000;2129.00002
 651.14; 2102.933;  -80.400;    0.000;2183.33335
 651.41; 2062.867;  -69.400;    0.000;2132.26670
 651.68; 2104.333;  -56.467;    0.000;2160.79992
 651.95; 2002.000;  -60.800;    0.000;2062.80000
 652.22; 2023.333;  -53.667;    0.000;2077.00004
 652.49; 1994.800;  -71.533;    0.000;2066.33338
 652.76; 1999.667;  -61.133;    0.000;2060.79996
 653.03; 1988.800;  -62.000;    0.000;2050.80005
 653.31; 1978.867;  -44.333;    0.000;2023.20003
 653.58; 1944.400;  -65.533;    0.000;2009.93336
 653.85; 1946.267;  -64.933;    0.000;2011.20006
 654.12; 1932.133;  -41.667;    0.000;1973.79997
 654.39; 1928.000;  -49.667;    0.000;1977.66667
 654.66; 1956.867;  -22.733;    0.000;1979.60003
 654.93; 1977.600;  -36.600;    0.000;2014.19997
 655.20; 1859.533;  -84.133;    0.000;1943.66666
 655.47; 1896.133;  -63.667;    0.000;1959.79997
 655.74; 1867.067;  -41.867;    0.000;1908.93332
 656.01; 1846.733;  -72.333;    0.000;1919.06661
 656.28; 1817.933;  -70.200;    0.000;1888.13335
 656.55; 1869.733;  -43.133;    0.000;1912.86661
 656.83; 1810.600;  -66.933;    0.000;1877.53331
 657.10; 1795.733;  -77.133;    0.000;1872.86661
 657.37; 1743.133;  -37.067;    0.000;1780.19997
 657.64; 1752.133;  -56.800;    0.000;1808.93330
 657.91; 1769.600;  -44.467;    0.000;1814.06664
 658.18; 1744.733;  -47.133;    0.000;1791.86661
 658.45; 1715.533;  -62.733;    0.000;1778.26666
 658.72; 1752.333;  -64.933;    0.000;1817.26671
 658.99; 1698.800;  -64.400;    0.000;1763.20005
 659.26; 1763.933;  -63.400;    0.000;1827.33335
 659.53; 1711.533;  -67.000;    0.000;1778.53333
 659.80; 1654.933;  -63.667;    0.000;1718.60002
 660.07; 1673.800;  -69.800;    0.000;1743.60005
 660.34; 1666.000;  -56.067;    0.000;1722.06667
 660.61; 1685.800;  -68.000;    0.000;1753.80005
 660.88; 1610.133;  -59.533;    0.000;1669.66663
 661.15; 1673.267;  -65.067;    0.000;1738.33339
 661.42; 1615.000;  -48.067;    0.000;1663.06667
 661.69; 1578.933;  -76.933;    0.000;1655.86668
 661.96; 1593.467;  -77.467;    0.000;1670.93334
 662.23; 1577.533;  -69.800;    0.000;1647.33333
 662.50; 1578.800;  -65.200;    0.000;1644.00005
 662.77; 1530.933;  -53.867;    0.000;1584.80001
 663.04; 1544.733;  -63.933;    0.000;1608.66661
 663.31; 1523.533;  -75.467;    0.000;1598.99999
 663.58; 1539.667;  -55.000;    0.000;1594.66663
 663.85; 1487.867;  -66.467;    0.000;1554.33337
 664.12; 1509.067;  -62.400;    0.000;1571.46665
 664.39; 1439.533;  -53.600;    0.000;1493.13332
 664.66; 1459.667;  -59.200;    0.000;1518.86663
 664.93; 1471.800;  -75.733;    0.000;1547.53338
 665.20; 1434.000;  -72.200;    0.000;1506.20000
 665.47; 1458.800;  -55.467;    0.000;1514.26672
 665.74; 1420.667;  -69.067;    0.000;1489.73329
 666.01; 1387.600;  -49.533;    0.000;1437.13331
 666.28; 1388.333;  -66.867;    0.000;1455.20004
 666.55; 1396.467;  -65.067;    0.000;1461.53334
 666.82; 1404.333;  -68.600;    0.000;1472.93337
 667.09; 1361.267;  -70.933;    0.000;1432.20006
 667.36; 1370.667;  -48.400;    0.000;1419.06663
 667.63; 1351.067;  -56.400;    0.000;1407.46665
 667.90; 1366.467;  -75.000;    0.000;1441.46667
 668.16; 1335.333;  -63.000;    0.000;1398.33337
 668.43; 1319.067;  -61.400;    0.000;1380.46665
 668.70; 1337.200;  -41.533;    0.000;1378.73328
 668.97; 1327.600;  -53.667;    0.000;1381.26664
 669.24; 1289.667;  -45.667;    0.000;1335.33329
 669.51; 1328.867;  -64.800;    0.000;1393.66670
 669.78; 1262.333;  -60.067;    0.000;1322.40004
 670.05; 1278.867;  -78.600;    0.000;1357.46670
 670.32; 1272.800;  -67.333;    0.000;1340.13338
 670.59; 1225.667;  -61.067;    0.000;1286.73329
 670.86; 1236.067;  -48.200;    0.000;1284.26665
 671.13; 1246.067;  -62.133;    0.000;1308.19999
 671.40; 1238.467;  -57.800;    0.000;1296.26667
 671.67; 1246.067;  -38.333;    0.000;1284.39998
 671.93; 1199.333;  -57.400;    0.000;1256.73338
 672.20; 1203.400;  -67.733;    0.000;1271.13335
 672.47; 1176.467;  -67.267;    0.000;1243.73335
 672.74; 1152.733;  -77.267;    0.000;1229.99995
 673.01; 1140.400;  -77.333;    0.000;1217.73336
 673.28; 1181.800;  -48.600;    0.000;1230.40005
 673.55; 1125.133;  -81.067;    0.000;1206.19997
 673.82; 1149.333;  -65.867;    0.000;1215.20004
 674.09; 1154.533;  -58.667;    0.000;1213.19999
 674.35; 1112.533;  -76.000;    0.000;1188.53333
 674.62; 1140.333;  -72.600;    0.000;1212.93337
 674.89; 1104.133;  -56.733;    0.000;1160.86663
 675.16; 1082.333;  -73.133;    0.000;1155.46671
 675.43; 1094.333;  -63.600;    0.000;1157.93337
 675.70; 1075.000;  -25.000;    0.000;1100.00000
 675.97; 1098.400;  -61.000;    0.000;1159.40002
 676.24; 1080.333;  -64.733;    0.000;1145.06670
 676.50; 1020.800;  -82.133;    0.000;1102.93332
 676.77; 1022.800;  -70.467;    0.000;1093.26665
 677.04; 1045.400;  -53.933;    0.000;1099.33336
 677.31; 1011.467;  -83.200;    0.000;1094.66667
 677.58; 1017.600;  -79.667;    0.000;1097.26664
 677.85; 1028.067;  -58.267;    0.000;1086.33332
 678.12; 1020.667;  -63.733;    0.000;1084.40002
 678.38; 1015.467;  -62.067;    0.000;1077.53334
 678.65;  939.933;  -82.867;    0.000;1022.80002
 678.92;  987.667;  -63.000;    0.000;1050.66669
 679.19; 1007.600;  -31.533;    0.000;1039.13331
 679.46;  958.400;  -68.000;    0.000;1026.40002
 679.73;  938.933;  -63.933;    0.000;1002.86668
 679.99;  944.733;  -72.133;    0.000;1016.86667
 680.26;  931.000;  -77.400;    0.000;1008.40000
 680.53;  921.400;  -71.067;    0.000;992.46669
 680.80;  929.467;  -66.533;    0.000;996.00001
 681.07;  912.200;  -61.333;    0.000;973.53334
 681.33;  937.467;  -54.667;    0.000;992.13334
 681.60;  895.667;  -39.933;    0.000;935.60002
 681.87;  901.133;  -63.800;    0.000;964.93336
 682.14;  902.533;  -58.800;    0.000;961.33332
 682.41;  865.133;  -67.333;    0.000;932.46670
 682.67;  919.200;  -64.600;    0.000;983.80001
 682.94;  872.533;  -79.267;    0.000;951.80000
 683.21;  824.267;  -74.600;    0.000;898.86666
 683.48;  890.933;  -63.133;    0.000;954.06668
 683.75;  830.933;  -59.600;    0.000;890.53335
 684.01;  847.867;  -61.400;    0.000;909.26664
 684.28;  833.733;  -82.733;    0.000;916.46667
 684.55;  831.733;  -53.867;    0.000;885.60000
 684.82;  826.600;  -77.467;    0.000;904.06664
 685.09;  850.133;  -46.333;    0.000;896.46669
 685.35;  835.533;  -64.000;    0.000;899.53333
 685.62;  804.600;  -53.267;    0.000;857.86664
 685.89;  768.467;  -64.667;    0.000;833.13334
 686.16;  764.867;  -67.067;    0.000;831.93330
 686.42;  772.733;  -55.600;    0.000;828.33334
 686.69;  785.800;  -52.467;    0.000;838.26665
 686.96;  737.200;  -67.467;    0.000;804.66668
 687.23;  764.600;  -45.400;    0.000;809.99998
 687.49;  771.000;  -41.600;    0.000;812.60000
 687.76;  728.267;  -85.733;    0.000;813.99999
 688.03;  756.267;  -64.867;    0.000;821.13333
 688.30;  710.933;  -72.000;    0.000;782.93335
 688.56;  692.200;  -80.333;    0.000;772.53335
 688.83;  723.867;  -85.467;    0.000;809.33331
 689.10;  709.267;  -83.200;    0.000;792.46666
 689.37;  683.600;  -82.867;    0.000;766.46664
 689.63;  692.933;  -68.400;    0.000;761.33335
 689.90;  723.733;  -56.467;    0.000;780.20000
 690.17;  673.067;  -67.400;    0.000;740.46665
 690.44;  672.000;  -69.000;    0.000;741.00000
 690.70;  640.467;  -71.200;    0.000;711.66667
 690.97;  668.533;  -57.000;    0.000;725.53333
 691.24;  713.667;  -55.000;    0.000;768.66669
 691.50;  628.400;  -71.733;    0.000;700.13335
 691.77;  607.800;  -91.467;    0.000;699.26665
 692.04;  658.533;  -56.867;    0.000;715.39999
 692.30;  619.333;  -84.400;    0.000;703.73331
 692.57;  636.533;  -62.533;    0.000;699.06666
 692.84;  599.400;  -83.933;    0.000;683.33336
 693.11;  606.933;  -59.200;    0.000;666.13335
 693.37;  631.200;  -59.867;    0.000;691.06668
 693.64;  572.800;  -82.600;    0.000;655.39999
 693.91;  585.533;  -77.667;    0.000;663.19999
 694.17;  568.600;  -63.000;    0.000;631.59998
 694.44;  595.533;  -58.400;    0.000;653.93333
 694.71;  581.600;  -71.067;    0.000;652.66664
 694.97;  593.400;  -54.067;    0.000;647.46669
 695.24;  523.133;  -83.133;    0.000;606.26669
 695.51;  513.200;  -72.467;    0.000;585.66668
 695.77;  544.467;  -73.733;    0.000;618.20000
 696.04;  538.400;  -66.200;    0.000;604.60002
 696.31;  542.133;  -62.800;    0.000;604.93336
 696.57;  537.933;  -50.133;    0.000;588.06668
 696.84;  506.667;  -46.333;    0.000;552.99999
 697.11;  513.667;  -67.533;    0.000;581.20002
 697.37;  546.067;  -60.467;    0.000;606.53332
 697.64;  495.133;  -73.333;    0.000;568.46667
 697.91;  518.467;  -60.067;    0.000;578.53334
 698.17;  500.533;  -77.133;    0.000;577.66666
 698.44;  515.800;  -76.733;    0.000;592.53332
 698.71;  471.933;  -61.667;    0.000;533.59999
 698.97;  437.733;  -59.267;    0.000;497.00000
 699.24;  460.267;  -38.600;    0.000;498.86666
 699.50;  461.133;  -66.333;    0.000;527.46667
 699.77;  478.200;  -43.467;    0.000;521.66668
 700.04;  443.133;  -55.600;    0.000;498.73333
 700.30;  412.733;  -69.200;    0.000;481.93333
 700.57;  418.333;  -70.133;    0.000;488.46667
 700.84;  432.133;  -56.333;    0.000;488.46666
 701.10;  424.133;  -79.733;    0.000;503.86666
 701.37;  407.467;  -63.733;    0.000;471.20001
 701.63;  413.333;  -65.733;    0.000;479.06667
 701.90;  404.333;  -51.667;    0.000;456.00001
 702.17;  433.333;  -24.400;    0.000;457.73334
 702.43;  386.000;  -70.333;    0.000;456.33334
 702.70;  414.533;  -48.733;    0.000;463.26666
 702.96;  387.000;  -76.800;    0.000;463.80000
 703.23;  372.667;  -79.733;    0.000;452.39999
 703.50;  342.733;  -72.933;    0.000;415.66667
 703.76;  354.533;  -60.200;    0.000;414.73333
 704.03;  345.133;  -64.867;    0.000;410.00000
 704.29;  319.200;  -57.733;    0.000;376.93335
 704.56;  318.667;  -77.667;    0.000;396.33332
 704.82;  334.800;  -63.000;    0.000;397.79999
 705.09;  325.400;  -59.533;    0.000;384.93333
 705.36;  318.267;  -78.067;    0.000;396.33333
 705.62;  340.867;  -31.333;    0.000;372.20000
 705.89;  302.067;  -68.533;    0.000;370.60001
 706.15;  297.467;  -57.200;    0.000;354.66668
 706.42;  308.400;  -56.333;    0.000;364.73333
 706.68;  265.533;  -66.800;    0.000;332.33333
 706.95;  282.067;  -80.867;    0.000;362.93335
 707.21;  262.333;  -75.667;    0.000;338.00001
 707.48;  268.133;  -58.533;    0.000;326.66666
 707.75;  257.667;  -85.600;    0.000;343.26665
 708.01;  291.600;  -70.067;    0.000;361.66667
 708.28;  270.533;  -80.000;    0.000;350.53333
 708.54;  261.667;  -60.600;    0.000;322.26665
 708.81;  254.600;  -49.267;    0.000;303.86667
 709.07;  243.600;  -71.333;    0.000;314.93334
 709.34;  220.467;  -73.733;    0.000;294.19999
 709.60;  208.067;  -88.000;    0.000;296.06667
 709.87;  236.600;  -61.867;    0.000;298.46667
 710.13;  244.733;  -59.667;    0.000;304.40001
 710.40;  208.133;  -79.800;    0.000;287.93333
 710.66;  207.933;  -71.267;    0.000;279.20000
 710.93;  198.333;  -65.733;    0.000;264.06666
 711.19;  201.067;  -75.000;    0.000;276.06667
 711.46;  203.267;  -58.000;    0.000;261.26666
 711.72;  244.400;  -66.667;    0.000;311.06666
 711.99;  187.467;  -76.133;    0.000;263.59999
 712.25;  219.400;  -59.867;    0.000;279.26666
 712.52;  194.400;  -51.400;    0.000;245.80000
 712.78;  208.067;  -65.200;    0.000;273.26666
 713.05;  159.000;  -65.533;    0.000;224.53333
 713.31;  216.467;  -59.267;    0.000;275.73333
 713.58;  179.067;  -67.200;    0.000;246.26666
 713.84;  187.400;  -64.067;    0.000;251.46666
 714.11;  193.067;  -76.333;    0.000;269.40000
 714.37;  205.200;  -51.867;    0.000;257.06666
 714.64;  175.800;  -80.200;    0.000;256.00000
 714.90;  170.267;  -71.267;    0.000;241.53333
 715.17;  164.400;  -76.667;    0.000;241.06666
 715.43;  159.067;  -75.600;    0.000;234.66666
 715.70;  158.200;  -68.867;    0.000;227.06667
 715.96;  174.000;  -67.067;    0.000;241.06667
 716.22;  162.733;  -70.667;    0.000;233.40000
 716.49;  183.200;  -71.733;    0.000;254.93333
 716.75;  146.267;  -96.000;    0.000;242.26666
 717.02;  172.533;  -50.200;    0.000;222.73334
 717.28;  156.667;  -76.267;    0.000;232.93334
 717.55;  160.867;  -82.067;    0.000;242.93333
 717.81;  160.933;  -69.067;    0.000;230.00000
 718.08;  164.800;  -62.333;    0.000;227.13334
 718.34;  166.000;  -86.133;    0.000;252.13333
 718.60;  171.000;  -54.867;    0.000;225.86666
 718.87;  128.533;  -63.600;    0.000;192.13334
 719.13;  172.733;  -72.733;    0.000;245.46667
 719.40;  163.400;  -58.067;    0.000;221.46666
 719.66;  158.400;  -75.533;    0.000;233.93333
 719.93;  162.467;  -74.467;    0.000;236.93333
 720.19;  133.600;  -85.533;    0.000;219.13334
 720.45;  158.400;  -60.867;    0.000;219.26666
 720.72;  177.467;  -68.600;    0.000;246.06666
 720.98;  146.667;  -55.800;    0.000;202.46667
 721.25;  146.067;  -85.067;    0.000;231.13333
 721.51;  145.533;  -82.467;    0.000;228.00001
 721.77;  153.333;  -66.333;    0.000;219.66666
 722.04;  171.667;  -42.067;    0.000;213.73334
 722.30;  154.467;  -50.533;    0.000;204.99999
 722.57;  143.333;  -60.067;    0.000;203.39999
 722.83;  154.200;  -77.200;    0.000;231.39999
 723.09;  105.733;  -92.733;    0.000;198.46666
 723.36;  156.067;  -93.867;    0.000;249.93333
 723.62;  156.133;  -64.933;    0.000;221.06667
 723.88;  154.667;  -69.600;    0.000;224.26667
 724.15;  149.133;  -62.400;    0.000;211.53333
 724.41;  141.267;  -77.067;    0.000;218.33333
 724.68;  140.800;  -70.400;    0.000;211.20000
 724.94;  175.267;  -47.867;    0.000;223.13333
 725.20;  141.200;  -71.800;    0.000;213.00000
 725.47;  154.133;  -78.800;    0.000;232.93333
 725.73;  131.200;  -74.600;    0.000;205.80000
 725.99;  136.467;  -61.800;    0.000;198.26666
 726.26;  162.533;  -67.933;    0.000;230.46667
 726.52;  155.800;  -67.133;    0.000;222.93333
 726.78;  136.667;  -66.067;    0.000;202.73334
 727.05;  151.133;  -63.867;    0.000;215.00000
 727.31;  129.133;  -76.067;    0.000;205.20000
 727.57;  135.067;  -74.467;    0.000;209.53333
 727.84;  138.400;  -55.333;    0.000;193.73333
 728.10;  145.333;  -75.467;    0.000;220.80000
 728.36;  120.933;  -40.467;    0.000;161.40000
 728.63;  144.400;  -54.800;    0.000;199.19999
 728.89;  123.533;  -69.200;    0.000;192.73333
 729.15;  142.733;  -65.067;    0.000;207.80000
 729.42;  102.600;  -79.800;    0.000;182.40000
 729.68;  134.933;  -69.333;    0.000;204.26667
 729.94;  112.133;  -79.400;    0.000;191.53333
 730.21;  134.467;  -69.667;    0.000;204.13332
 730.47;  126.933;  -78.867;    0.000;205.80000
 730.73;  140.667;  -63.133;    0.000;203.80001
 731.00;  130.733;  -51.333;    0.000;182.06667
 731.26;  137.467;  -65.667;    0.000;203.13332
 731.52;   94.200;  -62.267;    0.000;156.46666
 731.78;  126.733;  -85.133;    0.000;211.86666
 732.05;   89.600;  -67.333;    0.000;156.93333
 732.31;  134.067;  -73.133;    0.000;207.20000
 732.57;  103.400;  -73.133;    0.000;176.53333
 732.84;  108.067;  -82.000;    0.000;190.06667
 733.10;   95.600;  -78.600;    0.000;174.20000
 733.36;  120.267;  -76.333;    0.000;196.60001
 733.62;   99.667;  -71.000;    0.000;170.66666
 733.89;  109.267;  -74.667;    0.000;183.93333
 734.15;   94.533;  -77.133;    0.000;171.66666
 734.41;  128.000;  -62.467;    0.000;190.46667
 734.67;   90.600;  -74.467;    0.000;165.06667
 734.94;  113.267;  -74.933;    0.000;188.20000
 735.20;  102.733;  -71.733;    0.000;174.46666
 735.46;  120.333;  -60.200;    0.000;180.53334
 735.73;   72.600;  -64.533;    0.000;137.13333
 735.99;   86.533;  -61.000;    0.000;147.53333
 736.25;   81.600;  -48.267;    0.000;129.86666
 736.51;   98.267;  -91.133;    0.000;189.40000
 736.77;   85.200;  -73.333;    0.000;158.53333
 737.04;  105.200;  -65.267;    0.000;170.46667
 737.30;   82.467;  -72.400;    0.000;154.86667
 737.56;   99.467;  -67.733;    0.000;167.20000
 737.82;   61.867;  -76.533;    0.000;138.40000
 738.09;   87.600;  -74.800;    0.000;162.40000
 738.35;   72.933;  -88.733;    0.000;161.66666
 738.61;   77.133;  -56.467;    0.000;133.60000
 738.87;   78.867;  -71.533;    0.000;150.40000
 739.14;   88.600;  -69.533;    0.000;158.13333
 739.40;   58.933;  -77.467;    0.000;136.40000
 739.66;   93.533;  -80.267;    0.000;173.80000
 739.92;   62.933;  -80.333;    0.000;143.26667
 740.18;   72.867;  -61.267;    0.000;134.13334
 740.45;   56.667;  -83.333;    0.000;140.00000
 740.71;   85.400;  -37.467;    0.000;122.86667
 740.97;   87.533;  -61.200;    0.000;148.73333
 741.23;   84.267;  -68.600;    0.000;152.86667
 741.49;   67.467;  -75.933;    0.000;143.40000
 741.76;   55.000;  -96.400;    0.000;151.40000
 742.02;   52.067;  -73.867;    0.000;125.93333
 742.28;   70.600;  -50.400;    0.000;121.00000
 742.54;   52.000;  -64.133;    0.000;116.13333
 742.80;   68.533;  -78.400;    0.000;146.93333
 743.06;   62.600;  -70.000;    0.000;132.60000
 743.33;   51.467;  -60.067;    0.000;111.53333
 743.59;   38.000;  -92.000;    0.000;130.00000
 743.85;   48.867;  -63.667;    0.000;112.53333
 744.11;   64.267;  -75.600;    0.000;139.86667
 744.37;   87.667;  -62.000;    0.000;149.66666
 744.63;   33.267;  -66.933;    0.000;100.20000
 744.90;   61.400;  -88.333;    0.000;149.73334
 745.16;   42.200;  -76.933;    0.000;119.13334
 745.42;   62.933;  -72.133;    0.000;135.06667
 745.68;   78.333;  -85.000;    0.000;163.33334
 745.94;   87.533;  -47.333;    0.000;134.86666
 746.20;   37.533;  -68.867;    0.000;106.40000
 746.46;   74.867;  -67.467;    0.000;142.33334
 746.72;   58.400;  -56.533;    0.000;114.93333
 746.99;   64.000;  -66.400;    0.000;130.40000
 747.25;   71.400;  -62.267;    0.000;133.66667
 747.51;   52.933;  -77.667;    0.000;130.60000
 747.77;   46.067;  -81.200;    0.000;127.26666
 748.03;   42.067;  -82.667;    0.000;124.73333
 748.29;   31.800;  -66.200;    0.000;98.00000
 748.55;   39.800;  -79.267;    0.000;119.06667
 748.81;   22.400;  -77.400;    0.000;99.80000
 749.08;   41.867;  -67.600;    0.000;109.46666
 749.34;   47.067;  -57.133;    0.000;104.20000
 749.60;   58.267;  -73.333;    0.000;131.60000
 749.86;   28.800;  -73.333;    0.000;102.13334
 750.12;   43.267;  -63.933;    0.000;107.20000
 750.38;   46.933;  -77.600;    0.000;124.53333
 750.64;   29.533;  -70.800;    0.000;100.33334
 750.90;   37.467;  -70.733;    0.000;108.20000
 751.16;   40.600;  -87.133;    0.000;127.73333
 751.42;   35.200;  -86.467;    0.000;121.66667
 751.68;   59.733;  -49.933;    0.000;109.66667
 751.95;   18.867;  -94.933;    0.000;113.80000
 752.21;   40.933;  -76.800;    0.000;117.73334
 752.47;   11.267;  -97.533;    0.000;108.80000
 752.73;   29.267;  -76.800;    0.000;106.06667
 752.99;   20.667;  -69.267;    0.000;89.93334
 753.25;   20.800;  -80.933;    0.000;101.73333
 753.51;    2.600;  -87.267;    0.000;89.86667
 753.77;   14.133;  -74.600;    0.000;88.73333
 754.03;    5.400;  -88.467;    0.000;93.86667
 754.29;   31.867;  -64.667;    0.000;96.53333
 754.55;    8.467;  -72.267;    0.000;80.73334
 754.81;   30.467;  -64.667;    0.000;95.13333
 755.07;    8.067;  -77.400;    0.000;85.46667
 755.33;   33.733;  -65.067;    0.000;98.80000
 755.59;   -6.933;  -79.267;    0.000;72.33334
 755.85;    9.133;  -68.333;    0.000;77.46667
 756.11;    2.533;  -89.667;    0.000;92.20000
 756.37;   25.400;  -85.800;    0.000;111.20000
 756.63;   35.133;  -52.067;    0.000;87.20000
 756.89;    6.467;  -76.133;    0.000;82.60000
 757.15;   -9.267;  -63.600;    0.000;54.33333
 757.41;   56.000;  -38.467;    0.000;94.46667
 757.68;   10.800;  -72.000;    0.000;82.80000
 757.94;   28.400;  -64.667;    0.000;93.06666
 758.20;   29.267;  -62.867;    0.000;92.13333
 758.46;   12.933;  -88.600;    0.000;101.53333
 758.72;   -6.000;  -81.600;    0.000;75.60000
 758.98;   30.867;  -52.267;    0.000;83.13333
 759.24;   -1.867;  -69.867;    0.000;68.00000
 759.50;   -0.667;  -75.400;    0.000;74.73333
 759.76;   17.933;  -59.600;    0.000;77.53333
 760.02;   19.400;  -73.200;    0.000;92.60000
 760.27;   -8.200;  -78.400;    0.000;70.20000
 760.53;    7.600;  -59.600;    0.000;67.20000
 760.79;   -2.600;  -66.267;    0.000;63.66667
 761.05;    4.067;  -56.200;    0.000;60.26667
 761.31;   25.933;  -63.067;    0.000;89.00000
 761.57;   22.000;  -47.533;    0.000;69.53333
 761.83;   -5.467;  -75.333;    0.000;69.86667
 762.09;  -20.600;  -75.933;    0.000;55.33333
 762.35;  -17.600;  -82.733;    0.000;65.13333
 762.61;   -7.133;  -61.867;    0.000;54.73333
 762.87;   -2.400;  -52.933;    0.000;50.53333
 763.13;    8.733;  -84.867;    0.000;93.60000
 763.39;   23.533;  -63.000;    0.000;86.53333
 763.65;  -12.733;  -80.733;    0.000;68.00000
 763.91;  -27.667;  -69.933;    0.000;42.26667
 764.17;   18.667;  -58.667;    0.000;77.33333
 764.43;   -9.333;  -63.933;    0.000;54.60000
 764.69;   -5.600;  -78.933;    0.000;73.33333
 764.95;   -5.867;  -62.533;    0.000;56.66667
 765.21;    1.067;  -80.533;    0.000;81.60000
 765.47;   -2.533;  -93.000;    0.000;90.46667
 765.73;  -12.067;  -71.267;    0.000;59.20000
 765.98;    4.333;  -70.267;    0.000;74.60000
 766.24;   -9.933;  -89.800;    0.000;79.86667
 766.50;  -30.533;  -65.000;    0.000;34.46667
 766.76;   -0.400;  -68.933;    0.000;68.53333
 767.02;  -33.000;  -76.067;    0.000;43.06667
 767.28;   -7.533;  -72.000;    0.000;64.46667
 767.54;  -27.667;  -70.800;    0.000;43.13334
 767.80;   -8.133;  -74.267;    0.000;66.13334
 768.06;   -8.400;  -69.800;    0.000;61.40000
 768.32;  -13.000;  -56.467;    0.000;43.46667
 768.58;  -21.133;  -68.267;    0.000;47.13334
 768.83;  -27.667;  -79.667;    0.000;52.00000
 769.09;   -6.400;  -80.133;    0.000;73.73333
 769.35;  -11.800;  -67.200;    0.000;55.40000
 769.61;  -11.200;  -68.600;    0.000;57.40000
 769.87;  -25.267;  -67.200;    0.000;41.93333
 770.13;  -12.600;  -60.200;    0.000;47.60000
 770.39;  -32.600;  -88.000;    0.000;55.40000
 770.65;   -3.200;  -68.600;    0.000;65.40000
 770.90;  -16.267;  -92.800;    0.000;76.53334
 771.16;  -45.600;  -65.067;    0.000;19.46667
 771.42;  -15.800;  -86.800;    0.000;71.00000
 771.68;  -45.533;  -91.400;    0.000;45.86667
 771.94;   -4.467;  -76.600;    0.000;72.13333
 772.20;  -30.867;  -72.600;    0.000;41.73333
 772.46;  -27.267;  -95.133;    0.000;67.86666
 772.71;  -34.267;  -74.200;    0.000;39.93333
 772.97;  -10.733;  -61.467;    0.000;50.73333
 773.23;  -40.200;  -80.467;    0.000;40.26667
 773.49;   -4.733;  -60.800;    0.000;56.06667
 773.75;  -41.667;  -93.467;    0.000;51.80000
 774.01;  -29.733;  -80.000;    0.000;50.26667
 774.26;  -46.867;  -82.733;    0.000;35.86666
 774.52;   -1.800;  -55.933;    0.000;54.13333
 774.78;  -24.867;  -68.533;    0.000;43.66667
 775.04;   -3.733;  -39.267;    0.000;35.53333
 775.30;  -17.000;  -28.600;    0.000;11.60000
 775.56;  -22.333;  -76.867;    0.000;54.53333
 775.81;  -32.133;  -63.867;    0.000;31.73333
 776.07;  -27.933;  -79.867;    0.000;51.93334
 776.33;  -33.133;  -74.533;    0.000;41.40000
 776.59;  -24.333;  -83.467;    0.000;59.13333
 776.85;  -51.400;  -79.800;    0.000;28.40000
 777.10;  -22.200;  -76.933;    0.000;54.73333
 777.36;  -35.133;  -86.933;    0.000;51.80000
 777.62;   -7.400;  -74.800;    0.000;67.40000
 777.88;  -39.067;  -89.067;    0.000;50.00000
 778.14;  -22.800;  -67.933;    0.000;45.13334
 778.39;  -45.267;  -75.267;    0.000;30.00000
 778.65;   -7.200;  -63.733;    0.000;56.53333
 778.91;  -54.667;  -76.067;    0.000;21.40000
 779.17;  -29.000;  -74.800;    0.000;45.80000
 779.42;  -39.067;  -70.600;    0.000;31.53333
 779.68;  -41.800;  -82.400;    0.000;40.60000
 779.94;  -46.133;  -84.667;    0.000;38.53333
 780.20;  -15.733;  -74.667;    0.000;58.93333
 780.46;  -43.933;  -77.133;    0.000;33.20000
 780.71;   -8.867;  -67.000;    0.000;58.13333
 780.97;  -38.267;  -75.533;    0.000;37.26667
 781.23;  -37.333;  -83.733;    0.000;46.40000
 781.49;  -29.200;  -60.267;    0.000;31.06667
 781.74;  -30.000;  -75.333;    0.000;45.33334
 782.00;  -48.267;  -75.867;    0.000;27.60000
 782.26;   -9.800;  -64.067;    0.000;54.26667
 782.52;  -30.267;  -60.800;    0.000;30.53333
 782.77;  -27.467;  -66.733;    0.000;39.26666
 783.03;  -47.467;  -86.467;    0.000;39.00000
 783.29;  -51.467;  -83.333;    0.000;31.86667
 783.54;  -48.333;  -64.067;    0.000;15.73333
 783.80;    1.000;  -76.000;    0.000;77.00000
 784.06;  -22.533;  -80.800;    0.000;58.26667
 784.32;  -28.400;  -76.467;    0.000;48.06667
 784.57;  -10.533;  -61.667;    0.000;51.13333
 784.83;  -44.800;  -81.467;    0.000;36.66667
 785.09;  -56.533;  -92.533;    0.000;36.00000
 785.34;  -45.533;  -95.200;    0.000;49.66666
 785.60;  -26.733;  -66.200;    0.000;39.46666
 785.86;  -40.000;  -83.333;    0.000;43.33334
 786.12;  -30.800;  -77.867;    0.000;47.06667
 786.37;  -18.333;  -48.133;    0.000;29.80000
 786.63;  -60.800;  -76.400;    0.000;15.60000
 786.89;  -30.600;  -63.600;    0.000;33.00000
 787.14;  -43.667;  -70.000;    0.000;26.33333
 787.40;  -54.400;  -71.733;    0.000;17.33333
 787.66;  -45.200;  -63.533;    0.000;18.33333
 787.91;  -16.467;  -40.667;    0.000;24.20000
 788.17;  -54.267;  -78.067;    0.000;23.80000
 788.43;  -38.000;  -81.333;    0.000;43.33334
 788.68;  -73.267;  -95.000;    0.000;21.73333
 788.94;  -41.600;  -56.867;    0.000;15.26667
 789.20;  -47.933;  -71.667;    0.000;23.73333
 789.45;  -55.133;  -84.400;    0.000;29.26667
 789.71;  -62.133;  -70.733;    0.000; 8.59999
 789.97;  -37.000;  -61.533;    0.000;24.53333
 790.22;  -47.000;  -68.933;    0.000;21.93333
 790.48;  -34.400;  -93.267;    0.000;58.86667
 790.74;  -46.400;  -78.400;    0.000;32.00000
 790.99;  -30.467;  -80.933;    0.000;50.46667
 791.25;  -61.933;  -80.000;    0.000;18.06667
 791.51;  -54.933;  -74.467;    0.000;19.53333
 791.76;  -41.800;  -52.200;    0.000;10.40000
 792.02;  -44.133;  -75.467;    0.000;31.33333
 792.27;  -46.400;  -57.533;    0.000;11.13333
 792.53;  -37.267;  -59.000;    0.000;21.73333
 792.79;  -53.467;  -66.200;    0.000;12.73333
 793.04;  -22.400;  -83.667;    0.000;61.26666
 793.30;  -66.067;  -89.200;    0.000;23.13333
 793.56;  -50.267;  -65.800;    0.000;15.53334
 793.81;  -15.467;  -59.600;    0.000;44.13333
 794.07;  -48.667;  -84.933;    0.000;36.26667
 794.32;  -47.867;  -78.667;    0.000;30.80000
 794.58;  -41.200;  -96.467;    0.000;55.26667
 794.84;  -63.533;  -84.933;    0.000;21.40000
 795.09;  -28.533;  -54.133;    0.000;25.60000
 795.35;  -32.533;  -69.667;    0.000;37.13333
 795.60;  -38.933;  -49.933;    0.000;11.00000
 795.86;  -31.867;  -53.000;    0.000;21.13333
 796.12;  -50.133;  -85.400;    0.000;35.26667
 796.37;  -55.133;  -89.867;    0.000;34.73333
 796.63;  -42.533;  -61.667;    0.000;19.13334
 796.88;  -42.067;  -68.533;    0.000;26.46667
 797.14;  -38.267;  -71.733;    0.000;33.46666
 797.39;  -57.733;  -56.133;    0.000;-1.60000
 797.65;  -38.867;  -79.133;    0.000;40.26667
 797.91;  -46.933;  -80.467;    0.000;33.53333
 798.16;  -39.733;  -66.867;    0.000;27.13334
 798.42;  -69.467;  -83.600;    0.000;14.13333
 798.67;  -43.600;  -85.267;    0.000;41.66667
 798.93;  -58.267;  -90.800;    0.000;32.53334
 799.18;  -51.467;  -79.800;    0.000;28.33334
 799.44;  -63.600;  -88.267;    0.000;24.66667
 799.69;  -53.933;  -76.867;    0.000;22.93333
 799.95;  -50.933;  -97.867;    0.000;46.93333
 800.21;  -63.200;  -72.533;    0.000; 9.33333
 800.46;  -28.333;  -67.533;    0.000;39.20000
 800.72;  -47.600;  -78.733;    0.000;31.13333
 800.97;  -63.867;  -74.867;    0.000;11.00000
 801.23;  -52.067;  -66.933;    0.000;14.86667
 801.48;  -61.333;  -89.733;    0.000;28.40000
 801.74;  -48.000;  -81.000;    0.000;33.00000
 801.99;  -33.133;  -76.800;    0.000;43.66667
 802.25;  -50.800;  -71.133;    0.000;20.33333
 802.50;  -60.600;  -78.400;    0.000;17.80000
 802.76;  -30.200;  -66.067;    0.000;35.86666
 803.01;  -74.400;  -74.400;    0.000; 0.00000
 803.27;  -58.800;  -78.667;    0.000;19.86666
 803.52;  -55.867;  -79.333;    0.000;23.46667
 803.78;  -36.000;  -58.133;    0.000;22.13334
 804.03;  -54.600;  -69.067;    0.000;14.46667
 804.29;  -77.067;  -77.667;    0.000; 0.60000
 804.54;  -49.867;  -56.267;    0.000; 6.40000
 804.80;  -50.800;  -71.867;    0.000;21.06667
 805.05;  -58.133;  -73.067;    0.000;14.93333
 805.31;  -40.067;  -54.133;    0.000;14.06667
 805.56;  -58.400;  -57.200;    0.000;-1.20000
 805.82;  -68.933;  -90.733;    0.000;21.80000
 806.07;  -49.733;  -63.400;    0.000;13.66667
 806.33;  -57.467;  -77.600;    0.000;20.13333
 806.58;  -80.533;  -86.533;    0.000; 6.00000
 806.84;  -42.000;  -69.333;    0.000;27.33334
 807.09;  -54.267;  -76.667;    0.000;22.40000
 807.34;  -57.600;  -72.733;    0.000;15.13333
 807.60;  -66.133;  -74.067;    0.000; 7.93333
 807.85;  -34.933;  -62.800;    0.000;27.86666
 808.11;  -64.600;  -92.933;    0.000;28.33334
 808.36;  -38.800;  -65.600;    0.000;26.80000
 808.62;  -79.733;  -86.667;    0.000; 6.93333
 808.87;  -55.133;  -78.733;    0.000;23.59999
 809.13;  -66.067;  -71.467;    0.000; 5.40000
 809.38;  -28.667;  -48.200;    0.000;19.53333
 809.63;  -70.733;  -98.067;    0.000;27.33334
 809.89;  -38.533;  -58.667;    0.000;20.13334
 810.14;  -65.733;  -74.333;    0.000; 8.60001
 810.40;  -41.000;  -51.267;    0.000;10.26667
 810.65;  -53.333;  -64.133;    0.000;10.80000
 810.91;  -47.267;  -85.533;    0.000;38.26667
 811.16;  -60.800;  -56.333;    0.000;-4.46667
 811.41;  -36.400;  -55.067;    0.000;18.66666
 811.67;  -51.533;  -71.333;    0.000;19.80000
 811.92;  -45.600;  -82.333;    0.000;36.73334
 812.18;  -44.533;  -70.667;    0.000;26.13333
 812.43;  -53.467;  -60.533;    0.000; 7.06667
 812.68;  -65.467;  -80.333;    0.000;14.86667
 812.94;  -40.400;  -76.933;    0.000;36.53333
 813.19;  -73.867;  -99.867;    0.000;26.00000
 813.45;  -25.067;  -33.933;    0.000; 8.86667
 813.70;  -39.133;  -74.533;    0.000;35.40000
 813.95;  -32.533;  -70.667;    0.000;38.13333
 814.21;  -62.800;  -75.933;    0.000;13.13334
 814.46;  -43.600;  -88.000;    0.000;44.40000
 814.71;  -68.067;  -81.933;    0.000;13.86667
 814.97;  -51.733;  -77.867;    0.000;26.13334
 815.22;  -68.533;  -88.867;    0.000;20.33334
 815.48;  -65.267;  -85.133;    0.000;19.86666
 815.73;   -0.533;  -20.867;    0.000;20.33333
 815.98;  -53.867;  -74.867;    0.000;21.00000
 816.24;  -67.067;  -79.000;    0.000;11.93333
 816.49;  -52.333;  -72.067;    0.000;19.73333
 816.74;  -71.800;  -74.600;    0.000; 2.80000
 817.00;  -14.267;  -43.400;    0.000;29.13334
 817.25;  -56.800;  -58.000;    0.000; 1.20000
 817.50;  -42.400;  -71.000;    0.000;28.60000
 817.76;  -82.800;  -91.000;    0.000; 8.20000
 818.01;  -75.400;  -93.533;    0.000;18.13333
 818.26;  -63.600;  -97.133;    0.000;33.53333
 818.52;  -57.867;  -85.400;    0.000;27.53334
 818.77;  -51.200;  -78.200;    0.000;27.00000
 819.02;  160.800;  116.467;    0.000;44.33334
 819.28;  -68.733;  -76.867;    0.000; 8.13334
 819.53;  -36.933;  -90.467;    0.000;53.53333
 819.78;  -73.733;  -78.600;    0.000; 4.86667
 820.04;  -63.533;  -70.333;    0.000; 6.80000
 820.29;  -66.333;  -72.533;    0.000; 6.20000
 820.54;  -38.667;  -66.800;    0.000;28.13334
 820.79;  -61.867;  -63.600;    0.000; 1.73333
 821.05;  -66.133;  -89.800;    0.000;23.66667
 821.30;  -39.067;  -35.467;    0.000;-3.60000
 821.55;  -45.600;  -59.133;    0.000;13.53334
 821.81;  -65.667;  -84.067;    0.000;18.40000
 822.06;  -49.800;  -87.800;    0.000;38.00000
 822.31;  -39.667;  -52.200;    0.000;12.53333
 822.56;  -67.733;  -59.533;    0.000;-8.20000
 822.82;  -61.533;  -75.867;    0.000;14.33334
 823.07;  -56.600;  -72.200;    0.000;15.60000
 823.32;  -97.333;  -88.867;    0.000;-8.46667
 823.58;  -57.133;  -47.600;    0.000;-9.53334
 823.83;  -66.400;  -82.200;    0.000;15.80000
 824.08;  -59.467;  -80.867;    0.000;21.40000
 824.33;  -74.200;  -84.067;    0.000; 9.86667
 824.59;  -67.733;  -97.667;    0.000;29.93333
 824.84;  -53.533;  -92.067;    0.000;38.53333
 825.09;  -50.400;  -83.667;    0.000;33.26666
 825.34;  -68.400;  -79.933;    0.000;11.53333
 825.60;  -53.333;  -83.667;    0.000;30.33333
 825.85;  -86.200;  -92.800;    0.000; 6.60001
 826.10;  -68.800;  -94.133;    0.000;25.33333
 826.35;  -59.267;  -72.000;    0.000;12.73333
 826.61;  -76.067;  -81.067;    0.000; 5.00000
 826.86;  -81.600;  -91.400;    0.000; 9.80000
 827.11;  -68.533;  -62.267;    0.000;-6.26667
 827.36;  -77.267;  -81.667;    0.000; 4.39999
 827.61;  -75.133;  -75.600;    0.000; 0.46667
 827.87;  -63.533;  -79.933;    0.000;16.40000
 828.12;  -42.067;  -76.733;    0.000;34.66666
 828.37;  -68.933;  -74.133;    0.000; 5.20000
 828.62;  -68.533;  -73.133;    0.000; 4.60000
 828.88;  -47.200;  -69.133;    0.000;21.93333
 829.13;  -35.600;  -52.733;    0.000;17.13334
 829.38;  -66.067;  -79.000;    0.000;12.93333
 829.63;  -67.200;  -94.333;    0.000;27.13334
 829.88;  -71.467;  -86.267;    0.000;14.80000
 830.14;  -53.333;  -94.733;    0.000;41.40000
 830.39;  -66.733;  -70.200;    0.000; 3.46667
 830.64;  -67.400;  -89.933;    0.000;22.53333
 830.89;  -56.533;  -50.200;    0.000;-6.33333
 831.14;  -51.533;  -68.067;    0.000;16.53333
 831.39;  -79.000;  -93.333;    0.000;14.33334
 831.65;  -70.400;  -92.933;    0.000;22.53333
 831.90;  -83.667;  -88.400;    0.000; 4.73334
 832.15;  -62.933;  -77.933;    0.000;15.00000
 832.40;  -74.800;  -75.067;    0.000; 0.26666
 832.65;  -39.000;  -79.667;    0.000;40.66666
 832.90;  -70.400;  -83.067;    0.000;12.66666
 833.16;  -57.667;  -79.467;    0.000;21.80000
 833.41;  -58.200;  -72.933;    0.000;14.73333
 833.66;  -59.867;  -84.200;    0.000;24.33333
 833.91;  -72.467;  -63.133;    0.000;-9.33333
 834.16;  -62.333;  -82.600;    0.000;20.26667
 834.41;  -81.933;  -66.333;    0.000;-15.60000
 834.66;  -33.067;  -72.400;    0.000;39.33334
 834.92;  -76.067;  -69.933;    0.000;-6.13333
 835.17;  -64.400;  -88.200;    0.000;23.80000
 835.42;  -58.000;  -80.800;    0.000;22.80000
 835.67;  -53.133;  -81.800;    0.000;28.66667
 835.92;  -97.533;  -79.667;    0.000;-17.86667
 836.17;  -68.067;  -92.933;    0.000;24.86667
 836.42;  -69.733;  -96.067;    0.000;26.33334
 836.67;  -67.333;  -85.667;    0.000;18.33333
 836.93;  -64.933;  -83.733;    0.000;18.80000
 837.18;  -61.600;  -69.867;    0.000; 8.26667
 837.43;  -82.533;  -60.667;    0.000;-21.86666
 837.68;  -58.067;  -68.000;    0.000; 9.93333
 837.93;  -92.000;  -96.467;    0.000; 4.46667
 838.18;  -78.933;  -71.733;    0.000;-7.20000
 838.43;  -77.333;  -85.600;    0.000; 8.26666
 838.68;  -65.533;  -64.067;    0.000;-1.46667
 838.93;  -76.000;  -82.933;    0.000; 6.93333
 839.18;  -59.733;  -88.400;    0.000;28.66667
 839.43;  -56.133;  -77.333;    0.000;21.20000
 839.69;  -70.400;  -80.667;    0.000;10.26666
 839.94;  -76.067;  -98.200;    0.000;22.13333
 840.19;  -67.267;  -69.067;    0.000; 1.80000
 840.44;  -62.267;  -73.933;    0.000;11.66667
 840.69;  -54.333;  -59.533;    0.000; 5.20000
 840.94;  -83.867;  -68.733;    0.000;-15.13334
 841.19;  -51.867;  -72.733;    0.000;20.86666
 841.44;  -65.800;  -90.333;    0.000;24.53333
 841.69;  -32.200;  -51.800;    0.000;19.60000
 841.94;  -72.867;  -89.667;    0.000;16.80000
 842.19;  -65.667;  -76.467;    0.000;10.80000
 842.44;  -79.800;  -83.933;    0.000; 4.13333
 842.69;  -77.067;  -70.800;    0.000;-6.26666
 842.94;  -68.133;  -86.000;    0.000;17.86667
 843.19;  -55.400;  -90.733;    0.000;35.33333
 843.44;  -72.267;  -81.733;    0.000; 9.46666
 843.69;  -52.133;  -81.533;    0.000;29.40000
 843.94;  -26.333;  -27.133;    0.000; 0.80000
 844.19;  -65.133;  -87.800;    0.000;22.66667
 844.44;  -61.733;  -64.733;    0.000; 3.00000
 844.69;  -59.600;  -81.800;    0.000;22.20000
 844.95;  -65.667;  -88.000;    0.000;22.33334
 845.20;  -67.067;  -96.200;    0.000;29.13333
 845.45;  -63.667;  -57.067;    0.000;-6.60000
 845.70;  -60.600;  -69.933;    0.000; 9.33334
 845.95;  -68.133;  -84.267;    0.000;16.13334
 846.20;  -76.800;  -81.133;    0.000; 4.33333
 846.45;  -74.867;  -76.267;    0.000; 1.40000
 846.70;  -65.333;  -90.333;    0.000;25.00000
 846.95;  -74.000;  -88.867;    0.000;14.86667
 847.20;  -63.800;  -77.933;    0.000;14.13334
 847.44;  -37.800;  -40.467;    0.000; 2.66667
 847.69;  -72.133;  -90.467;    0.000;18.33334
 847.94;  -56.800;  -73.400;    0.000;16.60000
 848.19;  -57.933;  -75.467;    0.000;17.53333
 848.44;  -51.667;  -61.867;    0.000;10.20000
 848.69;  -55.867;  -89.533;    0.000;33.66667
 848.94;  -79.600;  -63.000;    0.000;-16.60000
 849.19;  -67.467;  -85.333;    0.000;17.86667
 849.44;  -75.067;  -88.333;    0.000;13.26667
 849.69;  -53.000;  -82.667;    0.000;29.66666
 849.94;  -89.467;  -87.933;    0.000;-1.53333
 850.19;  -65.400;  -79.267;    0.000;13.86667
 850.44;  -74.800;  -49.733;    0.000;-25.06667
 850.69;  -67.333;  -80.067;    0.000;12.73333
 850.94;  -89.000;  -80.800;    0.000;-8.20000
 851.19;  -72.000;  -80.667;    0.000; 8.66666
 851.44;  -70.133;  -70.933;    0.000; 0.80000
 851.69;  -63.267;  -51.467;    0.000;-11.80000
 851.94;  -65.600;  -55.733;    0.000;-9.86666
 852.19;  -75.333;  -63.333;    0.000;-12.00000
 852.44;  -86.533;  -76.333;    0.000;-10.20000
 852.68;  -73.067;  -80.800;    0.000; 7.73334
 852.93;  -61.267;  -63.133;    0.000; 1.86667
 853.18;  -57.067;  -86.467;    0.000;29.40000
 853.43;  -76.200;  -72.067;    0.000;-4.13333
 853.68;  -80.000;  -79.733;    0.000;-0.26667
 853.93;  -63.400;  -74.267;    0.000;10.86667
 854.18;  -43.467;  -83.800;    0.000;40.33334
 854.43;  -65.933;  -51.733;    0.000;-14.20000
 854.68;  -77.667;  -58.067;    0.000;-19.60000
 854.93;  -59.067;  -67.667;    0.000; 8.60000
 855.18;  -65.667;  -75.067;    0.000; 9.40000
 855.42;  -56.933;  -65.200;    0.000; 8.26666
 855.67;  -69.533;  -78.733;    0.000; 9.20000
 855.92;  -84.867;  -84.067;    0.000;-0.80000
 856.17;  -65.467;  -70.067;    0.000; 4.60000
 856.42;  -81.200;  -83.333;    0.000; 2.13334
 856.67;  -79.467;  -78.067;    0.000;-1.40000
 856.92;  -84.133;  -57.200;    0.000;-26.93333
 857.17;  -77.467;  -77.533;    0.000; 0.06667
 857.41;  -86.133;  -63.267;    0.000;-22.86666
 857.66;  -55.200;  -79.400;    0.000;24.20000
 857.91;  -66.733;  -71.467;    0.000; 4.73334
 858.16;  -64.800;  -77.667;    0.000;12.86666
 858.41;  -88.467;  -70.933;    0.000;-17.53333
 858.66;  -50.267;  -74.733;    0.000;24.46666
 858.91;  -81.400;  -69.200;    0.000;-12.20000
 859.15;  -63.933;  -71.333;    0.000; 7.40000
 859.40;  -53.667;  -66.400;    0.000;12.73333
 859.65;  -63.667;  -94.733;    0.000;31.06666
 859.90;  -76.200;  -90.867;    0.000;14.66667
 860.15;  -60.533;  -80.400;    0.000;19.86667
 860.40;  -59.867;  -54.200;    0.000;-5.66666
 860.64;  -60.533;  -66.733;    0.000; 6.20000
 860.89;  -81.533;  -67.067;    0.000;-14.46667
 861.14;  -61.400;  -72.067;    0.000;10.66666
 861.39;  -77.733;  -49.200;    0.000;-28.53333
 861.64;  -71.867;  -72.533;    0.000; 0.66666
 861.88;  -54.467;  -59.333;    0.000; 4.86666
 862.13;  -55.133;  -70.733;    0.000;15.59999
 862.38;  -67.867;  -91.467;    0.000;23.60000
 862.63;  -63.067;  -62.533;    0.000;-0.53333
 862.88;  -61.333;  -64.333;    0.000; 3.00000
 863.12;  -43.067;  -64.267;    0.000;21.20000
 863.37;  -77.800;  -82.400;    0.000; 4.60000
 863.62;  -60.267;  -57.933;    0.000;-2.33333
 863.87;  -90.067;  -82.133;    0.000;-7.93333
 864.12;  -56.200;  -63.733;    0.000; 7.53333
 864.36;  -78.733;  -79.067;    0.000; 0.33334
 864.61;  -61.200;  -86.467;    0.000;25.26667
 864.86;  -79.933;  -56.000;    0.000;-23.93333
 865.11;  -56.667;  -72.800;    0.000;16.13334
 865.35;  -62.667;  -53.067;    0.000;-9.60000
 865.60;  -63.133;  -72.200;    0.000; 9.06666
 865.85;  -57.267;  -60.067;    0.000; 2.80000
 866.10;  -67.267;  -57.400;    0.000;-9.86667
 866.34;  -67.533;  -75.667;    0.000; 8.13333
 866.59;  -48.467;  -65.933;    0.000;17.46667
 866.84;  -61.867;  -67.067;    0.000; 5.20000
 867.09;  -48.600;  -69.800;    0.000;21.20000
 867.33;  -83.867;  -77.067;    0.000;-6.80000
 867.58;  -53.933;  -76.667;    0.000;22.73333
 867.83;  -80.133;  -80.067;    0.000;-0.06667
 868.08;  -37.000;  -68.600;    0.000;31.60000
 868.32;  -63.800;  -56.600;    0.000;-7.20000
 868.57;  -69.867;  -70.333;    0.000; 0.46667
 868.82;  -42.067;  -69.800;    0.000;27.73334
 869.07;  -88.133;  -81.400;    0.000;-6.73333
 869.31;  -83.667;  -51.267;    0.000;-32.40000
 869.56;  -74.400;  -78.867;    0.000; 4.46667
 869.81;  -62.733;  -79.467;    0.000;16.73333
 870.05;  -84.067; -100.400;    0.000;16.33334
 870.30;  -53.867;  -63.800;    0.000; 9.93333
 870.55;  -41.267;  -43.133;    0.000; 1.86667
 870.80;  -70.933;  -54.933;    0.000;-16.00000
 871.04;  -55.333;  -60.133;    0.000; 4.80000
 871.29;  -67.400;  -73.333;    0.000; 5.93333
 871.54;  -55.000;  -73.467;    0.000;18.46667
 871.78; -108.667;  -87.800;    0.000;-20.86666
 872.03;  -54.800;  -74.467;    0.000;19.66667
 872.28;  -62.333;  -67.733;    0.000; 5.40000
 872.52;  -56.267;  -69.133;    0.000;12.86666
 872.77;  -65.533;  -90.133;    0.000;24.60000
 873.02;  -63.667;  -83.000;    0.000;19.33333
 873.26;  -69.533;  -74.200;    0.000; 4.66666
 873.51;  -58.467;  -51.200;    0.000;-7.26667
 873.76;  -64.000;  -79.600;    0.000;15.60000
 874.00;  -53.600;  -52.467;    0.000;-1.13333
 874.25;  -82.133;  -77.800;    0.000;-4.33333
 874.50;  -65.000;  -72.200;    0.000; 7.20000
 874.74;  -85.800;  -75.933;    0.000;-9.86667
 874.99;  -80.467;  -64.733;    0.000;-15.73334
 875.24;  -36.067;  -31.867;    0.000;-4.20000
 875.48;  -64.667;  -58.667;    0.000;-6.00000
 875.73;  -73.600;  -79.400;    0.000; 5.80000
 875.98;  -63.200;  -60.000;    0.000;-3.20000
 876.22;  -52.733;  -54.333;    0.000; 1.60000
 876.47;  -52.667;  -67.867;    0.000;15.20000
 876.71;  -70.400;  -64.667;    0.000;-5.73334
 876.96;  -18.867;  -53.800;    0.000;34.93333
 877.21;  -82.133;  -65.067;    0.000;-17.06667
 877.45;  -62.200;  -62.133;    0.000;-0.06667
 877.70;  -27.200;  -58.467;    0.000;31.26667
 877.95;  -43.333;  -52.333;    0.000; 9.00000
 878.19;  -43.800;  -46.933;    0.000; 3.13334
 878.44;  -42.533;  -64.667;    0.000;22.13333
 878.68;  -35.267;  -31.267;    0.000;-4.00000
 878.93;  -44.267;  -42.467;    0.000;-1.80000
 879.18;  -59.800;  -62.267;    0.000; 2.46667
 879.42;  -48.867;  -50.200;    0.000; 1.33334
 879.67;  -81.800;  -94.267;    0.000;12.46667
 879.91;  -44.733;  -61.467;    0.000;16.73333
 880.16;  -51.400;  -52.867;    0.000; 1.46666
 880.40;  -59.667;  -74.333;    0.000;14.66667
 880.65;  -74.133;  -66.000;    0.000;-8.13333
 880.90;  -27.800;  -51.600;    0.000;23.80000
 881.14;  -59.400;  -42.867;    0.000;-16.53334
 881.39;  -48.600;  -67.533;    0.000;18.93333
 881.63;  -55.267;  -57.200;    0.000; 1.93333
 881.88;  -42.800;  -49.200;    0.000; 6.40000
 882.12;  -53.200;  -65.933;    0.000;12.73333
 882.37;  -52.533;  -41.133;    0.000;-11.40000
 882.62;  -74.800;  -60.467;    0.000;-14.33334
 882.86;  -59.933;  -76.867;    0.000;16.93333
 883.11;  -67.933;  -53.667;    0.000;-14.26667
 883.35;  -22.533;  -57.867;    0.000;35.33333
 883.60;  -50.267;  -33.000;    0.000;-17.26667
 883.84;  -37.467;  -66.400;    0.000;28.93333
 884.09;  -62.200;  -54.200;    0.000;-8.00000
 884.33;  -47.133;  -55.733;    0.000; 8.60000
 884.58;  -54.200;  -54.333;    0.000; 0.13333
 884.82;  -42.133;  -53.667;    0.000;11.53333
 885.07;  -55.000;  -45.333;    0.000;-9.66667
 885.31;  -47.733;  -65.933;    0.000;18.20000
 885.56;  -49.867;  -37.133;    0.000;-12.73333
 885.80;  -48.667;  -53.733;    0.000; 5.06667
 886.05;  -64.067;  -78.867;    0.000;14.80000
 886.29;  -36.933;  -48.400;    0.000;11.46667
 886.54;  -59.600;  -59.800;    0.000; 0.20000
 886.78;  -37.000;  -52.133;    0.000;15.13334
 887.03;  -44.400;  -42.867;    0.000;-1.53334
 887.27;  -23.667;  -29.067;    0.000; 5.40000
 887.52;  -59.533;  -80.600;    0.000;21.06667
 887.76;  -45.533;  -53.333;    0.000; 7.80000
 888.01;  -59.200;  -54.533;    0.000;-4.66667
 888.25;  -55.800;  -61.400;    0.000; 5.60000
 888.50;  -62.867;  -41.000;    0.000;-21.86666
 888.74;  -40.933;  -36.133;    0.000;-4.80000
 888.99;  -57.933;  -53.800;    0.000;-4.13334
 889.23;  -23.533;  -45.867;    0.000;22.33333
 889.48;  -37.133;  -61.600;    0.000;24.46666
 889.72;  -35.667;  -33.600;    0.000;-2.06667
 889.97;  -47.400;  -54.000;    0.000; 6.60000
 890.21;  -44.200;  -15.533;    0.000;-28.66667
 890.46;   -3.467;  -26.333;    0.000;22.86667
 890.70;  -22.467;  -35.267;    0.000;12.80000
 890.94;  -13.867;  -38.333;    0.000;24.46667
 891.19;  -41.800;  -42.733;    0.000; 0.93333
 891.43;  -26.200;  -27.400;    0.000; 1.20000
 891.68;   -9.733;  -24.933;    0.000;15.20000
 891.92;  -35.867;  -50.667;    0.000;14.80000
 892.17;  -23.333;  -22.533;    0.000;-0.80000
 892.41;  -34.400;  -34.800;    0.000; 0.40000
 892.66;  -38.867;  -40.933;    0.000; 2.06667
 892.90;  -11.200;  -22.800;    0.000;11.60000
 893.14;  -35.667;  -46.800;    0.000;11.13333
 893.39;  -18.200;  -31.400;    0.000;13.20000
 893.63;  -22.800;  -46.733;    0.000;23.93333
 893.88;  -47.600;  -52.000;    0.000; 4.40000
 894.12;  -24.400;  -34.333;    0.000; 9.93333
 894.36;  -26.267;  -45.533;    0.000;19.26667
 894.61;  -16.267;  -27.067;    0.000;10.80000
 894.85;  -26.600;  -26.333;    0.000;-0.26667
 895.10;  -16.533;  -23.067;    0.000; 6.53333
 895.34;  -29.067;  -28.467;    0.000;-0.60000
 895.58;  -18.667;  -24.667;    0.000; 6.00000
 895.83;  -14.867;  -29.067;    0.000;14.20000
 896.07;  -16.667;  -29.067;    0.000;12.40000
 896.32;    0.333;  -11.267;    0.000;11.60000
 896.56;  -15.267;  -10.333;    0.000;-4.93333
 896.80;  -31.867;  -32.867;    0.000; 1.00000
 897.05;  -24.800;  -32.933;    0.000; 8.13334
 897.29;    1.000;   -2.400;    0.000; 3.40000
 897.53;  -28.200;  -26.400;    0.000;-1.80000
 897.78;  -17.467;   -9.000;    0.000;-8.46667
 898.02;   19.000;    2.333;    0.000;16.66667
 898.26;  -20.933;  -12.600;    0.000;-8.33333
 898.51;   -4.733;  -15.400;    0.000;10.66667
 898.75;  -15.733;   -4.667;    0.000;-11.06667
 898.99;    5.333;   -7.333;    0.000;12.66667
 899.24;   19.533;  -23.533;    0.000;43.06667
 899.48;   23.000;   15.533;    0.000; 7.46667
 899.73;   21.067;   -6.867;    0.000;27.93333
 899.97;   33.333;   36.867;    0.000;-3.53333
 900.21;   31.533;   19.400;    0.000;12.13333
 900.46;    9.467;   21.067;    0.000;-11.60000
 900.70;   51.467;   41.467;    0.000;10.00000
 900.94;   32.067;   35.333;    0.000;-3.26667
 901.18;   18.333;   44.600;    0.000;-26.26666
 901.43;   68.933;   26.000;    0.000;42.93333
 901.67;   55.133;   30.000;    0.000;25.13334
 901.91;   57.867;   49.200;    0.000; 8.66666
 902.16;   67.200;   39.733;    0.000;27.46666
 902.40;   69.400;   84.800;    0.000;-15.40000
 902.64;   53.067;   67.467;    0.000;-14.40000
 902.89;   89.800;   79.867;    0.000; 9.93333
 903.13;  111.467;   84.000;    0.000;27.46667
 903.37;  134.400;  107.200;    0.000;27.20000
 903.61;  134.067;  139.600;    0.000;-5.53334
 903.86;  149.933;  108.733;    0.000;41.20000
 904.10;  148.333;  158.133;    0.000;-9.80000
 904.34;  203.867;  176.000;    0.000;27.86667
 904.59;  194.400;  180.733;    0.000;13.66666
 904.83;  235.400;  248.267;    0.000;-12.86667
 905.07;  254.667;  258.267;    0.000;-3.59999
 905.31;  294.200;  288.067;    0.000; 6.13333
 905.56;  326.933;  317.000;    0.000; 9.93332
 905.80;  379.600;  381.067;    0.000;-1.46667

