point2
Integration time [ms]:  15.000
Averaging Nr. [scans]: 15
Smoothing Nr. [pixels]: 0
Data measured with spectrometer [name]: 1307078U2
Wave   ;Sample   ;Dark     ;Reference;Scope Corrected for Dark
[nm]   ;[counts] ;[counts] ;[counts] 

 351.07;   21.333;  -29.133;    0.000;50.46667
 351.37;  -13.867;    1.067;    0.000;-14.93333
 351.66;    8.533;    0.600;    0.000; 7.93333
 351.95;  -19.933;   -9.067;    0.000;-10.86667
 352.24;   12.733;  -24.533;    0.000;37.26667
 352.54;  -12.667;    3.533;    0.000;-16.20000
 352.83;   -1.267;  -17.533;    0.000;16.26667
 353.12;   15.733;    2.067;    0.000;13.66667
 353.42;   -6.267;  -14.733;    0.000; 8.46667
 353.71;   -8.400;  -14.600;    0.000; 6.20000
 354.00;    8.667;  -14.667;    0.000;23.33333
 354.30;   -6.400;   -3.533;    0.000;-2.86667
 354.59;   10.800;  -31.933;    0.000;42.73333
 354.88;   18.267;  -11.267;    0.000;29.53333
 355.17;   -4.133;  -30.667;    0.000;26.53333
 355.47;   -7.333;   -7.667;    0.000; 0.33333
 355.76;    9.600;   -6.800;    0.000;16.40000
 356.05;   24.267;    8.733;    0.000;15.53333
 356.35;   -2.000;  -20.467;    0.000;18.46667
 356.64;    8.800;   18.200;    0.000;-9.40000
 356.93;    9.400;  -14.200;    0.000;23.60000
 357.22;   20.267;   14.600;    0.000; 5.66667
 357.52;    6.800;  -25.533;    0.000;32.33333
 357.81;   10.667;   19.667;    0.000;-9.00000
 358.10;    2.867;  -13.467;    0.000;16.33333
 358.39;    8.800;    2.600;    0.000; 6.20000
 358.69;    5.267;    0.200;    0.000; 5.06667
 358.98;   -6.200;   -2.267;    0.000;-3.93333
 359.27;    0.000;  -23.733;    0.000;23.73333
 359.57;    5.467;    9.133;    0.000;-3.66667
 359.86;   -5.867;    0.200;    0.000;-6.06667
 360.15;   15.333;   13.867;    0.000; 1.46667
 360.44;    0.267;  -12.000;    0.000;12.26667
 360.74;   13.800;   -1.733;    0.000;15.53333
 361.03;    6.933;  -25.667;    0.000;32.60000
 361.32;    8.067;    3.800;    0.000; 4.26667
 361.61;  -11.733;  -37.733;    0.000;26.00000
 361.91;   18.467;   17.600;    0.000; 0.86667
 362.20;    1.733;  -21.600;    0.000;23.33333
 362.49;   -2.200;    3.800;    0.000;-6.00000
 362.78;   19.467;   -3.933;    0.000;23.40000
 363.08;    0.733;    8.067;    0.000;-7.33333
 363.37;    4.067;  -13.667;    0.000;17.73333
 363.66;   -4.867;   27.333;    0.000;-32.20000
 363.95;   -6.667;  -36.733;    0.000;30.06667
 364.24;   26.400;    6.000;    0.000;20.40000
 364.54;   -0.733;  -14.400;    0.000;13.66667
 364.83;  -32.200;   11.867;    0.000;-44.06667
 365.12;   -2.867;  -19.000;    0.000;16.13333
 365.41;   10.067;   29.200;    0.000;-19.13333
 365.71;  -16.133;  -17.333;    0.000; 1.20000
 366.00;   14.000;   -8.267;    0.000;22.26667
 366.29;   -8.333;  -24.133;    0.000;15.80000
 366.58;   17.533;   -8.533;    0.000;26.06667
 366.87;   21.200;   -6.267;    0.000;27.46667
 367.17;    7.333;    1.133;    0.000; 6.20000
 367.46;   -4.933;  -21.333;    0.000;16.40000
 367.75;   -6.533;    6.333;    0.000;-12.86667
 368.04;  -22.333;  -16.200;    0.000;-6.13333
 368.34;    0.667;    3.000;    0.000;-2.33333
 368.63;  -11.133;  -20.667;    0.000; 9.53333
 368.92;   21.600;    2.067;    0.000;19.53333
 369.21;   16.467;    3.067;    0.000;13.40000
 369.50;   23.200;    7.933;    0.000;15.26667
 369.80;    4.533;  -15.400;    0.000;19.93333
 370.09;    7.200;    5.533;    0.000; 1.66667
 370.38;   -5.400;  -22.867;    0.000;17.46667
 370.67;   -5.733;   -5.000;    0.000;-0.73333
 370.96;   -0.133;  -14.067;    0.000;13.93333
 371.26;   -1.467;   -6.867;    0.000; 5.40000
 371.55;    5.667;  -33.467;    0.000;39.13333
 371.84;    6.067;   -8.267;    0.000;14.33333
 372.13;   13.933;   -8.733;    0.000;22.66667
 372.42;   -6.533;   -8.733;    0.000; 2.20000
 372.71;   14.800;   -1.800;    0.000;16.60000
 373.01;  -14.133;   -5.733;    0.000;-8.40000
 373.30;  -12.667;  -22.067;    0.000; 9.40000
 373.59;  -10.000;   -5.400;    0.000;-4.60000
 373.88;   -0.600;  -15.667;    0.000;15.06667
 374.17;    1.400;   23.400;    0.000;-22.00000
 374.46;  -11.933;  -22.067;    0.000;10.13333
 374.76;   -5.667;  -10.733;    0.000; 5.06667
 375.05;   25.267;   -3.067;    0.000;28.33333
 375.34;    7.333;  -14.933;    0.000;22.26667
 375.63;    7.800;  -17.200;    0.000;25.00000
 375.92;    3.467;   -1.800;    0.000; 5.26667
 376.21;    7.467;  -28.200;    0.000;35.66667
 376.51;   -4.667;  -18.867;    0.000;14.20000
 376.80;   -2.333;  -29.133;    0.000;26.80000
 377.09;  -19.400;   11.733;    0.000;-31.13333
 377.38;  -13.867;  -10.067;    0.000;-3.80000
 377.67;  -11.067;   -1.600;    0.000;-9.46667
 377.96;    1.133;  -24.000;    0.000;25.13333
 378.25;  -10.533;   11.667;    0.000;-22.20000
 378.55;   18.067;  -23.133;    0.000;41.20000
 378.84;    9.733;   -4.067;    0.000;13.80000
 379.13;   -8.867;  -22.667;    0.000;13.80000
 379.42;    7.867;   -7.267;    0.000;15.13333
 379.71;  -15.467;  -18.733;    0.000; 3.26667
 380.00;   10.067;   23.467;    0.000;-13.40000
 380.29;    3.267;  -15.733;    0.000;19.00000
 380.59;   -4.000;    2.133;    0.000;-6.13333
 380.88;    9.800;  -13.667;    0.000;23.46667
 381.17;  -31.000;   -5.333;    0.000;-25.66667
 381.46;   -0.800;   -2.133;    0.000; 1.33333
 381.75;   16.000;   -5.133;    0.000;21.13333
 382.04;   -8.533;  -12.533;    0.000; 4.00000
 382.33;   17.600;   14.600;    0.000; 3.00000
 382.62;    3.600;  -32.133;    0.000;35.73334
 382.91;   16.533;    5.533;    0.000;11.00000
 383.21;    1.267;  -28.600;    0.000;29.86667
 383.50;    9.733;  -18.067;    0.000;27.80000
 383.79;   11.867;  -37.533;    0.000;49.40000
 384.08;  -10.800;    0.200;    0.000;-11.00000
 384.37;  -11.733;  -32.467;    0.000;20.73333
 384.66;   -5.667;   -4.933;    0.000;-0.73333
 384.95;  -11.133;  -25.867;    0.000;14.73333
 385.24;  -22.933;  -17.400;    0.000;-5.53333
 385.53;    5.533;   -4.800;    0.000;10.33333
 385.83;   -5.067;  -14.267;    0.000; 9.20000
 386.12;   -6.933;  -13.133;    0.000; 6.20000
 386.41;   10.733;   -7.067;    0.000;17.80000
 386.70;    6.067;  -28.267;    0.000;34.33333
 386.99;   -0.467;    9.667;    0.000;-10.13333
 387.28;    9.200;  -11.200;    0.000;20.40000
 387.57;    0.733;   -1.200;    0.000; 1.93333
 387.86;  -28.933;  -29.667;    0.000; 0.73333
 388.15;   -8.933;   10.667;    0.000;-19.60000
 388.44;   -9.133;  -33.933;    0.000;24.80000
 388.73;  -18.733;   -3.800;    0.000;-14.93333
 389.02;    2.133;  -29.867;    0.000;32.00000
 389.31;   12.333;   -3.400;    0.000;15.73333
 389.61;    6.867;  -22.600;    0.000;29.46667
 389.90;    6.467;    3.400;    0.000; 3.06667
 390.19;  -10.000;  -35.000;    0.000;25.00000
 390.48;   -5.067;   -6.267;    0.000; 1.20000
 390.77;   -0.533;  -17.533;    0.000;17.00000
 391.06;   -2.133;  -17.667;    0.000;15.53333
 391.35;   -9.000;  -27.867;    0.000;18.86667
 391.64;   -1.000;   13.733;    0.000;-14.73333
 391.93;  -25.333;  -24.467;    0.000;-0.86667
 392.22;    0.533;    0.933;    0.000;-0.40000
 392.51;   10.400;  -20.600;    0.000;31.00000
 392.80;    1.933;   10.667;    0.000;-8.73333
 393.09;   -9.000;  -39.000;    0.000;30.00000
 393.38;   -8.400;    2.133;    0.000;-10.53333
 393.67;    4.200;  -34.333;    0.000;38.53333
 393.96;   10.067;    4.000;    0.000; 6.06667
 394.25;    1.267;  -19.800;    0.000;21.06667
 394.54;  -10.467;  -12.933;    0.000; 2.46667
 394.83;    0.000;  -25.867;    0.000;25.86667
 395.13;  -15.067;  -10.267;    0.000;-4.80000
 395.42;   -3.867;  -30.600;    0.000;26.73333
 395.71;   -7.667;   -1.467;    0.000;-6.20000
 396.00;    0.400;  -35.267;    0.000;35.66667
 396.29;   10.800;   -3.133;    0.000;13.93333
 396.58;    2.467;  -35.533;    0.000;38.00000
 396.87;   -4.133;   -0.733;    0.000;-3.40000
 397.16;    1.267;  -18.733;    0.000;20.00000
 397.45;   15.667;   -3.067;    0.000;18.73333
 397.74;   -2.333;  -38.600;    0.000;36.26667
 398.03;    1.067;  -15.000;    0.000;16.06667
 398.32;   -6.667;  -30.333;    0.000;23.66667
 398.61;    1.067;   -2.000;    0.000; 3.06667
 398.90;   10.733;  -14.800;    0.000;25.53333
 399.19;   11.067;    7.667;    0.000; 3.40000
 399.48;   -5.400;  -27.867;    0.000;22.46667
 399.77;   -0.200;    8.600;    0.000;-8.80000
 400.06;    8.533;  -19.867;    0.000;28.40000
 400.35;  -19.533;   -2.067;    0.000;-17.46667
 400.64;   -7.000;  -49.067;    0.000;42.06667
 400.93;    2.467;    5.800;    0.000;-3.33333
 401.22;  -19.533;  -34.600;    0.000;15.06667
 401.51;   12.667;    3.267;    0.000; 9.40000
 401.80;  -14.600;  -19.067;    0.000; 4.46667
 402.09;    2.267;  -19.067;    0.000;21.33333
 402.38;    9.067;  -10.800;    0.000;19.86667
 402.67;    7.400;   -3.333;    0.000;10.73333
 402.96;   -7.467;  -16.533;    0.000; 9.06667
 403.25;   12.333;    7.200;    0.000; 5.13333
 403.54;    6.867;  -19.133;    0.000;26.00000
 403.83;   -6.733;    2.200;    0.000;-8.93333
 404.12;  -22.333;  -28.600;    0.000; 6.26667
 404.41;    2.800;    0.400;    0.000; 2.40000
 404.70;  -19.133;  -39.333;    0.000;20.20000
 404.98;    5.600;    3.400;    0.000; 2.20000
 405.27;  -12.067;  -12.533;    0.000; 0.46667
 405.56;   -5.533;    4.667;    0.000;-10.20000
 405.85;  -14.600;  -31.267;    0.000;16.66667
 406.14;    1.000;   -6.467;    0.000; 7.46667
 406.43;  -13.733;   -8.000;    0.000;-5.73333
 406.72;    0.200;   -2.600;    0.000; 2.80000
 407.01;   -1.867;  -38.133;    0.000;36.26667
 407.30;   -4.667;  -13.133;    0.000; 8.46667
 407.59;    4.933;  -12.467;    0.000;17.40000
 407.88;   10.533;   -3.800;    0.000;14.33333
 408.17;   -5.333;  -12.267;    0.000; 6.93333
 408.46;    2.533;  -19.533;    0.000;22.06667
 408.75;   11.867;  -28.133;    0.000;40.00000
 409.04;   -5.267;    0.800;    0.000;-6.06667
 409.33;   -7.867;  -27.933;    0.000;20.06667
 409.62;   -7.200;   11.733;    0.000;-18.93333
 409.91;  -15.733;  -25.467;    0.000; 9.73333
 410.20;   -4.933;  -17.933;    0.000;13.00000
 410.48;   18.400;  -15.333;    0.000;33.73333
 410.77;   -3.200;  -21.533;    0.000;18.33333
 411.06;    6.800;   -5.600;    0.000;12.40000
 411.35;   22.400;    8.667;    0.000;13.73333
 411.64;  -14.333;  -21.933;    0.000; 7.60000
 411.93;    1.800;   -8.133;    0.000; 9.93333
 412.22;   -9.667;  -27.267;    0.000;17.60000
 412.51;  -21.400;   -9.133;    0.000;-12.26667
 412.80;   -7.800;  -15.533;    0.000; 7.73333
 413.09;   -4.467;   -8.000;    0.000; 3.53333
 413.38;    2.600;  -26.400;    0.000;29.00000
 413.67;  -18.600;   -9.533;    0.000;-9.06667
 413.96;  -11.933;  -33.000;    0.000;21.06667
 414.24;   -7.400;   11.133;    0.000;-18.53333
 414.53;  -11.467;   -7.867;    0.000;-3.60000
 414.82;  -21.933;  -10.400;    0.000;-11.53333
 415.11;    6.933;  -13.333;    0.000;20.26667
 415.40;   -3.200;   -9.867;    0.000; 6.66667
 415.69;    3.467;  -31.933;    0.000;35.40000
 415.98;   -1.933;   -4.667;    0.000; 2.73333
 416.27;  -17.400;  -43.133;    0.000;25.73334
 416.56;   -7.800;   -9.200;    0.000; 1.40000
 416.84;   -4.267;   -8.467;    0.000; 4.20000
 417.13;  -13.133;   -9.800;    0.000;-3.33333
 417.42;   14.667;  -14.133;    0.000;28.80000
 417.71;  -18.600;    2.667;    0.000;-21.26667
 418.00;   11.133;  -34.200;    0.000;45.33333
 418.29;  -12.000;  -18.667;    0.000; 6.66667
 418.58;   -1.267;  -45.200;    0.000;43.93333
 418.87;   -9.800;  -16.000;    0.000; 6.20000
 419.15;   -7.467;  -22.800;    0.000;15.33333
 419.44;  -11.800;    8.867;    0.000;-20.66667
 419.73;  -32.533;  -14.267;    0.000;-18.26667
 420.02;    0.600;   -5.867;    0.000; 6.46667
 420.31;   -2.533;  -38.000;    0.000;35.46667
 420.60;   10.733;  -26.067;    0.000;36.80000
 420.89;   -1.000;  -36.400;    0.000;35.40000
 421.18;    2.867;    6.067;    0.000;-3.20000
 421.46;  -15.800;    0.000;    0.000;-15.80000
 421.75;   -5.267;    3.867;    0.000;-9.13333
 422.04;  -22.333;  -33.600;    0.000;11.26666
 422.33;   30.133;   -1.200;    0.000;31.33333
 422.62;    8.733;  -26.933;    0.000;35.66667
 422.91;  -25.333;    0.733;    0.000;-26.06667
 423.19;  -18.867;  -30.133;    0.000;11.26667
 423.48;   -0.333;   16.667;    0.000;-17.00000
 423.77;   -4.867;  -31.933;    0.000;27.06667
 424.06;  -32.667;  -14.200;    0.000;-18.46667
 424.35;   -5.467;  -41.267;    0.000;35.80000
 424.64;   11.267;    9.200;    0.000; 2.06667
 424.93;  -26.800;  -30.733;    0.000; 3.93333
 425.21;   -3.400;   -9.000;    0.000; 5.60000
 425.50;    8.400;  -35.667;    0.000;44.06667
 425.79;   -5.933;  -13.133;    0.000; 7.20000
 426.08;   -5.933;  -21.400;    0.000;15.46667
 426.37;  -29.733;    6.933;    0.000;-36.66667
 426.65;    4.467;  -43.467;    0.000;47.93333
 426.94;   -2.267;  -15.533;    0.000;13.26667
 427.23;  -16.533;  -31.400;    0.000;14.86667
 427.52;   -8.133;  -20.733;    0.000;12.60000
 427.81;  -20.400;  -27.333;    0.000; 6.93333
 428.10;   -3.133;  -21.467;    0.000;18.33333
 428.38;    2.800;  -49.067;    0.000;51.86667
 428.67;   -8.000;   -3.200;    0.000;-4.80000
 428.96;  -16.267;  -40.733;    0.000;24.46667
 429.25;  -15.600;   -4.867;    0.000;-10.73333
 429.54;  -13.000;  -35.133;    0.000;22.13334
 429.82;  -12.067;    9.067;    0.000;-21.13333
 430.11;   -1.000;  -15.400;    0.000;14.40000
 430.40;    9.467;  -13.667;    0.000;23.13333
 430.69;   15.800;  -31.467;    0.000;47.26667
 430.98;   -2.200;   -4.067;    0.000; 1.86667
 431.26;  -11.467;  -21.933;    0.000;10.46667
 431.55;    2.533;   -2.133;    0.000; 4.66667
 431.84;  -19.667;  -38.400;    0.000;18.73334
 432.13;   -1.067;  -14.667;    0.000;13.60000
 432.41;  -27.733;  -19.000;    0.000;-8.73333
 432.70;    4.333;   -2.200;    0.000; 6.53333
 432.99;  -15.200;  -10.533;    0.000;-4.66667
 433.28;   -2.133;  -12.267;    0.000;10.13333
 433.57;    4.667;  -16.933;    0.000;21.60000
 433.85;    0.133;  -11.933;    0.000;12.06667
 434.14;    3.200;  -49.200;    0.000;52.40000
 434.43;   -3.867;    5.933;    0.000;-9.80000
 434.72;  -12.667;   -8.533;    0.000;-4.13333
 435.00;   -8.467;  -30.667;    0.000;22.20000
 435.29;    4.067;  -29.733;    0.000;33.80000
 435.58;    8.733;  -17.267;    0.000;26.00000
 435.87;   14.600;  -31.200;    0.000;45.80000
 436.15;  -18.933;  -13.267;    0.000;-5.66667
 436.44;  -11.667;  -35.267;    0.000;23.60000
 436.73;   10.133;  -11.867;    0.000;22.00000
 437.02;  -12.933;  -26.600;    0.000;13.66667
 437.30;   -7.933;  -12.933;    0.000; 5.00000
 437.59;  -16.933;  -34.200;    0.000;17.26667
 437.88;   -2.133;  -14.800;    0.000;12.66667
 438.17;   -6.267;  -34.800;    0.000;28.53333
 438.45;  -11.533;  -25.533;    0.000;14.00000
 438.74;   -6.000;  -37.333;    0.000;31.33333
 439.03;   -7.533;   -9.000;    0.000; 1.46667
 439.32;  -19.600;  -40.200;    0.000;20.60000
 439.60;   -7.667;    0.600;    0.000;-8.26667
 439.89;  -10.600;  -30.400;    0.000;19.80000
 440.18;  -15.667;  -15.133;    0.000;-0.53333
 440.46;  -25.333;  -37.133;    0.000;11.80000
 440.75;    9.000;  -18.200;    0.000;27.20000
 441.04;  -21.067;  -47.333;    0.000;26.26666
 441.33;   -9.733;   -1.600;    0.000;-8.13333
 441.61;   -8.867;  -30.800;    0.000;21.93333
 441.90;   12.400;    0.333;    0.000;12.06667
 442.19;  -33.867;  -26.067;    0.000;-7.80000
 442.47;   -8.533;  -19.800;    0.000;11.26667
 442.76;  -11.333;  -40.067;    0.000;28.73333
 443.05;  -19.333;  -11.600;    0.000;-7.73333
 443.34;  -35.200;  -25.800;    0.000;-9.40000
 443.62;   -9.800;  -20.733;    0.000;10.93333
 443.91;   -7.333;  -45.600;    0.000;38.26666
 444.20;    5.000;   28.600;    0.000;-23.60000
 444.48;  -23.000;  -50.467;    0.000;27.46667
 444.77;    4.933;    9.067;    0.000;-4.13333
 445.06;  -18.533;  -16.600;    0.000;-1.93333
 445.34;  -24.000;  -20.467;    0.000;-3.53333
 445.63;   -5.000;  -28.467;    0.000;23.46667
 445.92;    6.667;   21.933;    0.000;-15.26667
 446.21;   -6.667;  -36.000;    0.000;29.33333
 446.49;  -14.000;  -10.133;    0.000;-3.86667
 446.78;    9.000;  -23.533;    0.000;32.53333
 447.07;  -17.933;   -4.600;    0.000;-13.33333
 447.35;   -4.733;  -38.933;    0.000;34.20000
 447.64;    3.800;   -6.467;    0.000;10.26667
 447.93;    2.667;  -31.867;    0.000;34.53333
 448.21;  -13.533;  -11.800;    0.000;-1.73333
 448.50;    2.800;  -16.133;    0.000;18.93333
 448.79;  -10.800;  -11.400;    0.000; 0.60000
 449.07;   -0.533;  -51.800;    0.000;51.26667
 449.36;  -21.000;   -0.067;    0.000;-20.93333
 449.65;  -18.533;  -49.800;    0.000;31.26667
 449.93;  -13.867;   -6.133;    0.000;-7.73333
 450.22;  -14.000;  -22.867;    0.000; 8.86667
 450.51;   -3.333;  -22.133;    0.000;18.80000
 450.79;   -6.267;  -24.067;    0.000;17.80000
 451.08;  -16.333;  -11.333;    0.000;-5.00000
 451.36;   -7.533;  -27.000;    0.000;19.46667
 451.65;  -12.133;   -0.133;    0.000;-12.00000
 451.94;   -5.533;  -21.467;    0.000;15.93333
 452.22;  -10.067;   -5.333;    0.000;-4.73333
 452.51;   17.600;  -38.133;    0.000;55.73334
 452.80;   -6.400;  -20.200;    0.000;13.80000
 453.08;   -9.133;  -54.067;    0.000;44.93333
 453.37;  -13.867;   -1.533;    0.000;-12.33333
 453.66;    4.600;  -67.267;    0.000;71.86667
 453.94;   -1.400;  -21.067;    0.000;19.66667
 454.23;  -13.267;  -33.467;    0.000;20.20000
 454.51;   -1.400;    8.600;    0.000;-10.00000
 454.80;  -35.800;  -50.133;    0.000;14.33334
 455.09;  -25.133;   15.533;    0.000;-40.66667
 455.37;    3.133;   -7.933;    0.000;11.06667
 455.66;   -9.867;   -8.600;    0.000;-1.26667
 455.95;  -12.533;  -15.533;    0.000; 3.00000
 456.23;   -4.867;   10.200;    0.000;-15.06667
 456.52;  -33.133;  -37.800;    0.000; 4.66666
 456.80;  -15.800;  -12.200;    0.000;-3.60000
 457.09;   -8.533;  -37.600;    0.000;29.06666
 457.38;   15.333;    0.867;    0.000;14.46667
 457.66;   -7.800;  -18.533;    0.000;10.73333
 457.95;  -30.067;  -27.000;    0.000;-3.06667
 458.23;   -9.067;  -14.467;    0.000; 5.40000
 458.52;   -8.733;   -5.533;    0.000;-3.20000
 458.81;  -20.667;  -48.600;    0.000;27.93333
 459.09;  -15.467;  -25.133;    0.000; 9.66667
 459.38;  -41.867;  -52.800;    0.000;10.93333
 459.66;   -1.000;  -11.000;    0.000;10.00000
 459.95;   -3.267;  -29.667;    0.000;26.40000
 460.23;    7.000;  -21.533;    0.000;28.53333
 460.52;  -13.667;  -24.267;    0.000;10.60000
 460.81;  -17.000;  -10.933;    0.000;-6.06667
 461.09;   -9.067;  -37.400;    0.000;28.33333
 461.38;   -8.067;   -1.000;    0.000;-7.06667
 461.66;  -15.733;  -58.200;    0.000;42.46667
 461.95;  -16.933;  -16.600;    0.000;-0.33333
 462.23;   -5.800;  -34.200;    0.000;28.40000
 462.52;  -36.867;  -23.733;    0.000;-13.13333
 462.81;  -14.067;  -35.667;    0.000;21.60000
 463.09;   -4.000;  -16.800;    0.000;12.80000
 463.38;  -16.067;  -35.467;    0.000;19.40000
 463.66;  -12.667;  -15.867;    0.000; 3.20000
 463.95;   -1.200;  -25.867;    0.000;24.66667
 464.23;  -24.267;  -15.133;    0.000;-9.13333
 464.52;    2.667;  -41.800;    0.000;44.46667
 464.80;   -3.133;  -23.533;    0.000;20.40000
 465.09;   -8.600;  -14.600;    0.000; 6.00000
 465.38;  -30.733;   -2.000;    0.000;-28.73333
 465.66;   -2.067;  -27.867;    0.000;25.80000
 465.95;  -15.067;  -12.000;    0.000;-3.06667
 466.23;  -22.333;  -42.333;    0.000;20.00000
 466.52;  -24.933;  -17.533;    0.000;-7.40000
 466.80;    1.867;  -23.333;    0.000;25.20000
 467.09;  -17.000;   -3.533;    0.000;-13.46667
 467.37;  -11.000;  -23.133;    0.000;12.13333
 467.66;    0.067;    7.667;    0.000;-7.60000
 467.94;    2.733;  -44.267;    0.000;47.00000
 468.23;   -5.533;   -7.067;    0.000; 1.53333
 468.51;   -9.067;  -33.800;    0.000;24.73333
 468.80;    6.133;  -24.067;    0.000;30.20000
 469.08;   -2.200;  -10.333;    0.000; 8.13333
 469.37;   -8.267;    5.667;    0.000;-13.93333
 469.66;    3.467;  -22.067;    0.000;25.53333
 469.94;  -19.867;  -14.600;    0.000;-5.26667
 470.23;  -25.333;  -33.000;    0.000; 7.66667
 470.51;  -33.600;  -16.467;    0.000;-17.13333
 470.80;   -6.267;  -18.667;    0.000;12.40000
 471.08;    2.800;  -21.800;    0.000;24.60000
 471.37;  -11.667;  -29.533;    0.000;17.86667
 471.65;   -2.400;   -6.467;    0.000; 4.06667
 471.94;  -19.733;  -39.867;    0.000;20.13333
 472.22;  -25.200;  -11.800;    0.000;-13.40000
 472.51;    8.800;  -34.800;    0.000;43.60000
 472.79;  -24.400;   -6.467;    0.000;-17.93333
 473.08;  -30.800;  -17.400;    0.000;-13.40000
 473.36;    6.733;   -0.533;    0.000; 7.26667
 473.64;   -7.800;  -38.467;    0.000;30.66667
 473.93;  -27.733;  -20.333;    0.000;-7.40000
 474.21;  -37.067;  -18.533;    0.000;-18.53333
 474.50;   -3.933;  -18.067;    0.000;14.13333
 474.78;   28.067;  -17.533;    0.000;45.60000
 475.07;  -28.000;  -25.133;    0.000;-2.86667
 475.35;   -7.333;  -41.067;    0.000;33.73333
 475.64;  -19.000;  -20.400;    0.000; 1.40000
 475.92;   16.267;  -35.400;    0.000;51.66667
 476.21;  -12.800;    2.000;    0.000;-14.80000
 476.49;   -6.533;  -26.867;    0.000;20.33333
 476.78;  -12.067;  -28.933;    0.000;16.86667
 477.06;    4.000;  -32.667;    0.000;36.66667
 477.35;   15.933;   -5.733;    0.000;21.66667
 477.63;  -14.067;  -30.200;    0.000;16.13333
 477.91;  -25.400;  -15.400;    0.000;-10.00000
 478.20;  -16.933;  -38.667;    0.000;21.73334
 478.48;   25.333;   18.533;    0.000; 6.80000
 478.77;    5.733;  -20.667;    0.000;26.40000
 479.05;   -4.200;  -27.000;    0.000;22.80000
 479.34;    2.400;  -30.333;    0.000;32.73333
 479.62;  -24.933;  -23.867;    0.000;-1.06667
 479.91;  -16.067;  -36.733;    0.000;20.66667
 480.19;    5.400;   -6.800;    0.000;12.20000
 480.47;   -3.533;  -44.333;    0.000;40.80000
 480.76;  -15.133;  -15.067;    0.000;-0.06667
 481.04;   -1.400;  -25.267;    0.000;23.86667
 481.33;   12.467;  -12.600;    0.000;25.06667
 481.61;   -1.533;  -30.133;    0.000;28.60000
 481.90;    7.000;  -34.733;    0.000;41.73333
 482.18;   -3.733;  -37.800;    0.000;34.06667
 482.46;   -8.067;   -4.533;    0.000;-3.53333
 482.75;   -0.600;  -51.333;    0.000;50.73333
 483.03;  -36.533;   -4.867;    0.000;-31.66667
 483.32;  -15.067;  -40.467;    0.000;25.40000
 483.60;   -1.600;  -12.733;    0.000;11.13333
 483.88;  -15.867;  -46.133;    0.000;30.26667
 484.17;  -10.000;  -14.600;    0.000; 4.60000
 484.45;  -19.267;  -25.800;    0.000; 6.53333
 484.74;   -2.000;  -28.467;    0.000;26.46667
 485.02;   -4.333;  -37.200;    0.000;32.86667
 485.30;    6.933;  -33.267;    0.000;40.20000
 485.59;   -0.533;  -37.467;    0.000;36.93333
 485.87;   -5.667;  -13.333;    0.000; 7.66667
 486.16;    5.600;  -40.867;    0.000;46.46666
 486.44;   10.000;  -25.933;    0.000;35.93333
 486.72;  -27.133;  -63.467;    0.000;36.33333
 487.01;   -8.200;  -25.133;    0.000;16.93333
 487.29;    7.867;  -32.000;    0.000;39.86667
 487.58;    7.667;  -16.400;    0.000;24.06667
 487.86;   10.000;  -35.400;    0.000;45.40000
 488.14;    6.200;   -8.667;    0.000;14.86667
 488.43;   12.067;  -43.267;    0.000;55.33333
 488.71;   10.200;  -17.600;    0.000;27.80000
 488.99;   19.333;  -47.200;    0.000;66.53333
 489.28;    6.467;  -23.067;    0.000;29.53333
 489.56;   22.867;  -36.000;    0.000;58.86667
 489.85;   11.600;   -8.200;    0.000;19.80000
 490.13;   41.067;  -22.933;    0.000;64.00000
 490.41;   39.533;  -10.933;    0.000;50.46667
 490.70;   46.600;  -38.600;    0.000;85.20000
 490.98;   31.667;  -19.267;    0.000;50.93333
 491.26;   73.933;  -46.533;    0.000;120.46667
 491.55;   69.733;  -30.933;    0.000;100.66666
 491.83;   88.667;  -39.600;    0.000;128.26666
 492.11;   95.000;  -21.733;    0.000;116.73333
 492.40;   84.267;  -46.600;    0.000;130.86667
 492.68;  120.733;  -16.200;    0.000;136.93333
 492.96;  120.667;  -48.733;    0.000;169.40000
 493.25;  143.867;   -2.267;    0.000;146.13334
 493.53;  140.133;  -41.467;    0.000;181.60000
 493.81;  177.000;  -20.133;    0.000;197.13333
 494.10;  189.400;  -28.067;    0.000;217.46666
 494.38;  210.400;  -11.867;    0.000;222.26666
 494.66;  229.867;  -52.267;    0.000;282.13334
 494.95;  248.800;  -23.933;    0.000;272.73334
 495.23;  288.200;  -46.600;    0.000;334.80001
 495.51;  307.400;   -5.933;    0.000;313.33333
 495.80;  342.800;  -45.667;    0.000;388.46666
 496.08;  365.533;  -10.467;    0.000;375.99999
 496.36;  429.000;  -39.533;    0.000;468.53333
 496.65;  421.267;  -27.333;    0.000;448.60000
 496.93;  482.200;  -31.800;    0.000;514.00001
 497.21;  512.533;  -12.600;    0.000;525.13333
 497.50;  577.200;  -34.600;    0.000;611.80001
 497.78;  590.933;  -14.733;    0.000;605.66668
 498.06;  621.800;  -47.200;    0.000;668.99999
 498.34;  669.933;  -15.067;    0.000;685.00002
 498.63;  725.333;  -46.800;    0.000;772.13331
 498.91;  779.733;  -19.133;    0.000;798.86667
 499.19;  843.800;  -43.333;    0.000;887.13332
 499.48;  856.867;  -10.867;    0.000;867.73330
 499.76;  933.133;  -41.333;    0.000;974.46669
 500.04;  987.467;   -9.800;    0.000;997.26667
 500.32; 1077.133;  -50.933;    0.000;1128.06664
 500.61; 1105.000;  -26.000;    0.000;1131.00000
 500.89; 1165.933;  -35.667;    0.000;1201.60002
 501.17; 1239.600;  -37.467;    0.000;1277.06664
 501.46; 1351.667;  -40.267;    0.000;1391.93329
 501.74; 1403.867;  -33.667;    0.000;1437.53337
 502.02; 1475.067;  -26.067;    0.000;1501.13332
 502.30; 1512.733;   -8.267;    0.000;1520.99994
 502.59; 1598.133;  -45.133;    0.000;1643.26664
 502.87; 1678.400;  -16.733;    0.000;1695.13336
 503.15; 1764.933;  -35.667;    0.000;1800.60002
 503.43; 1821.067;  -13.867;    0.000;1834.93332
 503.72; 1928.600;  -46.800;    0.000;1975.39997
 504.00; 2055.467;   -8.800;    0.000;2064.26655
 504.28; 2083.933;  -46.933;    0.000;2130.86668
 504.56; 2214.533;  -38.733;    0.000;2253.26678
 504.85; 2318.933;  -24.933;    0.000;2343.86668
 505.13; 2392.000;  -16.867;    0.000;2408.86667
 505.41; 2490.533;  -55.000;    0.000;2545.53345
 505.69; 2604.533;  -23.800;    0.000;2628.33345
 505.98; 2678.867;  -37.600;    0.000;2716.46670
 506.26; 2791.733;   -1.667;    0.000;2793.40007
 506.54; 2909.467;  -51.333;    0.000;2960.79988
 506.82; 3037.533;  -26.267;    0.000;3063.80011
 507.11; 3125.533;  -26.867;    0.000;3152.40011
 507.39; 3269.333;  -35.067;    0.000;3304.39992
 507.67; 3334.667;  -47.133;    0.000;3381.80008
 507.95; 3422.267;  -28.133;    0.000;3450.39993
 508.23; 3570.533;  -30.533;    0.000;3601.06678
 508.52; 3682.867;  -11.333;    0.000;3694.20003
 508.80; 3799.600;  -49.533;    0.000;3849.13343
 509.08; 3893.133;  -14.400;    0.000;3907.53330
 509.36; 3977.400;  -44.800;    0.000;4022.19990
 509.65; 4196.200;  -26.333;    0.000;4222.53353
 509.93; 4241.533;  -62.000;    0.000;4303.53320
 510.21; 4411.000;  -14.600;    0.000;4425.60000
 510.49; 4462.467;  -29.000;    0.000;4491.46680
 510.77; 4573.067;  -16.067;    0.000;4589.13356
 511.06; 4700.533;  -60.467;    0.000;4760.99987
 511.34; 4830.267;  -31.800;    0.000;4862.06660
 511.62; 4979.600;  -38.867;    0.000;5018.46676
 511.90; 5078.867;  -27.133;    0.000;5106.00003
 512.18; 5202.867;  -30.000;    0.000;5232.86670
 512.47; 5338.067;   -4.267;    0.000;5342.33356
 512.75; 5479.867;  -59.467;    0.000;5539.33337
 513.03; 5568.333;  -38.400;    0.000;5606.73350
 513.31; 5689.000;  -34.467;    0.000;5723.46667
 513.59; 5749.000;  -14.400;    0.000;5763.40000
 513.87; 5870.867;  -49.867;    0.000;5920.73336
 514.16; 6086.133;   -6.733;    0.000;6092.86663
 514.44; 6144.667;  -26.867;    0.000;6171.53317
 514.72; 6238.400;  -22.600;    0.000;6260.99990
 515.00; 6413.333;  -23.733;    0.000;6437.06683
 515.28; 6439.467;  -20.400;    0.000;6459.86680
 515.56; 6614.133;  -42.200;    0.000;6656.33330
 515.85; 6713.200;  -25.067;    0.000;6738.26686
 516.13; 6831.867;  -48.467;    0.000;6880.33337
 516.41; 6923.133;  -24.200;    0.000;6947.33330
 516.69; 7047.867;  -45.400;    0.000;7093.26670
 516.97; 7182.667;  -22.733;    0.000;7205.39984
 517.25; 7344.067;  -51.933;    0.000;7396.00023
 517.54; 7310.533;  -23.600;    0.000;7334.13320
 517.82; 7579.200;  -38.333;    0.000;7617.53353
 518.10; 7655.333;  -20.533;    0.000;7675.86683
 518.38; 7677.133;  -50.133;    0.000;7727.26664
 518.66; 7884.400;  -26.733;    0.000;7911.13324
 518.94; 8050.067;  -30.133;    0.000;8080.20023
 519.22; 8099.800;  -18.000;    0.000;8117.79980
 519.51; 8101.067;  -45.067;    0.000;8146.13356
 519.79; 8263.467;  -24.667;    0.000;8288.13346
 520.07; 8485.066;  -33.800;    0.000;8518.86641
 520.35; 8417.467;  -32.400;    0.000;8449.86680
 520.63; 8559.267;  -32.800;    0.000;8592.06660
 520.91; 8701.866;  -22.600;    0.000;8724.46621
 521.19; 8767.866;  -53.333;    0.000;8821.19954
 521.47; 8943.134;  -13.267;    0.000;8956.40046
 521.75; 8943.600;  -47.000;    0.000;8990.59961
 522.04; 9010.200;  -23.733;    0.000;9033.93353
 522.32; 9037.866;  -45.200;    0.000;9083.06621
 522.60; 9219.733;  -11.600;    0.000;9231.33340
 522.88; 9304.800;  -36.667;    0.000;9341.46647
 523.16; 9354.333;  -28.400;    0.000;9382.73301
 523.44; 9386.000;  -14.467;    0.000;9400.46667
 523.72; 9537.000;  -13.267;    0.000;9550.26667
 524.00; 9600.533;  -40.867;    0.000;9641.39987
 524.28; 9734.000;    6.733;    0.000;9727.26667
 524.57; 9722.066;  -42.733;    0.000;9764.79974
 524.85; 9933.000;  -32.400;    0.000;9965.40000
 525.13; 9960.200;  -29.000;    0.000;9989.20020
 525.41;10036.333;  -21.067;    0.000;10057.39968
 525.69;10084.400;  -26.933;    0.000;10111.33372
 525.97;10135.066;    0.533;    0.000;10134.53307
 526.25;10271.400;  -38.933;    0.000;10310.33372
 526.53;10302.200;  -14.667;    0.000;10316.86686
 526.81;10364.066;  -60.333;    0.000;10424.39974
 527.09;10470.866;  -26.667;    0.000;10497.53288
 527.37;10526.667;  -51.133;    0.000;10577.80033
 527.65;10612.200;  -17.400;    0.000;10629.60019
 527.93;10646.800;  -46.067;    0.000;10692.86647
 528.22;10710.533;  -21.333;    0.000;10731.86654
 528.50;10709.533;  -55.600;    0.000;10765.13320
 528.78;10894.600;  -34.200;    0.000;10928.79961
 529.06;10918.200;  -36.733;    0.000;10954.93353
 529.34;11007.200;  -11.867;    0.000;11019.06686
 529.62;11087.467;  -47.733;    0.000;11135.20013
 529.90;11100.800;  -21.133;    0.000;11121.93314
 530.18;11101.134;  -65.600;    0.000;11166.73379
 530.46;11155.533;  -12.400;    0.000;11167.93320
 530.74;11288.267;  -28.067;    0.000;11316.33327
 531.02;11455.066;   -6.067;    0.000;11461.13307
 531.30;11497.533;  -51.800;    0.000;11549.33320
 531.58;11490.200;  -18.467;    0.000;11508.66686
 531.86;11525.533;  -36.867;    0.000;11562.39987
 532.14;11539.333;  -11.133;    0.000;11550.46634
 532.42;11592.134;  -30.600;    0.000;11622.73379
 532.70;11731.733;   -0.133;    0.000;11731.86673
 532.98;11742.200;  -53.867;    0.000;11796.06686
 533.26;11773.134;  -15.467;    0.000;11788.60046
 533.54;11782.866;  -43.467;    0.000;11826.33288
 533.82;11900.866;  -13.333;    0.000;11914.19954
 534.10;11903.934;  -46.267;    0.000;11950.20026
 534.38;11927.400;  -28.467;    0.000;11955.86706
 534.66;12081.066;  -50.933;    0.000;12131.99974
 534.94;12026.267;  -10.667;    0.000;12036.93327
 535.22;12110.866;  -48.800;    0.000;12159.66621
 535.50;12096.533;  -23.733;    0.000;12120.26654
 535.78;12204.733;  -53.200;    0.000;12257.93340
 536.06;12134.934;  -37.733;    0.000;12172.66693
 536.34;12287.934;  -44.333;    0.000;12332.26693
 536.62;12286.000;  -12.533;    0.000;12298.53333
 536.90;12407.066;  -60.200;    0.000;12467.26641
 537.18;12362.267;  -28.467;    0.000;12390.73327
 537.46;12454.934;  -37.067;    0.000;12492.00026
 537.74;12468.667;  -14.933;    0.000;12483.60033
 538.02;12591.000;  -36.333;    0.000;12627.33333
 538.30;12610.667;   -7.333;    0.000;12618.00033
 538.58;12609.000;  -40.467;    0.000;12649.46667
 538.86;12627.333;  -21.133;    0.000;12648.46634
 539.14;12620.733;  -43.467;    0.000;12664.20007
 539.42;12810.400;   -9.800;    0.000;12820.20039
 539.70;12790.733;  -48.867;    0.000;12839.60006
 539.98;12855.134;    3.333;    0.000;12851.80046
 540.26;12837.600;  -64.467;    0.000;12902.06628
 540.54;12888.600;  -40.867;    0.000;12929.46627
 540.82;12848.200;  -55.400;    0.000;12903.60020
 541.10;13031.467;  -45.600;    0.000;13077.06680
 541.38;12968.800;  -66.533;    0.000;13035.33314
 541.66;12994.733;  -19.067;    0.000;13013.80007
 541.94;13179.533;  -55.933;    0.000;13235.46654
 542.22;13090.267;  -25.200;    0.000;13115.46660
 542.50;13183.400;  -18.800;    0.000;13202.20039
 542.78;13139.600;  -40.000;    0.000;13179.59961
 543.06;13241.066;  -41.733;    0.000;13282.79974
 543.34;13180.134;  -15.467;    0.000;13195.60046
 543.62;13315.866;  -41.133;    0.000;13356.99955
 543.90;13349.667;  -33.800;    0.000;13383.46699
 544.17;13252.866;  -40.333;    0.000;13293.19954
 544.45;13396.200;  -32.533;    0.000;13428.73353
 544.73;13173.800;  -39.733;    0.000;13213.53314
 545.01;13359.467;  -19.733;    0.000;13379.20013
 545.29;13463.134;  -50.733;    0.000;13513.86712
 545.57;13491.733;  -23.733;    0.000;13515.46673
 545.85;13500.066;  -34.867;    0.000;13534.93307
 546.13;13457.000;   -6.267;    0.000;13463.26667
 546.41;13527.866;  -32.067;    0.000;13559.93288
 546.69;13552.467;  -37.467;    0.000;13589.93346
 546.97;13525.066;  -44.000;    0.000;13569.06641
 547.25;13608.467;  -42.733;    0.000;13651.20013
 547.52;13599.134;  -50.667;    0.000;13649.80046
 547.80;13644.600;  -17.400;    0.000;13661.99961
 548.08;13750.066;  -42.133;    0.000;13792.19974
 548.36;13663.800;  -25.067;    0.000;13688.86647
 548.64;13688.400;  -39.400;    0.000;13727.80039
 548.92;13703.333;  -25.667;    0.000;13728.99967
 549.20;13785.467;  -52.067;    0.000;13837.53346
 549.48;13736.267;   -5.200;    0.000;13741.46660
 549.76;13877.600;  -44.800;    0.000;13922.39961
 550.04;13762.667;  -11.400;    0.000;13774.06699
 550.31;13702.866;  -32.800;    0.000;13735.66621
 550.59;13836.267;  -22.600;    0.000;13858.86660
 550.87;13831.333;  -48.133;    0.000;13879.46634
 551.15;13793.066;  -24.600;    0.000;13817.66641
 551.43;13781.333;  -45.200;    0.000;13826.53301
 551.71;13898.267;  -31.067;    0.000;13929.33327
 551.99;13837.533;  -23.600;    0.000;13861.13320
 552.27;13871.800;  -25.133;    0.000;13896.93314
 552.54;13932.267;  -45.600;    0.000;13977.86660
 552.82;13965.934;  -36.600;    0.000;14002.53359
 553.10;13883.934;  -48.200;    0.000;13932.13359
 553.38;13956.533;  -24.400;    0.000;13980.93320
 553.66;13767.333;  -39.533;    0.000;13806.86634
 553.94;13939.866;   -9.667;    0.000;13949.53288
 554.22;13887.066;  -32.000;    0.000;13919.06641
 554.49;13933.533;  -14.933;    0.000;13948.46654
 554.77;13862.066;  -43.400;    0.000;13905.46641
 555.05;13931.066;  -22.200;    0.000;13953.26641
 555.33;13981.800;  -60.533;    0.000;14042.33314
 555.61;13941.934;  -20.600;    0.000;13962.53359
 555.89;14001.333;  -74.400;    0.000;14075.73301
 556.16;13992.467;  -38.267;    0.000;14030.73346
 556.44;14031.934;  -38.600;    0.000;14070.53359
 556.72;13928.200;  -18.867;    0.000;13947.06686
 557.00;13972.000;  -55.733;    0.000;14027.73333
 557.28;13924.533;  -21.133;    0.000;13945.66654
 557.56;13913.866;  -58.533;    0.000;13972.39954
 557.83;14035.267;  -10.533;    0.000;14045.79994
 558.11;14029.667;  -45.733;    0.000;14075.40033
 558.39;13959.333;  -24.067;    0.000;13983.39968
 558.67;13889.600;  -43.267;    0.000;13932.86628
 558.95;13896.333;  -43.267;    0.000;13939.59967
 559.23;13931.066;  -47.267;    0.000;13978.33307
 559.50;13838.333;  -46.000;    0.000;13884.33301
 559.78;13899.533;  -52.200;    0.000;13951.73320
 560.06;13871.333;  -27.067;    0.000;13898.39968
 560.34;13846.934;  -54.200;    0.000;13901.13359
 560.62;13911.600;  -40.467;    0.000;13952.06628
 560.89;13862.333;  -30.333;    0.000;13892.66634
 561.17;13773.000;  -20.333;    0.000;13793.33333
 561.45;13811.333;  -47.533;    0.000;13858.86634
 561.73;13787.934;  -45.200;    0.000;13833.13359
 562.00;13752.000;  -32.133;    0.000;13784.13334
 562.28;13823.800;  -21.200;    0.000;13844.99981
 562.56;13735.866;  -52.733;    0.000;13788.59954
 562.84;13812.667;  -27.800;    0.000;13840.46699
 563.12;13735.533;  -60.067;    0.000;13795.59987
 563.39;13544.000;  -36.000;    0.000;13580.00000
 563.67;13628.066;  -40.267;    0.000;13668.33307
 563.95;13687.066;  -29.733;    0.000;13716.79974
 564.23;13703.667;  -34.267;    0.000;13737.93366
 564.50;13622.733;  -28.333;    0.000;13651.06673
 564.78;13732.467;  -43.867;    0.000;13776.33346
 565.06;13640.866;  -21.133;    0.000;13661.99954
 565.34;13634.134;  -29.267;    0.000;13663.40046
 565.61;13628.267;  -24.333;    0.000;13652.59994
 565.89;13516.800;  -39.800;    0.000;13556.59980
 566.17;13623.800;  -22.867;    0.000;13646.66647
 566.45;13466.467;  -36.267;    0.000;13502.73346
 566.73;13468.000;  -43.067;    0.000;13511.06667
 567.00;13409.533;  -53.600;    0.000;13463.13320
 567.28;13488.533;  -38.533;    0.000;13527.06654
 567.56;13452.934;  -66.200;    0.000;13519.13359
 567.83;13498.200;  -15.267;    0.000;13513.46686
 568.11;13419.533;  -58.800;    0.000;13478.33320
 568.39;13280.000;  -16.333;    0.000;13296.33333
 568.67;13249.267;  -49.867;    0.000;13299.13327
 568.94;13262.600;  -40.733;    0.000;13303.33294
 569.22;13264.000;  -39.733;    0.000;13303.73333
 569.50;13262.467;  -41.800;    0.000;13304.26680
 569.78;13292.333;  -31.733;    0.000;13324.06634
 570.05;13146.667;  -59.667;    0.000;13206.33366
 570.33;13129.400;  -57.133;    0.000;13186.53373
 570.61;13093.000;  -30.067;    0.000;13123.06667
 570.88;13046.600;  -61.133;    0.000;13107.73294
 571.16;13040.600;  -33.800;    0.000;13074.39961
 571.44;12953.800;  -58.867;    0.000;13012.66647
 571.72;12936.400;  -25.267;    0.000;12961.66706
 571.99;12912.866;  -35.400;    0.000;12948.26621
 572.27;12879.200;  -30.267;    0.000;12909.46686
 572.55;12766.200;  -62.800;    0.000;12829.00019
 572.82;12811.800;  -27.133;    0.000;12838.93314
 573.10;12728.400;  -41.067;    0.000;12769.46706
 573.38;12663.066;  -39.733;    0.000;12702.79974
 573.65;12786.134;  -20.533;    0.000;12806.66712
 573.93;12540.467;  -18.467;    0.000;12558.93346
 574.21;12604.733;  -48.867;    0.000;12653.60006
 574.48;12421.934;  -26.667;    0.000;12448.60026
 574.76;12476.800;  -36.267;    0.000;12513.06647
 575.04;12461.400;  -21.800;    0.000;12483.20039
 575.32;12481.467;  -33.733;    0.000;12515.20013
 575.59;12382.733;  -31.000;    0.000;12413.73340
 575.87;12311.600;  -57.333;    0.000;12368.93294
 576.15;12207.000;  -26.067;    0.000;12233.06667
 576.42;12161.733;  -57.533;    0.000;12219.26673
 576.70;12198.467;  -43.800;    0.000;12242.26680
 576.98;12206.733;  -61.933;    0.000;12268.66673
 577.25;12166.733;  -31.733;    0.000;12198.46673
 577.53;12078.400;  -45.533;    0.000;12123.93372
 577.80;12043.866;  -24.133;    0.000;12067.99954
 578.08;12118.400;  -58.333;    0.000;12176.73372
 578.36;12005.467;  -26.333;    0.000;12031.80013
 578.63;11789.134;  -59.600;    0.000;11848.73379
 578.91;11875.134;  -16.533;    0.000;11891.66712
 579.19;11789.866;  -31.133;    0.000;11820.99954
 579.46;11729.066;  -36.933;    0.000;11765.99974
 579.74;11648.333;  -37.200;    0.000;11685.53301
 580.02;11683.333;  -15.267;    0.000;11698.59967
 580.29;11629.934;  -44.933;    0.000;11674.86693
 580.57;11534.934;  -32.933;    0.000;11567.86693
 580.84;11477.533;  -45.067;    0.000;11522.59987
 581.12;11515.267;  -25.467;    0.000;11540.73327
 581.40;11380.200;  -65.800;    0.000;11446.00020
 581.67;11358.400;   -5.933;    0.000;11364.33372
 581.95;11324.866;  -53.467;    0.000;11378.33288
 582.23;11216.667;  -29.533;    0.000;11246.20033
 582.50;11109.134;  -59.400;    0.000;11168.53379
 582.78;11159.733;  -34.733;    0.000;11194.46673
 583.05;11175.333;  -49.933;    0.000;11225.26634
 583.33;11047.200;  -24.733;    0.000;11071.93353
 583.61;11000.866;  -59.000;    0.000;11059.86621
 583.88;10943.200;  -37.933;    0.000;10981.13353
 584.16;10825.533;  -49.733;    0.000;10875.26654
 584.43;10820.600;  -30.933;    0.000;10851.53294
 584.71;10769.000;  -50.067;    0.000;10819.06667
 584.99;10725.066;  -19.133;    0.000;10744.19974
 585.26;10594.934;  -49.667;    0.000;10644.60026
 585.54;10683.733;  -42.533;    0.000;10726.26673
 585.81;10507.733;  -50.600;    0.000;10558.33340
 586.09;10471.267;  -22.800;    0.000;10494.06660
 586.37;10432.600;  -45.400;    0.000;10477.99961
 586.64;10299.600;  -37.600;    0.000;10337.19961
 586.92;10309.800;  -47.467;    0.000;10357.26647
 587.19;10272.333;  -32.400;    0.000;10304.73301
 587.47;10244.200;  -59.467;    0.000;10303.66686
 587.74;10183.866;  -47.533;    0.000;10231.39954
 588.02;10106.800;  -49.533;    0.000;10156.33314
 588.30;10086.667;  -21.600;    0.000;10108.26699
 588.57;10015.934;  -56.733;    0.000;10072.66693
 588.85; 9861.333;  -23.667;    0.000;9884.99967
 589.12; 9775.600;  -54.600;    0.000;9830.19961
 589.40; 9828.800;  -30.133;    0.000;9858.93314
 589.67; 9763.134;  -45.400;    0.000;9808.53379
 589.95; 9714.467;  -41.067;    0.000;9755.53346
 590.22; 9668.733;  -63.467;    0.000;9732.20007
 590.50; 9596.600;  -33.133;    0.000;9629.73294
 590.77; 9462.200;  -47.400;    0.000;9509.60020
 591.05; 9564.267;  -41.933;    0.000;9606.19994
 591.33; 9431.533;  -46.667;    0.000;9478.19987
 591.60; 9408.934;  -57.533;    0.000;9466.46693
 591.88; 9294.533;  -55.933;    0.000;9350.46654
 592.15; 9323.600;  -45.267;    0.000;9368.86628
 592.43; 9252.333;  -53.733;    0.000;9306.06634
 592.70; 9180.200;  -33.133;    0.000;9213.33353
 592.98; 9092.934;  -42.733;    0.000;9135.66693
 593.25; 9027.267;  -22.333;    0.000;9049.59994
 593.53; 9021.134;  -58.200;    0.000;9079.33379
 593.80; 8899.066;  -42.067;    0.000;8941.13307
 594.08; 8836.333;  -51.200;    0.000;8887.53301
 594.35; 8868.400;  -28.667;    0.000;8897.06706
 594.63; 8733.400;  -33.800;    0.000;8767.20039
 594.90; 8579.400;  -37.600;    0.000;8617.00039
 595.18; 8697.467;  -43.867;    0.000;8741.33346
 595.45; 8595.866;  -11.933;    0.000;8607.79954
 595.73; 8539.934;  -37.933;    0.000;8577.86693
 596.00; 8474.934;  -36.600;    0.000;8511.53359
 596.28; 8391.800;  -69.133;    0.000;8460.93314
 596.55; 8340.333;  -37.067;    0.000;8377.39967
 596.83; 8330.800;  -50.267;    0.000;8381.06647
 597.10; 8168.667;  -19.667;    0.000;8188.33317
 597.38; 8179.733;  -42.800;    0.000;8222.53340
 597.65; 8074.267;  -40.133;    0.000;8114.39994
 597.93; 7980.800;  -55.800;    0.000;8036.59980
 598.20; 7967.067;  -42.467;    0.000;8009.53356
 598.48; 7891.267;  -47.600;    0.000;7938.86660
 598.75; 7873.467;  -32.133;    0.000;7905.60013
 599.03; 7790.400;  -47.800;    0.000;7838.19990
 599.30; 7806.067;  -38.600;    0.000;7844.66689
 599.58; 7736.267;  -54.467;    0.000;7790.73327
 599.85; 7651.400;  -21.333;    0.000;7672.73324
 600.12; 7526.400;  -45.733;    0.000;7572.13324
 600.40; 7508.533;  -32.067;    0.000;7540.59987
 600.67; 7479.800;  -56.200;    0.000;7535.99981
 600.95; 7459.533;  -26.000;    0.000;7485.53320
 601.22; 7424.133;  -43.800;    0.000;7467.93330
 601.50; 7314.933;  -25.467;    0.000;7340.39977
 601.77; 7248.667;  -48.933;    0.000;7297.59984
 602.05; 7125.533;   -1.667;    0.000;7127.19987
 602.32; 7176.200;  -31.400;    0.000;7207.60019
 602.59; 7104.333;  -27.667;    0.000;7132.00016
 602.87; 7153.733;  -44.400;    0.000;7198.13340
 603.14; 7010.667;  -34.000;    0.000;7044.66650
 603.42; 6916.600;  -56.733;    0.000;6973.33343
 603.69; 6861.800;  -55.200;    0.000;6916.99981
 603.97; 6869.067;  -65.533;    0.000;6934.60023
 604.24; 6858.200;  -35.933;    0.000;6894.13353
 604.51; 6802.867;  -46.333;    0.000;6849.20003
 604.79; 6719.533;  -48.600;    0.000;6768.13320
 605.06; 6626.267;  -39.667;    0.000;6665.93327
 605.34; 6639.267;  -24.600;    0.000;6663.86660
 605.61; 6586.267;  -58.000;    0.000;6644.26660
 605.89; 6523.600;  -28.867;    0.000;6552.46676
 606.16; 6475.667;  -49.333;    0.000;6524.99984
 606.43; 6430.867;  -36.133;    0.000;6467.00003
 606.71; 6369.200;  -40.533;    0.000;6409.73353
 606.98; 6374.000;  -41.867;    0.000;6415.86666
 607.26; 6342.933;  -50.333;    0.000;6393.26644
 607.53; 6352.000;  -54.333;    0.000;6406.33333
 607.80; 6218.733;  -56.867;    0.000;6275.60006
 608.08; 6188.267;  -19.867;    0.000;6208.13327
 608.35; 6164.333;  -74.133;    0.000;6238.46683
 608.62; 6178.000;  -38.067;    0.000;6216.06667
 608.90; 6055.133;  -52.800;    0.000;6107.93330
 609.17; 6057.467;  -37.533;    0.000;6095.00013
 609.45; 5992.000;  -36.200;    0.000;6028.20000
 609.72; 5952.933;  -46.800;    0.000;5999.73310
 609.99; 5875.733;  -53.200;    0.000;5928.93340
 610.27; 5863.667;  -36.133;    0.000;5899.79984
 610.54; 5833.600;  -68.133;    0.000;5901.73343
 610.81; 5740.400;  -37.600;    0.000;5777.99990
 611.09; 5769.133;  -51.533;    0.000;5820.66663
 611.36; 5772.067;  -29.200;    0.000;5801.26690
 611.64; 5733.267;  -59.867;    0.000;5793.13327
 611.91; 5599.400;  -32.800;    0.000;5632.19990
 612.18; 5672.667;  -41.600;    0.000;5714.26650
 612.46; 5554.667;  -28.533;    0.000;5583.19984
 612.73; 5516.133;  -66.000;    0.000;5582.13330
 613.00; 5459.867;  -49.333;    0.000;5509.20003
 613.28; 5509.267;  -52.667;    0.000;5561.93327
 613.55; 5371.133;  -38.733;    0.000;5409.86663
 613.82; 5374.333;  -55.733;    0.000;5430.06683
 614.10; 5279.133;  -28.467;    0.000;5307.59997
 614.37; 5255.000;  -71.600;    0.000;5326.60000
 614.64; 5175.600;  -60.400;    0.000;5236.00010
 614.92; 5191.933;  -47.533;    0.000;5239.46644
 615.19; 5116.000;  -17.667;    0.000;5133.66667
 615.46; 5070.533;  -50.867;    0.000;5121.39987
 615.74; 4990.133;  -31.867;    0.000;5021.99997
 616.01; 4865.067;  -82.267;    0.000;4947.33356
 616.28; 4870.267;  -25.533;    0.000;4895.79993
 616.56; 4746.400;  -50.467;    0.000;4796.86657
 616.83; 4646.733;  -22.933;    0.000;4669.66673
 617.10; 4702.933;  -60.533;    0.000;4763.46644
 617.37; 4666.000;  -40.933;    0.000;4706.93333
 617.65; 4602.467;  -53.933;    0.000;4656.40013
 617.92; 4666.733;  -18.867;    0.000;4685.60007
 618.19; 4647.667;  -65.933;    0.000;4713.59984
 618.47; 4632.000;  -38.800;    0.000;4670.80000
 618.74; 4606.200;  -72.067;    0.000;4678.26686
 619.01; 4629.000;  -46.133;    0.000;4675.13334
 619.28; 4547.000;  -51.267;    0.000;4598.26667
 619.56; 4596.000;  -42.733;    0.000;4638.73333
 619.83; 4450.467;  -46.200;    0.000;4496.66680
 620.10; 4436.600;  -19.400;    0.000;4456.00010
 620.38; 4511.200;  -58.933;    0.000;4570.13353
 620.65; 4473.467;  -45.333;    0.000;4518.80013
 620.92; 4387.600;  -58.867;    0.000;4446.46676
 621.19; 4418.133;  -33.667;    0.000;4451.79997
 621.47; 4426.000;  -57.333;    0.000;4483.33333
 621.74; 4451.200;  -37.000;    0.000;4488.20020
 622.01; 4395.733;  -58.933;    0.000;4454.66673
 622.28; 4425.000;  -46.800;    0.000;4471.80000
 622.56; 4420.933;  -46.667;    0.000;4467.59977
 622.83; 4373.867;  -41.067;    0.000;4414.93336
 623.10; 4381.600;  -66.400;    0.000;4448.00010
 623.38; 4353.000;  -40.467;    0.000;4393.46667
 623.65; 4365.733;  -37.600;    0.000;4403.33340
 623.92; 4332.000;  -40.333;    0.000;4372.33333
 624.19; 4215.800;  -71.333;    0.000;4287.13314
 624.46; 4233.467;  -29.133;    0.000;4262.60013
 624.74; 4238.400;  -48.867;    0.000;4287.26657
 625.01; 4233.133;  -27.933;    0.000;4261.06663
 625.28; 4237.667;  -59.200;    0.000;4296.86650
 625.55; 4179.467;  -34.667;    0.000;4214.13346
 625.83; 4167.067;  -46.267;    0.000;4213.33356
 626.10; 4154.067;  -31.733;    0.000;4185.80023
 626.37; 4108.000;  -56.000;    0.000;4164.00000
 626.64; 4058.000;  -52.067;    0.000;4110.06667
 626.92; 4029.533;  -47.000;    0.000;4076.53345
 627.19; 4043.400;  -42.067;    0.000;4085.46657
 627.46; 4021.600;  -47.800;    0.000;4069.40010
 627.73; 3981.400;  -43.467;    0.000;4024.86657
 628.00; 4026.800;  -78.000;    0.000;4104.80005
 628.28; 3955.867;  -40.933;    0.000;3996.80003
 628.55; 3914.133;  -58.933;    0.000;3973.06664
 628.82; 3943.533;  -37.867;    0.000;3981.40011
 629.09; 3966.067;  -66.733;    0.000;4032.79998
 629.36; 3935.733;  -41.667;    0.000;3977.40007
 629.64; 3934.133;  -46.600;    0.000;3980.73330
 629.91; 3841.000;  -41.667;    0.000;3882.66667
 630.18; 3860.533;  -49.067;    0.000;3909.60011
 630.45; 3836.467;  -44.067;    0.000;3880.53322
 630.72; 3846.267;  -63.267;    0.000;3909.53327
 631.00; 3834.333;  -53.400;    0.000;3887.73325
 631.27; 3847.533;  -51.600;    0.000;3899.13345
 631.54; 3801.400;  -37.400;    0.000;3838.79990
 631.81; 3783.667;  -57.467;    0.000;3841.13342
 632.08; 3733.933;  -32.533;    0.000;3766.46668
 632.35; 3776.667;  -38.200;    0.000;3814.86675
 632.63; 3691.800;  -45.533;    0.000;3737.33338
 632.90; 3740.533;  -69.600;    0.000;3810.13345
 633.17; 3670.267;  -41.933;    0.000;3712.19994
 633.44; 3690.267;  -71.667;    0.000;3761.93327
 633.71; 3651.533;  -41.933;    0.000;3693.46678
 633.98; 3637.133;  -44.400;    0.000;3681.53330
 634.25; 3668.733;  -54.333;    0.000;3723.06673
 634.53; 3675.667;  -51.267;    0.000;3726.93341
 634.80; 3600.667;  -46.000;    0.000;3646.66675
 635.07; 3623.400;  -57.467;    0.000;3680.86657
 635.34; 3644.467;  -22.200;    0.000;3666.66655
 635.61; 3637.533;  -52.933;    0.000;3690.46678
 635.88; 3669.267;  -29.600;    0.000;3698.86660
 636.15; 3590.933;  -57.867;    0.000;3648.80001
 636.43; 3638.667;  -30.933;    0.000;3669.60008
 636.70; 3631.000;  -63.000;    0.000;3694.00000
 636.97; 3636.133;  -22.200;    0.000;3658.33330
 637.24; 3639.333;  -53.333;    0.000;3692.66658
 637.51; 3515.733;  -17.200;    0.000;3532.93340
 637.78; 3470.800;  -59.733;    0.000;3530.53338
 638.05; 3421.533;  -43.067;    0.000;3464.60011
 638.32; 3450.733;  -62.733;    0.000;3513.46673
 638.60; 3391.400;  -31.133;    0.000;3422.53324
 638.87; 3386.867;  -75.133;    0.000;3462.00003
 639.14; 3391.667;  -20.533;    0.000;3412.20008
 639.41; 3310.733;  -29.000;    0.000;3339.73340
 639.68; 3289.333;  -38.467;    0.000;3327.79992
 639.95; 3286.333;  -73.867;    0.000;3360.19992
 640.22; 3218.800;  -28.000;    0.000;3246.80005
 640.49; 3235.867;  -48.733;    0.000;3284.60003
 640.76; 3183.200;  -50.267;    0.000;3233.46662
 641.03; 3205.600;  -55.067;    0.000;3260.66676
 641.30; 3178.067;  -31.733;    0.000;3209.79998
 641.58; 3075.667;  -50.733;    0.000;3126.40008
 641.85; 3080.200;  -39.200;    0.000;3119.39995
 642.12; 3000.333;  -69.200;    0.000;3069.53325
 642.39; 3019.467;  -41.467;    0.000;3060.93322
 642.66; 2973.733;  -59.200;    0.000;3032.93340
 642.93; 2946.733;  -27.533;    0.000;2974.26673
 643.20; 2982.267;  -58.467;    0.000;3040.73327
 643.47; 2983.867;  -45.400;    0.000;3029.26670
 643.74; 2892.800;  -71.067;    0.000;2963.86671
 644.01; 2880.933;  -44.667;    0.000;2925.60002
 644.28; 2860.733;  -62.667;    0.000;2923.40007
 644.55; 2867.333;  -43.267;    0.000;2910.59992
 644.82; 2781.467;  -38.400;    0.000;2819.86655
 645.09; 2858.200;  -26.733;    0.000;2884.93328
 645.36; 2792.400;  -62.733;    0.000;2855.13324
 645.63; 2781.600;  -37.733;    0.000;2819.33343
 645.91; 2746.133;  -52.333;    0.000;2798.46663
 646.18; 2729.467;  -17.267;    0.000;2746.73322
 646.45; 2729.600;  -63.000;    0.000;2792.60010
 646.72; 2681.867;  -36.933;    0.000;2718.80003
 646.99; 2699.067;  -63.667;    0.000;2762.73332
 647.26; 2632.800;  -26.200;    0.000;2659.00005
 647.53; 2647.000;  -67.733;    0.000;2714.73333
 647.80; 2656.000;  -19.200;    0.000;2675.20000
 648.07; 2613.333;  -62.467;    0.000;2675.79992
 648.34; 2633.067;  -36.067;    0.000;2669.13332
 648.61; 2591.133;  -69.133;    0.000;2660.26663
 648.88; 2574.333;  -34.067;    0.000;2608.39992
 649.15; 2527.200;  -75.600;    0.000;2602.79995
 649.42; 2519.400;  -37.800;    0.000;2557.19990
 649.69; 2540.333;  -39.200;    0.000;2579.53325
 649.96; 2469.400;  -41.800;    0.000;2511.19990
 650.23; 2490.600;  -60.667;    0.000;2551.26677
 650.50; 2466.067;  -58.200;    0.000;2524.26665
 650.77; 2466.533;  -55.667;    0.000;2522.20012
 651.04; 2442.467;  -46.467;    0.000;2488.93322
 651.31; 2422.267;  -85.000;    0.000;2507.26660
 651.58; 2389.000;  -36.267;    0.000;2425.26667
 651.85; 2401.933;  -62.733;    0.000;2464.66668
 652.12; 2397.533;  -42.000;    0.000;2439.53345
 652.39; 2354.933;  -81.467;    0.000;2436.40002
 652.66; 2335.400;  -32.067;    0.000;2367.46657
 652.93; 2322.000;  -61.800;    0.000;2383.80000
 653.20; 2343.000;  -41.600;    0.000;2384.60000
 653.47; 2298.067;  -72.867;    0.000;2370.93332
 653.74; 2291.267;  -49.267;    0.000;2340.53327
 654.01; 2302.667;  -67.933;    0.000;2370.60008
 654.28; 2296.667;  -41.800;    0.000;2338.46675
 654.55; 2218.333;  -63.600;    0.000;2281.93325
 654.81; 2239.467;  -38.133;    0.000;2277.59989
 655.08; 2210.667;  -69.600;    0.000;2280.26675
 655.35; 2170.333;  -39.867;    0.000;2210.19992
 655.62; 2197.467;  -60.933;    0.000;2258.39989
 655.89; 2162.267;  -27.800;    0.000;2190.06660
 656.16; 2141.333;  -66.133;    0.000;2207.46658
 656.43; 2111.667;  -53.267;    0.000;2164.93341
 656.70; 2151.000;  -67.133;    0.000;2218.13333
 656.97; 2087.267;  -49.267;    0.000;2136.53327
 657.24; 2060.600;  -65.133;    0.000;2125.73343
 657.51; 2077.867;  -46.867;    0.000;2124.73336
 657.78; 2089.600;  -67.533;    0.000;2157.13343
 658.05; 2019.733;  -39.267;    0.000;2058.99994
 658.32; 2040.867;  -61.800;    0.000;2102.66670
 658.59; 2065.533;  -47.867;    0.000;2113.40011
 658.86; 2007.667;  -58.400;    0.000;2066.06663
 659.12; 2008.800;  -49.733;    0.000;2058.53338
 659.39; 1996.533;  -63.400;    0.000;2059.93333
 659.66; 1939.600;  -34.667;    0.000;1974.26664
 659.93; 1975.400;  -49.467;    0.000;2024.86669
 660.20; 1921.200;  -39.733;    0.000;1960.93328
 660.47; 1926.933;  -67.067;    0.000;1994.00002
 660.74; 1919.000;  -44.733;    0.000;1963.73333
 661.01; 1871.333;  -57.067;    0.000;1928.40004
 661.28; 1867.533;  -33.067;    0.000;1900.59999
 661.55; 1886.533;  -17.400;    0.000;1903.93332
 661.81; 1830.467;  -65.267;    0.000;1895.73335
 662.08; 1856.867;  -57.933;    0.000;1914.80003
 662.35; 1793.867;  -49.133;    0.000;1843.00003
 662.62; 1800.867;  -75.000;    0.000;1875.86670
 662.89; 1746.267;  -42.867;    0.000;1789.13339
 663.16; 1760.267;  -57.400;    0.000;1817.66673
 663.43; 1756.133;  -32.400;    0.000;1788.53330
 663.70; 1779.800;  -69.667;    0.000;1849.46671
 663.96; 1763.333;  -38.533;    0.000;1801.86671
 664.23; 1747.800;  -66.733;    0.000;1814.53338
 664.50; 1712.533;  -50.467;    0.000;1762.99999
 664.77; 1707.267;  -72.133;    0.000;1779.40005
 665.04; 1717.333;  -39.667;    0.000;1757.00004
 665.31; 1682.067;  -61.067;    0.000;1743.13332
 665.58; 1716.133;  -70.400;    0.000;1786.53330
 665.84; 1633.267;  -69.000;    0.000;1702.26672
 666.11; 1618.200;  -51.000;    0.000;1669.19995
 666.38; 1643.200;  -63.667;    0.000;1706.86662
 666.65; 1571.000;  -42.333;    0.000;1613.33333
 666.92; 1557.867;  -57.267;    0.000;1615.13337
 667.19; 1570.933;  -29.333;    0.000;1600.26668
 667.46; 1592.333;  -51.933;    0.000;1644.26671
 667.72; 1558.667;  -49.533;    0.000;1608.19996
 667.99; 1561.333;  -56.667;    0.000;1618.00004
 668.26; 1560.733;  -14.267;    0.000;1574.99994
 668.53; 1537.200;  -86.333;    0.000;1623.53329
 668.80; 1546.000;  -47.467;    0.000;1593.46667
 669.06; 1497.467;  -52.467;    0.000;1549.93334
 669.33; 1502.933;  -38.467;    0.000;1541.40002
 669.60; 1487.533;  -60.067;    0.000;1547.59999
 669.87; 1479.133;  -43.667;    0.000;1522.79997
 670.14; 1440.867;  -66.133;    0.000;1507.00003
 670.41; 1480.933;  -46.933;    0.000;1527.86668
 670.67; 1433.400;  -69.800;    0.000;1503.20003
 670.94; 1396.133;  -38.667;    0.000;1434.79997
 671.21; 1387.400;  -45.200;    0.000;1432.60003
 671.48; 1396.933;  -45.733;    0.000;1442.66668
 671.75; 1386.333;  -70.067;    0.000;1456.40004
 672.01; 1400.467;  -63.667;    0.000;1464.13334
 672.28; 1343.867;  -65.333;    0.000;1409.20004
 672.55; 1355.933;  -32.533;    0.000;1388.46668
 672.82; 1329.400;  -77.533;    0.000;1406.93336
 673.08; 1326.867;  -37.533;    0.000;1364.40003
 673.35; 1310.133;  -74.067;    0.000;1384.19997
 673.62; 1261.267;  -34.133;    0.000;1295.40006
 673.89; 1284.400;  -73.000;    0.000;1357.40002
 674.16; 1286.333;  -55.533;    0.000;1341.86671
 674.42; 1284.533;  -75.400;    0.000;1359.93333
 674.69; 1288.600;  -32.800;    0.000;1321.39997
 674.96; 1291.400;  -51.867;    0.000;1343.26669
 675.23; 1257.133;  -47.333;    0.000;1304.46663
 675.49; 1231.133;  -62.800;    0.000;1293.93330
 675.76; 1213.867;  -39.467;    0.000;1253.33337
 676.03; 1234.333;  -61.200;    0.000;1295.53337
 676.30; 1177.600;  -44.733;    0.000;1222.33331
 676.56; 1207.467;  -48.467;    0.000;1255.93334
 676.83; 1224.800;  -50.933;    0.000;1275.73338
 677.10; 1184.067;  -73.133;    0.000;1257.19998
 677.37; 1154.267;  -34.467;    0.000;1188.73339
 677.63; 1184.600;  -52.000;    0.000;1236.59998
 677.90; 1144.467;  -49.800;    0.000;1194.26667
 678.17; 1154.533;  -70.600;    0.000;1225.13332
 678.44; 1099.667;  -40.067;    0.000;1139.73329
 678.70; 1136.000;  -71.133;    0.000;1207.13333
 678.97; 1095.467;  -33.933;    0.000;1129.40001
 679.24; 1085.133;  -65.867;    0.000;1150.99997
 679.50; 1085.400;  -29.800;    0.000;1115.20002
 679.77; 1089.400;  -70.600;    0.000;1160.00002
 680.04; 1056.533;  -52.533;    0.000;1109.06666
 680.31; 1118.867;  -75.733;    0.000;1194.60003
 680.57; 1053.200;  -38.067;    0.000;1091.26662
 680.84; 1056.800;  -63.200;    0.000;1120.00005
 681.11; 1061.200;  -43.667;    0.000;1104.86662
 681.37; 1007.733;  -71.667;    0.000;1079.40000
 681.64;  995.867;  -44.800;    0.000;1040.66664
 681.91;  990.800;  -99.267;    0.000;1090.06666
 682.17; 1017.867;  -29.667;    0.000;1047.53330
 682.44; 1026.000;  -78.800;    0.000;1104.80000
 682.71;  996.800;   -8.267;    0.000;1005.06665
 682.98;  981.133;  -56.067;    0.000;1037.20003
 683.24;  980.467;  -68.000;    0.000;1048.46667
 683.51;  962.067;  -77.267;    0.000;1039.33332
 683.78;  921.000;  -53.733;    0.000;974.73333
 684.04;  936.400;  -57.000;    0.000;993.40002
 684.31;  911.400;  -45.267;    0.000;956.66669
 684.58;  935.667;  -77.800;    0.000;1013.46669
 684.84;  913.133;  -35.333;    0.000;948.46669
 685.11;  905.600;  -71.467;    0.000;977.06664
 685.38;  890.933;  -46.667;    0.000;937.60002
 685.64;  882.600;  -65.533;    0.000;948.13331
 685.91;  901.733;  -42.000;    0.000;943.73334
 686.17;  901.200;  -65.733;    0.000;966.93334
 686.44;  882.133;  -33.067;    0.000;915.20003
 686.71;  869.733;  -68.200;    0.000;937.93333
 686.97;  846.933;  -48.600;    0.000;895.53335
 687.24;  847.867;  -69.267;    0.000;917.13331
 687.51;  822.200;  -32.400;    0.000;854.60001
 687.77;  828.267;  -60.600;    0.000;888.86666
 688.04;  818.200;  -60.267;    0.000;878.46668
 688.31;  801.200;  -79.267;    0.000;880.46668
 688.57;  813.667;  -39.267;    0.000;852.93335
 688.84;  788.200;  -66.467;    0.000;854.66668
 689.10;  769.733;  -50.933;    0.000;820.66667
 689.37;  817.400;  -64.800;    0.000;882.20003
 689.64;  783.533;  -68.200;    0.000;851.73332
 689.90;  774.200;  -66.000;    0.000;840.20001
 690.17;  759.533;  -58.400;    0.000;817.93333
 690.44;  759.867;  -71.733;    0.000;831.59997
 690.70;  751.467;  -37.533;    0.000;789.00001
 690.97;  719.267;  -74.933;    0.000;794.20000
 691.23;  761.200;  -37.000;    0.000;798.20001
 691.50;  746.267;  -84.000;    0.000;830.26666
 691.77;  720.867;  -44.800;    0.000;765.66664
 692.03;  726.800;  -66.733;    0.000;793.53332
 692.30;  714.133;  -45.667;    0.000;759.80003
 692.56;  686.400;  -83.467;    0.000;769.86669
 692.83;  711.133;  -52.600;    0.000;763.73336
 693.10;  701.467;  -57.200;    0.000;758.66668
 693.36;  663.867;  -46.600;    0.000;710.46664
 693.63;  627.467;  -72.200;    0.000;699.66667
 693.89;  647.467;  -46.467;    0.000;693.93334
 694.16;  663.533;  -70.800;    0.000;734.33333
 694.42;  655.733;  -51.733;    0.000;707.46667
 694.69;  666.667;  -46.400;    0.000;713.06669
 694.96;  649.800;  -16.200;    0.000;665.99999
 695.22;  630.667;  -59.467;    0.000;690.13335
 695.49;  653.667;  -14.400;    0.000;668.06669
 695.75;  585.267;  -83.267;    0.000;668.53333
 696.02;  620.333;  -47.333;    0.000;667.66665
 696.28;  598.600;  -67.733;    0.000;666.33331
 696.55;  595.867;  -48.333;    0.000;644.19997
 696.81;  574.267;  -65.800;    0.000;640.06667
 697.08;  568.467;  -51.800;    0.000;620.26667
 697.34;  549.467;  -69.067;    0.000;618.53334
 697.61;  548.600;  -51.867;    0.000;600.46664
 697.88;  528.267;  -51.267;    0.000;579.53333
 698.14;  543.133;  -50.067;    0.000;593.20003
 698.41;  544.733;  -69.800;    0.000;614.53334
 698.67;  531.733;  -53.200;    0.000;584.93334
 698.94;  531.467;  -78.000;    0.000;609.46667
 699.20;  514.733;  -33.533;    0.000;548.26667
 699.47;  503.400;  -58.067;    0.000;561.46666
 699.73;  502.867;  -36.600;    0.000;539.46667
 700.00;  499.667;  -87.200;    0.000;586.86665
 700.26;  461.667;  -51.267;    0.000;512.93332
 700.53;  488.000;  -54.000;    0.000;542.00000
 700.79;  480.067;  -43.667;    0.000;523.73335
 701.06;  465.600;  -68.600;    0.000;534.20000
 701.32;  460.533;  -47.333;    0.000;507.86666
 701.59;  482.400;  -73.267;    0.000;555.66666
 701.85;  459.733;  -41.733;    0.000;501.46667
 702.12;  437.333;  -78.333;    0.000;515.66668
 702.38;  453.733;  -32.933;    0.000;486.66667
 702.65;  413.000;  -60.267;    0.000;473.26667
 702.91;  451.800;  -39.533;    0.000;491.33332
 703.18;  439.733;  -72.267;    0.000;512.00001
 703.44;  406.133;  -59.400;    0.000;465.53333
 703.71;  379.400;  -78.067;    0.000;457.46666
 703.97;  394.667;  -63.000;    0.000;457.66666
 704.24;  396.533;  -81.733;    0.000;478.26665
 704.50;  375.400;  -53.000;    0.000;428.39999
 704.76;  362.867;  -72.933;    0.000;435.80000
 705.03;  352.067;  -47.467;    0.000;399.53335
 705.29;  355.133;  -57.333;    0.000;412.46666
 705.56;  346.800;  -64.867;    0.000;411.66666
 705.82;  369.067;  -62.267;    0.000;431.33335
 706.09;  378.867;  -19.200;    0.000;398.06667
 706.35;  323.533;  -70.933;    0.000;394.46666
 706.62;  332.733;  -27.533;    0.000;360.26667
 706.88;  314.333;  -76.733;    0.000;391.06667
 707.15;  311.000;  -45.467;    0.000;356.46667
 707.41;  313.933;  -83.400;    0.000;397.33332
 707.67;  304.867;  -39.000;    0.000;343.86667
 707.94;  327.733;  -55.733;    0.000;383.46667
 708.20;  284.067;  -79.133;    0.000;363.20001
 708.47;  289.533;  -55.000;    0.000;344.53333
 708.73;  276.400;  -54.133;    0.000;330.53333
 709.00;  274.400;  -83.267;    0.000;357.66666
 709.26;  293.867;  -37.933;    0.000;331.80000
 709.52;  269.067;  -57.533;    0.000;326.60001
 709.79;  247.000;  -59.533;    0.000;306.53333
 710.05;  246.133;  -61.200;    0.000;307.33333
 710.32;  255.133;  -32.800;    0.000;287.93333
 710.58;  250.867;  -76.533;    0.000;327.40000
 710.84;  244.133;  -55.600;    0.000;299.73333
 711.11;  260.800;  -69.200;    0.000;329.99998
 711.37;  244.400;  -34.467;    0.000;278.86666
 711.64;  219.667;  -77.267;    0.000;296.93334
 711.90;  229.267;  -41.333;    0.000;270.59999
 712.16;  210.067;  -66.000;    0.000;276.06667
 712.43;  233.200;  -43.000;    0.000;276.20000
 712.69;  222.400;  -65.867;    0.000;288.26666
 712.96;  224.600;  -61.733;    0.000;286.33334
 713.22;  200.933;  -75.400;    0.000;276.33334
 713.48;  208.067;  -50.533;    0.000;258.60000
 713.75;  217.267;  -75.000;    0.000;292.26666
 714.01;  193.133;  -66.000;    0.000;259.13333
 714.27;  173.067;  -55.000;    0.000;228.06667
 714.54;  199.933;  -49.200;    0.000;249.13334
 714.80;  188.067;  -67.933;    0.000;256.00000
 715.06;  201.200;  -24.533;    0.000;225.73333
 715.33;  206.800;  -94.267;    0.000;301.06667
 715.59;  177.067;  -52.000;    0.000;229.06667
 715.86;  176.400;  -70.000;    0.000;246.39999
 716.12;  177.733;  -54.200;    0.000;231.93334
 716.38;  176.133;  -69.733;    0.000;245.86666
 716.65;  177.267;  -62.133;    0.000;239.40000
 716.91;  187.000;  -70.467;    0.000;257.46667
 717.17;  166.533;  -35.133;    0.000;201.66668
 717.44;  187.800;  -70.000;    0.000;257.80000
 717.70;  181.600;  -36.800;    0.000;218.40001
 717.96;  178.200;  -76.533;    0.000;254.73333
 718.23;  168.800;  -42.267;    0.000;211.06667
 718.49;  161.133;  -62.200;    0.000;223.33333
 718.75;  163.933;  -44.267;    0.000;208.20000
 719.02;  170.400;  -81.800;    0.000;252.20000
 719.28;  174.800;  -57.067;    0.000;231.86667
 719.54;  153.467;  -62.267;    0.000;215.73333
 719.80;  166.400;  -34.067;    0.000;200.46666
 720.07;  158.600;  -79.467;    0.000;238.06667
 720.33;  168.867;  -33.933;    0.000;202.80000
 720.59;  144.800;  -72.800;    0.000;217.60001
 720.86;  151.133;  -56.733;    0.000;207.86666
 721.12;  150.067;  -59.000;    0.000;209.06667
 721.38;  159.867;  -44.200;    0.000;204.06667
 721.65;  155.600;  -54.600;    0.000;210.20000
 721.91;  148.867;  -42.867;    0.000;191.73333
 722.17;  146.267;  -80.067;    0.000;226.33333
 722.43;  169.333;  -53.467;    0.000;222.80000
 722.70;  143.800;  -77.800;    0.000;221.60001
 722.96;  140.067;  -31.400;    0.000;171.46667
 723.22;  145.333;  -75.800;    0.000;221.13333
 723.48;  129.200;  -69.267;    0.000;198.46667
 723.75;  160.333;  -77.867;    0.000;238.20000
 724.01;  151.467;  -57.200;    0.000;208.66666
 724.27;  132.467;  -85.733;    0.000;218.19999
 724.54;  143.400;  -42.933;    0.000;186.33333
 724.80;  144.800;  -84.133;    0.000;228.93333
 725.06;  134.400;  -67.000;    0.000;201.39999
 725.32;  150.867;  -62.600;    0.000;213.46667
 725.59;  132.867;  -44.267;    0.000;177.13334
 725.85;  123.267;  -65.933;    0.000;189.20000
 726.11;  145.467;  -51.933;    0.000;197.39999
 726.37;  130.933;  -55.467;    0.000;186.40000
 726.64;  161.400;  -28.867;    0.000;190.26666
 726.90;  163.867;  -64.467;    0.000;228.33334
 727.16;  139.400;  -46.333;    0.000;185.73333
 727.42;  147.400;  -82.467;    0.000;229.86666
 727.68;  123.667;  -42.133;    0.000;165.80000
 727.95;  136.800;  -67.133;    0.000;203.93333
 728.21;  129.267;  -40.067;    0.000;169.33333
 728.47;  127.333;  -75.933;    0.000;203.26667
 728.73;  135.600;  -40.667;    0.000;176.26667
 729.00;  126.400;  -70.800;    0.000;197.20000
 729.26;  130.000;  -52.667;    0.000;182.66667
 729.52;  127.067;  -75.333;    0.000;202.40000
 729.78;  132.467;  -61.800;    0.000;194.26666
 730.04;  131.133;  -63.600;    0.000;194.73333
 730.31;  144.867;  -63.733;    0.000;208.60000
 730.57;  113.733;  -83.400;    0.000;197.13333
 730.83;  129.733;  -46.200;    0.000;175.93334
 731.09;  135.200;  -65.600;    0.000;200.80000
 731.35;  132.533;  -49.733;    0.000;182.26667
 731.62;  138.467;  -94.467;    0.000;232.93333
 731.88;  121.600;  -43.200;    0.000;164.80000
 732.14;  119.667;  -83.133;    0.000;202.80000
 732.40;  137.133;  -46.400;    0.000;183.53333
 732.66;  114.133;  -70.733;    0.000;184.86666
 732.92;  112.667;  -67.800;    0.000;180.46667
 733.19;  116.400;  -76.867;    0.000;193.26667
 733.45;  133.200;  -55.400;    0.000;188.60000
 733.71;  109.933;  -62.867;    0.000;172.80000
 733.97;  153.933;  -10.400;    0.000;164.33333
 734.23;  106.067;  -73.067;    0.000;179.13333
 734.49;  100.067;  -50.333;    0.000;150.40000
 734.76;  107.800;  -78.133;    0.000;185.93333
 735.02;  110.733;  -67.667;    0.000;178.39999
 735.28;  100.133;  -56.200;    0.000;156.33333
 735.54;  126.400;  -52.733;    0.000;179.13334
 735.80;   92.333;  -84.200;    0.000;176.53333
 736.06;  116.133;  -54.933;    0.000;171.06667
 736.32;   97.533;  -85.800;    0.000;183.33334
 736.59;   98.667;  -42.067;    0.000;140.73333
 736.85;   93.400;  -84.067;    0.000;177.46667
 737.11;  116.600;  -60.200;    0.000;176.80000
 737.37;  103.800;  -69.933;    0.000;173.73334
 737.63;   88.733;  -53.200;    0.000;141.93333
 737.89;  108.733;  -72.533;    0.000;181.26666
 738.15;   80.600;  -32.467;    0.000;113.06667
 738.41;  122.533;  -74.000;    0.000;196.53333
 738.67;  112.800;  -64.133;    0.000;176.93333
 738.94;  101.133;  -86.267;    0.000;187.40000
 739.20;   78.600;  -49.467;    0.000;128.06667
 739.46;   99.800;  -64.600;    0.000;164.40000
 739.72;   89.467;  -63.000;    0.000;152.46667
 739.98;   71.000;  -72.000;    0.000;143.00000
 740.24;  101.800;  -52.800;    0.000;154.60000
 740.50;   76.533;  -59.800;    0.000;136.33333
 740.76;   88.333;  -37.800;    0.000;126.13334
 741.02;   85.800;  -84.867;    0.000;170.66667
 741.28;   93.867;  -52.600;    0.000;146.46667
 741.54;   77.867;  -74.200;    0.000;152.06667
 741.81;   69.133;  -47.133;    0.000;116.26667
 742.07;   59.133;  -92.600;    0.000;151.73333
 742.33;   78.533;  -28.800;    0.000;107.33333
 742.59;   77.667;  -60.000;    0.000;137.66666
 742.85;   61.667;  -54.400;    0.000;116.06667
 743.11;   40.600;  -97.533;    0.000;138.13333
 743.37;   89.533;  -56.200;    0.000;145.73333
 743.63;   57.200;  -82.133;    0.000;139.33333
 743.89;   77.133;  -52.133;    0.000;129.26667
 744.15;   71.133;  -75.800;    0.000;146.93333
 744.41;   53.333;  -64.267;    0.000;117.60000
 744.67;   66.133;  -72.800;    0.000;138.93333
 744.93;   63.867;  -51.067;    0.000;114.93333
 745.19;   75.533;  -84.133;    0.000;159.66666
 745.45;   72.667;  -60.467;    0.000;133.13333
 745.71;   53.467;  -79.133;    0.000;132.60000
 745.97;   53.667;  -32.067;    0.000;85.73333
 746.23;   45.467;  -66.200;    0.000;111.66666
 746.49;   47.267;  -58.200;    0.000;105.46667
 746.75;   76.000;  -78.000;    0.000;154.00000
 747.02;   56.867;  -38.667;    0.000;95.53333
 747.28;   41.800;  -79.400;    0.000;121.20000
 747.54;   54.333;  -54.000;    0.000;108.33333
 747.80;   50.867;  -80.867;    0.000;131.73333
 748.06;   41.667;  -64.733;    0.000;106.40000
 748.32;   55.333;  -91.333;    0.000;146.66667
 748.58;   56.333;  -47.000;    0.000;103.33333
 748.84;   48.067;  -66.933;    0.000;115.00000
 749.10;  113.400;   19.133;    0.000;94.26667
 749.36;   81.800;  -76.067;    0.000;157.86667
 749.62;   44.467;  -47.133;    0.000;91.60000
 749.88;   51.733;  -73.133;    0.000;124.86666
 750.14;   27.000;  -50.800;    0.000;77.80000
 750.40;   44.067;  -75.667;    0.000;119.73333
 750.66;   45.333;  -40.333;    0.000;85.66666
 750.91;   39.667;  -67.400;    0.000;107.06667
 751.17;   29.533;  -46.467;    0.000;76.00000
 751.43;   31.467;  -98.267;    0.000;129.73334
 751.69;   48.333;  -32.333;    0.000;80.66666
 751.95;   29.333;  -65.000;    0.000;94.33333
 752.21;   32.400;  -53.733;    0.000;86.13334
 752.47;   33.400;  -68.400;    0.000;101.80000
 752.73;   30.000;  -46.200;    0.000;76.20000
 752.99;   10.000;  -87.933;    0.000;97.93333
 753.25;   27.600;  -47.200;    0.000;74.80000
 753.51;   43.867;  -61.467;    0.000;105.33333
 753.77;   18.733;  -58.400;    0.000;77.13334
 754.03;   36.867;  -64.600;    0.000;101.46666
 754.29;   28.467;  -71.867;    0.000;100.33334
 754.55;   42.133;  -67.867;    0.000;110.00000
 754.81;    3.867;  -62.600;    0.000;66.46667
 755.07;   32.133;  -70.067;    0.000;102.20000
 755.33;    3.667;  -67.800;    0.000;71.46667
 755.59;    7.533;  -78.600;    0.000;86.13333
 755.85;   27.400;  -42.200;    0.000;69.60000
 756.10;   29.467;  -72.867;    0.000;102.33334
 756.36;   26.200;  -65.067;    0.000;91.26667
 756.62;   -4.533;  -77.333;    0.000;72.80000
 756.88;   20.067;  -60.667;    0.000;80.73334
 757.14;   21.200;  -73.600;    0.000;94.80000
 757.40;   12.067;  -35.200;    0.000;47.26667
 757.66;   23.267;  -69.267;    0.000;92.53334
 757.92;    2.200;  -54.667;    0.000;56.86667
 758.18;   16.533;  -74.267;    0.000;90.80000
 758.44;    3.267;  -59.867;    0.000;63.13333
 758.70;   -4.267;  -54.533;    0.000;50.26667
 758.95;    1.333;  -41.200;    0.000;42.53333
 759.21;    0.133;  -79.067;    0.000;79.20000
 759.47;    8.133;  -45.267;    0.000;53.40000
 759.73;   -2.067;  -75.867;    0.000;73.80000
 759.99;   -6.400;  -56.133;    0.000;49.73334
 760.25;   -4.467;  -65.400;    0.000;60.93333
 760.51;   11.733;  -54.400;    0.000;66.13334
 760.77;   14.333;  -88.400;    0.000;102.73333
 761.02;    2.667;  -63.000;    0.000;65.66667
 761.28;   -2.467;  -80.200;    0.000;77.73333
 761.54;    2.533;  -57.867;    0.000;60.40000
 761.80;   -4.733;  -95.533;    0.000;90.80000
 762.06;   -1.667;  -43.667;    0.000;42.00000
 762.32;  -23.800;  -81.467;    0.000;57.66667
 762.58;   -9.867;  -80.600;    0.000;70.73333
 762.83;   14.200;  -64.733;    0.000;78.93333
 763.09;  -10.667;  -42.133;    0.000;31.46667
 763.35;  -15.733;  -77.067;    0.000;61.33333
 763.61;   11.333;  -65.200;    0.000;76.53333
 763.87;   11.667;  -58.733;    0.000;70.40000
 764.13;   13.267;  -51.133;    0.000;64.40000
 764.38;  -25.933;  -80.067;    0.000;54.13333
 764.64;  -20.600;  -65.867;    0.000;45.26667
 764.90;    0.067;  -92.067;    0.000;92.13333
 765.16;  -17.667;  -39.667;    0.000;22.00000
 765.42;  -13.800;  -72.200;    0.000;58.40000
 765.68;  -13.667;  -67.200;    0.000;53.53333
 765.93;   -7.400;  -82.067;    0.000;74.66667
 766.19;  -12.800;  -88.800;    0.000;76.00000
 766.45;  -20.333;  -82.333;    0.000;62.00000
 766.71;   -1.467;  -53.200;    0.000;51.73333
 766.97;  -12.333;  -74.000;    0.000;61.66667
 767.22;  -38.400;  -57.067;    0.000;18.66666
 767.48;    2.200;  -84.333;    0.000;86.53334
 767.74;  -21.267;  -56.533;    0.000;35.26667
 768.00;  -18.733;  -87.133;    0.000;68.40000
 768.26;  -18.533;  -39.867;    0.000;21.33333
 768.51;  -14.933;  -73.800;    0.000;58.86667
 768.77;   -5.600;  -36.000;    0.000;30.40000
 769.03;  -14.533;  -86.533;    0.000;72.00000
 769.29;  -11.467;  -53.933;    0.000;42.46667
 769.54;  -11.933;  -83.333;    0.000;71.40000
 769.80;  -10.000;  -68.467;    0.000;58.46667
 770.06;  -13.667;  -95.600;    0.000;81.93333
 770.32;    0.200;  -57.000;    0.000;57.20000
 770.57;  -37.200;  -86.867;    0.000;49.66667
 770.83;   -1.667;  -59.333;    0.000;57.66667
 771.09;   -4.800;  -72.933;    0.000;68.13333
 771.35;  -26.733;  -65.133;    0.000;38.40000
 771.61;  -32.533;  -79.533;    0.000;47.00000
 771.86;  -28.800;  -49.933;    0.000;21.13334
 772.12;  -31.333;  -88.000;    0.000;56.66667
 772.38;  -29.733;  -55.933;    0.000;26.20000
 772.63;  -13.400;  -91.400;    0.000;78.00000
 772.89;  -10.533;  -62.600;    0.000;52.06666
 773.15;  -18.867;  -82.533;    0.000;63.66667
 773.41;  -28.200;  -79.067;    0.000;50.86666
 773.66;    2.333; -102.533;    0.000;104.86667
 773.92;  -26.667;  -47.133;    0.000;20.46667
 774.18;  -30.600;  -76.400;    0.000;45.80000
 774.44;  -25.333;  -79.933;    0.000;54.60000
 774.69;  -26.667;  -76.467;    0.000;49.80000
 774.95;  -23.933;  -55.467;    0.000;31.53333
 775.21;    9.933;  -58.600;    0.000;68.53333
 775.46;  -37.400;  -76.867;    0.000;39.46667
 775.72;  -16.733;  -77.467;    0.000;60.73333
 775.98;  -27.000;  -52.200;    0.000;25.20000
 776.24;  -23.467;  -69.800;    0.000;46.33334
 776.49;  -20.867;  -64.667;    0.000;43.80000
 776.75;  -26.333;  -89.200;    0.000;62.86666
 777.01;  -49.867;  -51.467;    0.000; 1.60000
 777.26;  -16.600;  -71.067;    0.000;54.46667
 777.52;   -7.267;  -58.733;    0.000;51.46667
 777.78;  -21.400;  -91.733;    0.000;70.33333
 778.03;  -19.667;  -42.933;    0.000;23.26667
 778.29;  -48.867;  -82.733;    0.000;33.86666
 778.55;  -30.600;  -49.800;    0.000;19.20000
 778.80;  -21.933;  -84.400;    0.000;62.46667
 779.06;  -27.667;  -57.667;    0.000;30.00000
 779.32;  -60.467;  -95.467;    0.000;35.00000
 779.57;  -36.133;  -49.133;    0.000;13.00000
 779.83;  -31.067;  -80.067;    0.000;49.00000
 780.09;  -25.600;  -63.267;    0.000;37.66667
 780.34;  -31.467;  -78.467;    0.000;47.00000
 780.60;  -21.400;  -43.867;    0.000;22.46667
 780.86;  -30.867;  -82.600;    0.000;51.73333
 781.11;  -30.533;  -54.000;    0.000;23.46667
 781.37;  -53.333;  -87.800;    0.000;34.46667
 781.63;  -13.000;  -62.267;    0.000;49.26667
 781.88;  -46.333;  -94.600;    0.000;48.26667
 782.14;  -38.333;  -70.133;    0.000;31.80000
 782.39;  -44.933;  -88.133;    0.000;43.20000
 782.65;  -43.267;  -88.467;    0.000;45.20000
 782.91;  -20.267;  -82.867;    0.000;62.60000
 783.16;  -32.067;  -49.533;    0.000;17.46667
 783.42;  -16.467;  -95.667;    0.000;79.20000
 783.67;  -14.467;  -63.333;    0.000;48.86667
 783.93;  -24.267;  -62.467;    0.000;38.20000
 784.19;  -43.000;  -61.400;    0.000;18.40000
 784.44;  -32.667;  -65.400;    0.000;32.73333
 784.70;  -34.200;  -54.267;    0.000;20.06667
 784.96;  -32.933;  -86.933;    0.000;54.00000
 785.21;  -50.133;  -72.867;    0.000;22.73333
 785.47;  -26.733;  -57.267;    0.000;30.53333
 785.72;  -26.933;  -44.867;    0.000;17.93333
 785.98;  -40.400;  -94.333;    0.000;53.93333
 786.23;  -47.333;  -65.133;    0.000;17.80000
 786.49;  -26.200;  -74.333;    0.000;48.13334
 786.75;  -31.533;  -49.133;    0.000;17.60000
 787.00;  -49.000;  -93.733;    0.000;44.73333
 787.26;  -29.933;  -60.600;    0.000;30.66667
 787.51;  -27.400;  -64.267;    0.000;36.86667
 787.77;  -12.667;  -53.800;    0.000;41.13333
 788.02;  -24.067;  -81.800;    0.000;57.73334
 788.28;  -50.067;  -71.467;    0.000;21.40000
 788.54;  -41.800;  -73.067;    0.000;31.26667
 788.79;  -36.667;  -61.800;    0.000;25.13333
 789.05;  -43.200;  -80.733;    0.000;37.53333
 789.30;  -40.667;  -54.067;    0.000;13.40000
 789.56;  -45.000;  -86.600;    0.000;41.60000
 789.81;  -49.533;  -56.800;    0.000; 7.26667
 790.07;  -43.400; -102.667;    0.000;59.26666
 790.32;  -34.133;  -63.667;    0.000;29.53333
 790.58;  -52.467;  -67.333;    0.000;14.86667
 790.83;  -36.733;  -45.067;    0.000; 8.33333
 791.09;  -26.533;  -83.733;    0.000;57.20000
 791.35;  -40.067;  -57.000;    0.000;16.93333
 791.60;  -70.800;  -68.867;    0.000;-1.93333
 791.86;  -26.400;  -48.267;    0.000;21.86667
 792.11;  -45.000;  -87.933;    0.000;42.93333
 792.37;  -32.800;  -72.133;    0.000;39.33333
 792.62;  -28.167;  -67.800;    0.000;39.63334
 792.88;  -23.533;  -63.467;    0.000;39.93333
 793.13;  -34.800;  -62.800;    0.000;28.00000
 793.39;  -36.800;  -55.800;    0.000;19.00000
 793.64;  -30.800;  -70.333;    0.000;39.53334
 793.90;  -48.200;  -55.467;    0.000; 7.26667
 794.15;  -36.867;  -76.800;    0.000;39.93334
 794.41;  -46.400;  -56.933;    0.000;10.53333
 794.66;  -46.733;  -84.933;    0.000;38.20000
 794.92;  -41.067;  -65.267;    0.000;24.20000
 795.17;  -36.733;  -90.200;    0.000;53.46666
 795.43;  -72.533;  -84.200;    0.000;11.66666
 795.68;  -36.200;  -80.933;    0.000;44.73333
 795.94;  -48.933;  -54.667;    0.000; 5.73333
 796.19;  -41.333;  -73.800;    0.000;32.46667
 796.44;  -40.067;  -69.867;    0.000;29.80000
 796.70;  -47.200;  -89.200;    0.000;42.00000
 796.95;  -20.067;  -45.400;    0.000;25.33333
 797.21;  -49.400;  -71.867;    0.000;22.46667
 797.46;  -53.667;  -71.333;    0.000;17.66667
 797.72;  -60.933;  -96.733;    0.000;35.80000
 797.97;  -74.600;  -64.200;    0.000;-10.40000
 798.23;  -57.800;  -81.933;    0.000;24.13334
 798.48;  -40.867;  -61.400;    0.000;20.53334
 798.74;  -56.400;  -88.333;    0.000;31.93333
 798.99;  -39.867;  -63.533;    0.000;23.66667
 799.24;  -54.333;  -82.933;    0.000;28.60000
 799.50;  -52.933;  -50.000;    0.000;-2.93333
 799.75;  -41.400;  -86.933;    0.000;45.53333
 800.01;  -59.000;  -54.467;    0.000;-4.53333
 800.26;  -51.333;  -82.467;    0.000;31.13334
 800.52;  -49.067;  -56.067;    0.000; 7.00000
 800.77;  -60.467;  -72.667;    0.000;12.20000
 801.02;  -60.400;  -69.933;    0.000; 9.53333
 801.28;  -63.000;  -81.733;    0.000;18.73333
 801.53;  -41.600;  -37.267;    0.000;-4.33333
 801.79;  -42.133; -100.067;    0.000;57.93333
 802.04;  -55.267;  -38.667;    0.000;-16.60000
 802.29;  -50.000;  -72.867;    0.000;22.86667
 802.55;  -51.600;  -51.333;    0.000;-0.26667
 802.80;  -54.933;  -72.733;    0.000;17.80000
 803.06;  -58.000;  -52.400;    0.000;-5.60000
 803.31;  -43.533;  -88.200;    0.000;44.66666
 803.56;  -41.667;  -65.667;    0.000;24.00000
 803.82;  -42.800;  -66.533;    0.000;23.73333
 804.07;  -67.733;  -72.800;    0.000; 5.06667
 804.32;  -46.200;  -71.533;    0.000;25.33333
 804.58;  -65.867;  -63.867;    0.000;-2.00000
 804.83;  -66.933;  -83.867;    0.000;16.93333
 805.09;  -51.000;  -67.400;    0.000;16.40000
 805.34;  -50.867;  -80.267;    0.000;29.40001
 805.59;  -64.600;  -64.467;    0.000;-0.13333
 805.85;  -83.333;  -92.267;    0.000; 8.93333
 806.10;  -48.667;  -48.733;    0.000; 0.06667
 806.35;  -40.667;  -70.267;    0.000;29.60000
 806.61;  -43.933;  -53.067;    0.000; 9.13333
 806.86;  -53.400;  -91.600;    0.000;38.20000
 807.11;  -47.067;  -66.467;    0.000;19.40000
 807.37;  -38.800;  -62.600;    0.000;23.80000
 807.62;  -47.667;  -53.467;    0.000; 5.80000
 807.87;  -44.667;  -81.933;    0.000;37.26667
 808.13;  -60.333;  -67.267;    0.000; 6.93334
 808.38;  -54.333;  -85.467;    0.000;31.13334
 808.63;  -50.600;  -65.133;    0.000;14.53333
 808.89;  -71.400;  -86.133;    0.000;14.73333
 809.14;  -52.267;  -60.533;    0.000; 8.26667
 809.39;  -63.200;  -71.800;    0.000; 8.60000
 809.65;  -62.800;  -54.200;    0.000;-8.60000
 809.90;  -74.667;  -97.800;    0.000;23.13334
 810.15;  -52.600;  -59.600;    0.000; 7.00000
 810.41;  -51.333;  -91.133;    0.000;39.80000
 810.66;  -69.400;  -75.200;    0.000; 5.80000
 810.91;  -56.867;  -77.000;    0.000;20.13334
 811.16;  -58.000;  -56.867;    0.000;-1.13334
 811.42;  -51.267;  -87.067;    0.000;35.80000
 811.67;  -59.067;  -71.933;    0.000;12.86667
 811.92;  -61.533;  -98.000;    0.000;36.46667
 812.18;  -49.333;  -60.533;    0.000;11.20000
 812.43;  -56.600;  -80.267;    0.000;23.66667
 812.68;  -53.000;  -54.600;    0.000; 1.60000
 812.93;  -56.067;  -92.933;    0.000;36.86667
 813.19;  -46.733;  -42.800;    0.000;-3.93333
 813.44;  -50.933;  -83.400;    0.000;32.46667
 813.69;  -40.133;  -44.800;    0.000; 4.66666
 813.95;  -41.200;  -87.800;    0.000;46.60000
 814.20;  -56.667;  -63.200;    0.000; 6.53333
 814.45;  -68.667;  -97.733;    0.000;29.06667
 814.70;  -55.200;  -75.600;    0.000;20.40000
 814.96;  -76.600;  -79.000;    0.000; 2.40000
 815.21;  -48.000;  -62.733;    0.000;14.73333
 815.46;  -46.400; -105.733;    0.000;59.33333
 815.71;  -55.733;  -66.200;    0.000;10.46666
 815.96;  -45.333;  -79.400;    0.000;34.06667
 816.22;  -66.133;  -66.733;    0.000; 0.60000
 816.47;  -71.600;  -93.867;    0.000;22.26667
 816.72;  -50.733;  -48.400;    0.000;-2.33333
 816.97;  -46.800;  -71.000;    0.000;24.20000
 817.23;  -48.933;  -58.267;    0.000; 9.33333
 817.48;  -57.667;  -88.667;    0.000;31.00000
 817.73;  -63.867;  -74.400;    0.000;10.53334
 817.98;  -41.000;  -93.200;    0.000;52.20000
 818.23;  -47.267;  -60.733;    0.000;13.46667
 818.49;  -51.933;  -63.933;    0.000;12.00000
 818.74;  -41.400;  -54.400;    0.000;13.00000
 818.99;  -65.267;  -81.667;    0.000;16.39999
 819.24;  -28.000;  -42.933;    0.000;14.93333
 819.50;  -64.067;  -87.600;    0.000;23.53333
 819.75;  -56.200;  -58.333;    0.000; 2.13333
 820.00;  -32.267;  -70.467;    0.000;38.20000
 820.25;  -61.133;  -53.933;    0.000;-7.20000
 820.50;  -48.467;  -84.933;    0.000;36.46667
 820.75;  -22.467;  -62.600;    0.000;40.13333
 821.01;  -48.933;  -79.267;    0.000;30.33334
 821.26;  -55.067;  -58.400;    0.000; 3.33334
 821.51;  -38.000;  -73.800;    0.000;35.80000
 821.76;  -65.000;  -74.333;    0.000; 9.33334
 822.01;  -53.200;  -82.933;    0.000;29.73333
 822.26;  -63.200;  -55.667;    0.000;-7.53333
 822.52;  -46.800;  -79.667;    0.000;32.86666
 822.77;  -54.600;  -61.067;    0.000; 6.46667
 823.02;  -66.933;  -92.867;    0.000;25.93333
 823.27;  -68.067;  -59.933;    0.000;-8.13333
 823.52;  -60.467;  -79.000;    0.000;18.53333
 823.77;  -74.867;  -67.667;    0.000;-7.20000
 824.03;  -58.200;  -71.867;    0.000;13.66667
 824.28;  -62.467;  -62.267;    0.000;-0.20000
 824.53;  -45.733;  -84.333;    0.000;38.60000
 824.78;  -45.867;  -47.000;    0.000; 1.13334
 825.03;  -78.400;  -90.467;    0.000;12.06667
 825.28;  -39.933;  -57.467;    0.000;17.53333
 825.53;  -51.600;  -74.800;    0.000;23.20000
 825.78;  -56.200;  -49.267;    0.000;-6.93333
 826.04;  -57.867;  -92.667;    0.000;34.80000
 826.29;  -65.733;  -72.533;    0.000; 6.80000
 826.54;  -49.933;  -85.267;    0.000;35.33334
 826.79;  -46.933;  -51.200;    0.000; 4.26667
 827.04;  -79.800;  -92.867;    0.000;13.06667
 827.29;  -50.133;  -64.000;    0.000;13.86666
 827.54;  -60.267;  -77.267;    0.000;17.00000
 827.79;  -62.467;  -57.867;    0.000;-4.60000
 828.04;  -48.600;  -75.267;    0.000;26.66667
 828.29;  -71.333;  -67.067;    0.000;-4.26667
 828.55;  -72.133;  -74.600;    0.000; 2.46667
 828.80;  -46.400;  -60.267;    0.000;13.86666
 829.05;  -50.000;  -85.333;    0.000;35.33334
 829.30;  -53.067;  -82.533;    0.000;29.46667
 829.55;  -55.733;  -78.133;    0.000;22.40000
 829.80;  -75.000;  -63.133;    0.000;-11.86666
 830.05;  -52.867;  -73.800;    0.000;20.93334
 830.30;  -64.800;  -69.533;    0.000; 4.73333
 830.55;  -58.600;  -91.600;    0.000;33.00000
 830.80;  -91.333;  -68.467;    0.000;-22.86667
 831.05;  -70.667;  -75.200;    0.000; 4.53333
 831.30;  -60.133;  -54.933;    0.000;-5.20000
 831.55;  -50.067; -110.333;    0.000;60.26667
 831.80;  -46.733;  -70.267;    0.000;23.53334
 832.05;  -47.067;  -75.533;    0.000;28.46667
 832.30;  -48.333;  -55.333;    0.000; 7.00000
 832.56;  -63.667;  -75.467;    0.000;11.80000
 832.81;  -75.067;  -69.667;    0.000;-5.40000
 833.06;  -51.867;  -88.267;    0.000;36.40001
 833.31;  -70.467;  -78.200;    0.000; 7.73333
 833.56;  -42.200;  -74.533;    0.000;32.33333
 833.81;  -55.000;  -47.133;    0.000;-7.86666
 834.06;  -36.600;  -83.600;    0.000;47.00000
 834.31;  -50.933;  -79.133;    0.000;28.20000
 834.56;  -58.267;  -79.933;    0.000;21.66667
 834.81;  -59.133;  -72.867;    0.000;13.73333
 835.06;  -72.667;  -79.533;    0.000; 6.86667
 835.31;  -45.333;  -51.000;    0.000; 5.66667
 835.56;  -48.467;  -71.333;    0.000;22.86667
 835.81;  -63.533;  -72.333;    0.000; 8.80000
 836.06;  -48.667;  -64.800;    0.000;16.13334
 836.31;  -82.267;  -71.200;    0.000;-11.06667
 836.56;  -54.933;  -78.933;    0.000;24.00000
 836.81;  -70.667;  -74.400;    0.000; 3.73334
 837.06;  -54.467;  -71.667;    0.000;17.20000
 837.31;  -67.467;  -79.200;    0.000;11.73333
 837.56;  -73.467;  -93.733;    0.000;20.26666
 837.81;  -70.733;  -52.467;    0.000;-18.26666
 838.06;  -62.933;  -77.267;    0.000;14.33334
 838.31;  -57.800;  -74.000;    0.000;16.20000
 838.56;  -72.333;  -79.400;    0.000; 7.06667
 838.80;  -74.067;  -73.933;    0.000;-0.13333
 839.05;  -52.467;  -90.533;    0.000;38.06667
 839.30;  -45.333;  -48.067;    0.000; 2.73333
 839.55;  -39.200;  -95.733;    0.000;56.53333
 839.80;  -41.067;  -63.400;    0.000;22.33334
 840.05;  -58.733;  -93.000;    0.000;34.26667
 840.30;  -61.533;  -57.667;    0.000;-3.86666
 840.55;  -56.400;  -63.267;    0.000; 6.86666
 840.80;  -50.733;  -42.000;    0.000;-8.73333
 841.05;  -45.867;  -77.867;    0.000;32.00000
 841.30;  -45.333;  -67.600;    0.000;22.26667
 841.55;  -53.733;  -83.733;    0.000;30.00000
 841.80;  -64.533;  -62.000;    0.000;-2.53333
 842.05;  -67.800;  -79.600;    0.000;11.80000
 842.30;  -61.667;  -76.667;    0.000;15.00000
 842.55;  -64.733;  -92.667;    0.000;27.93333
 842.79;  -78.333;  -82.400;    0.000; 4.06667
 843.04;  -60.933;  -71.800;    0.000;10.86667
 843.29;  -47.267;  -50.000;    0.000; 2.73333
 843.54;  -65.467;  -64.533;    0.000;-0.93333
 843.79;  -73.200;  -57.200;    0.000;-16.00000
 844.04;  -59.733;  -79.400;    0.000;19.66667
 844.29;  -61.467;  -84.400;    0.000;22.93333
 844.54;  -62.133;  -86.467;    0.000;24.33333
 844.79;  -62.800;  -65.200;    0.000; 2.40000
 845.04;  -48.733;  -84.133;    0.000;35.40000
 845.28;  -82.000;  -56.067;    0.000;-25.93333
 845.53;  -67.400;  -90.333;    0.000;22.93333
 845.78;  -39.333;  -51.400;    0.000;12.06667
 846.03;  -54.667;  -73.267;    0.000;18.60000
 846.28;  -63.133;  -73.400;    0.000;10.26667
 846.53;  -50.333;  -82.133;    0.000;31.80000
 846.78;  -45.267;  -74.067;    0.000;28.80000
 847.02;  -52.200;  -86.600;    0.000;34.40000
 847.27;  -67.800;  -82.133;    0.000;14.33333
 847.52;  -64.600;  -97.400;    0.000;32.80000
 847.77;  -58.667;  -68.800;    0.000;10.13334
 848.02;  -61.667;  -69.667;    0.000; 8.00000
 848.27;  -65.000;  -54.133;    0.000;-10.86666
 848.52;  -71.800;  -99.333;    0.000;27.53333
 848.76;  -33.800;  -66.533;    0.000;32.73333
 849.01;  -38.467;  -64.733;    0.000;26.26666
 849.26;  -67.667;  -52.333;    0.000;-15.33333
 849.51;  -69.400;  -70.533;    0.000; 1.13333
 849.76;  -69.133;  -62.133;    0.000;-7.00000
 850.01;  -57.333;  -87.867;    0.000;30.53334
 850.25;  -49.000;  -73.133;    0.000;24.13333
 850.50;  -77.800;  -75.800;    0.000;-2.00000
 850.75;  -49.533;  -51.600;    0.000; 2.06667
 851.00;  -59.400;  -88.267;    0.000;28.86667
 851.25;  -49.067;  -46.733;    0.000;-2.33333
 851.49;  -56.533;  -67.667;    0.000;11.13333
 851.74;  -75.400;  -72.133;    0.000;-3.26667
 851.99;  -63.933;  -96.133;    0.000;32.20000
 852.24;  -62.267;  -64.267;    0.000; 2.00000
 852.49;  -64.667;  -96.067;    0.000;31.40000
 852.73;  -76.200;  -64.533;    0.000;-11.66666
 852.98;  -52.667;  -86.200;    0.000;33.53333
 853.23;  -79.733;  -65.800;    0.000;-13.93333
 853.48;  -47.867;  -79.333;    0.000;31.46667
 853.73;  -61.800;  -69.400;    0.000; 7.60000
 853.97;  -67.800;  -94.600;    0.000;26.80000
 854.22;  -80.467;  -63.267;    0.000;-17.20000
 854.47;  -63.733;  -88.400;    0.000;24.66667
 854.72;  -69.000;  -62.067;    0.000;-6.93333
 854.96;  -74.133;  -87.933;    0.000;13.80000
 855.21;  -56.733;  -53.000;    0.000;-3.73333
 855.46;  -61.533;  -77.467;    0.000;15.93333
 855.71;  -75.800;  -73.400;    0.000;-2.40000
 855.95;  -52.667;  -70.933;    0.000;18.26667
 856.20;  -56.000;  -64.933;    0.000; 8.93333
 856.45;  -54.400; -101.067;    0.000;46.66666
 856.70;  -63.733;  -62.800;    0.000;-0.93333
 856.94;  -80.600;  -78.000;    0.000;-2.60000
 857.19;  -41.400;  -57.333;    0.000;15.93333
 857.44;  -52.200;  -82.800;    0.000;30.60000
 857.69;  -59.400;  -51.000;    0.000;-8.40000
 857.93;  -83.933;  -75.467;    0.000;-8.46667
 858.18;  -62.600;  -34.533;    0.000;-28.06667
 858.43;  -70.133;  -67.200;    0.000;-2.93333
 858.67;  -54.467;  -46.933;    0.000;-7.53333
 858.92;  -67.400;  -79.133;    0.000;11.73333
 859.17;  -42.800;  -42.267;    0.000;-0.53333
 859.42;  -70.333;  -91.933;    0.000;21.60000
 859.66;  -77.067;  -51.533;    0.000;-25.53333
 859.91;  -67.800;  -84.800;    0.000;17.00000
 860.16;  -68.867;  -74.133;    0.000; 5.26666
 860.40;  -62.600;  -88.733;    0.000;26.13333
 860.65;  -52.000;  -81.267;    0.000;29.26667
 860.90;  -72.667; -117.600;    0.000;44.93333
 861.14;  -72.933;  -56.400;    0.000;-16.53333
 861.39;  -60.200;  -79.200;    0.000;19.00000
 861.64;  -67.333;  -63.067;    0.000;-4.26667
 861.88;  -62.200;  -93.467;    0.000;31.26667
 862.13;  -69.267;  -59.067;    0.000;-10.20000
 862.38;  -63.400; -103.800;    0.000;40.40000
 862.62;  -69.200;  -56.667;    0.000;-12.53333
 862.87;  -71.533;  -77.133;    0.000; 5.60000
 863.12;  -76.600;  -67.000;    0.000;-9.60000
 863.36;  -60.533;  -85.933;    0.000;25.40000
 863.61;  -71.800;  -57.200;    0.000;-14.60000
 863.86;  -68.333;  -74.667;    0.000; 6.33333
 864.10;  -54.067;  -62.933;    0.000; 8.86667
 864.35;  -60.800;  -90.400;    0.000;29.60000
 864.60;  -60.733;  -64.800;    0.000; 4.06667
 864.84;  -58.533;  -82.533;    0.000;24.00000
 865.09;  -63.600;  -54.667;    0.000;-8.93333
 865.33;  -85.533;  -84.733;    0.000;-0.80000
 865.58;  -59.400;  -54.333;    0.000;-5.06667
 865.83;  -61.400;  -81.933;    0.000;20.53333
 866.07;  -80.267;  -64.467;    0.000;-15.80000
 866.32;  -41.933;  -61.800;    0.000;19.86666
 866.57;  -50.533;  -52.067;    0.000; 1.53333
 866.81;  -78.467;  -85.200;    0.000; 6.73333
 867.06;  -60.467;  -78.133;    0.000;17.66666
 867.30;  -56.333;  -83.267;    0.000;26.93334
 867.55;  -51.933;  -62.000;    0.000;10.06667
 867.80;  -58.867;  -73.067;    0.000;14.20000
 868.04;  -72.933;  -66.133;    0.000;-6.80000
 868.29;  -63.067;  -87.067;    0.000;24.00000
 868.53;  -57.000;  -42.000;    0.000;-15.00000
 868.78;  -61.867;  -99.200;    0.000;37.33333
 869.03;  -56.067;  -67.400;    0.000;11.33334
 869.27;  -75.467;  -58.800;    0.000;-16.66667
 869.52;  -55.867;  -67.800;    0.000;11.93334
 869.76;  -58.467;  -80.200;    0.000;21.73333
 870.01;  -70.467;  -62.533;    0.000;-7.93333
 870.25;  -66.867;  -81.933;    0.000;15.06667
 870.50;  -53.667;  -67.467;    0.000;13.80000
 870.75;  -60.667;  -69.067;    0.000; 8.40000
 870.99;  -62.933;  -52.467;    0.000;-10.46667
 871.24;  -53.267;  -73.467;    0.000;20.20000
 871.48;  -64.800;  -48.933;    0.000;-15.86667
 871.73;  -68.133;  -74.467;    0.000; 6.33334
 871.97;  -69.600;  -62.267;    0.000;-7.33333
 872.22;  -66.200;  -90.267;    0.000;24.06667
 872.46;  -60.467;  -67.000;    0.000; 6.53333
 872.71;  -59.533;  -82.600;    0.000;23.06667
 872.95;  -72.067;  -56.667;    0.000;-15.40000
 873.20;  -52.267;  -77.000;    0.000;24.73333
 873.44;  -52.133;  -74.333;    0.000;22.20000
 873.69;  -90.600;  -79.933;    0.000;-10.66666
 873.94;  -59.400;  -39.067;    0.000;-20.33334
 874.18;  -73.333;  -95.400;    0.000;22.06667
 874.43;  -54.267;  -48.867;    0.000;-5.40000
 874.67;  -46.467;  -92.733;    0.000;46.26666
 874.92;  -46.600;  -45.267;    0.000;-1.33333
 875.16;  -65.733;  -77.267;    0.000;11.53334
 875.41;  -62.133;  -62.267;    0.000; 0.13333
 875.65;  -48.467;  -77.533;    0.000;29.06667
 875.90;  -59.133;  -48.467;    0.000;-10.66667
 876.14;  -67.800;  -91.267;    0.000;23.46667
 876.39;  -43.067;  -44.933;    0.000; 1.86667
 876.63;  -68.400;  -85.667;    0.000;17.26666
 876.88;  -48.867;  -72.533;    0.000;23.66667
 877.12;  -58.400;  -55.533;    0.000;-2.86667
 877.36;  -65.867;  -60.267;    0.000;-5.60000
 877.61;  -54.067;  -95.533;    0.000;41.46667
 877.85;  -71.867;  -57.733;    0.000;-14.13334
 878.10;  -72.867;  -75.333;    0.000; 2.46667
 878.34;  -51.667;  -41.600;    0.000;-10.06667
 878.59;  -35.133;  -46.600;    0.000;11.46666
 878.83;  -69.733;  -69.467;    0.000;-0.26666
 879.08;  -45.600;  -51.467;    0.000; 5.86667
 879.32;  -70.133;  -47.400;    0.000;-22.73333
 879.57;  -53.200;  -67.667;    0.000;14.46666
 879.81;  -48.400;  -48.000;    0.000;-0.40000
 880.05;  -59.333;  -69.200;    0.000; 9.86666
 880.30;  -56.667;  -58.000;    0.000; 1.33333
 880.54;  -71.733;  -86.733;    0.000;15.00000
 880.79;  -70.933;  -61.000;    0.000;-9.93333
 881.03;  -63.200;  -91.933;    0.000;28.73333
 881.28;  -52.400;  -36.267;    0.000;-16.13334
 881.52;  -67.933;  -78.000;    0.000;10.06667
 881.76;  -61.600;  -62.867;    0.000; 1.26667
 882.01;  -60.733;  -75.933;    0.000;15.20000
 882.25;  -51.933;  -60.600;    0.000; 8.66666
 882.50;  -82.800;  -77.067;    0.000;-5.73334
 882.74;  -51.533;  -38.600;    0.000;-12.93333
 882.98;  -66.400;  -72.800;    0.000; 6.40000
 883.23;  -70.600;  -55.133;    0.000;-15.46666
 883.47;  -59.000;  -75.400;    0.000;16.40000
 883.72;  -55.000;  -52.467;    0.000;-2.53333
 883.96;  -40.467;  -72.800;    0.000;32.33334
 884.20;  -53.467;  -52.400;    0.000;-1.06667
 884.45;  -49.667;  -66.200;    0.000;16.53333
 884.69;  -60.133;  -50.533;    0.000;-9.60000
 884.94;  -43.333;  -54.533;    0.000;11.20000
 885.18;  -57.133;  -44.400;    0.000;-12.73333
 885.42;  -58.533;  -83.333;    0.000;24.80000
 885.67;  -59.533;  -44.200;    0.000;-15.33333
 885.91;  -55.600;  -75.467;    0.000;19.86667
 886.15;  -55.000;  -59.133;    0.000; 4.13334
 886.40;  -43.333;  -52.800;    0.000; 9.46667
 886.64;  -65.000;  -47.667;    0.000;-17.33333
 886.88;  -58.467;  -53.333;    0.000;-5.13334
 887.13;  -56.333;  -38.400;    0.000;-17.93333
 887.37;  -53.667;  -81.600;    0.000;27.93333
 887.62;  -52.333;  -42.867;    0.000;-9.46667
 887.86;  -46.267;  -60.933;    0.000;14.66667
 888.10;  -55.400;  -46.000;    0.000;-9.40000
 888.35;  -35.400;  -61.467;    0.000;26.06667
 888.59;  -49.067;  -58.200;    0.000; 9.13334
 888.83;  -55.067;  -61.000;    0.000; 5.93333
 889.07;  -51.867;  -49.133;    0.000;-2.73333
 889.32;  -61.467;  -78.133;    0.000;16.66666
 889.56;  -41.200;  -22.467;    0.000;-18.73333
 889.80;  -52.000;  -57.267;    0.000; 5.26667
 890.05;  -46.000;  -65.600;    0.000;19.60000
 890.29;  -42.933;  -52.200;    0.000; 9.26667
 890.53;  -67.533;  -46.200;    0.000;-21.33333
 890.78;  -49.333;  -86.867;    0.000;37.53334
 891.02;  -52.000;  -39.000;    0.000;-13.00000
 891.26;  -78.600;  -72.600;    0.000;-6.00000
 891.51;  -57.867;  -46.600;    0.000;-11.26667
 891.75;  -32.333;  -59.067;    0.000;26.73333
 891.99;  -67.867;  -36.467;    0.000;-31.40000
 892.23;  -38.533;  -54.133;    0.000;15.60000
 892.48;  -29.600;  -42.267;    0.000;12.66667
 892.72;  -28.800;  -44.933;    0.000;16.13334
 892.96;  -31.933;  -28.333;    0.000;-3.60000
 893.20;  -43.667;  -37.533;    0.000;-6.13334
 893.45;  -55.800;  -40.933;    0.000;-14.86666
 893.69;  -48.933;  -60.133;    0.000;11.20000
 893.93;  -40.333;  -18.067;    0.000;-22.26666
 894.17;  -49.533;  -71.067;    0.000;21.53333
 894.42;  -32.667;  -30.067;    0.000;-2.60000
 894.66;  -50.533;  -54.267;    0.000; 3.73333
 894.90;  -41.267;  -40.267;    0.000;-1.00000
 895.14;  -34.800;  -29.533;    0.000;-5.26667
 895.39;  -39.000;  -48.267;    0.000; 9.26667
 895.63;  -44.800;  -44.333;    0.000;-0.46667
 895.87;  -55.600;  -42.000;    0.000;-13.60000
 896.11;  -17.600;  -34.667;    0.000;17.06667
 896.36;   -7.000;  -26.000;    0.000;19.00000
 896.60;  -32.267;  -37.800;    0.000; 5.53333
 896.84;  -23.133;  -17.333;    0.000;-5.80000
 897.08;  -27.400;  -43.867;    0.000;16.46667
 897.32;  -32.400;  -13.067;    0.000;-19.33333
 897.57;  -12.400;  -42.800;    0.000;30.40000
 897.81;  -11.867;  -30.000;    0.000;18.13333
 898.05;    3.200;  -46.533;    0.000;49.73333
 898.29;   -4.933;  -11.667;    0.000; 6.73333
 898.53;  -29.933;  -24.000;    0.000;-5.93333
 898.78;  -18.533;   -1.333;    0.000;-17.20000
 899.02;    9.133;  -25.600;    0.000;34.73333
 899.26;   17.133;   -2.400;    0.000;19.53333
 899.50;   36.400;   15.933;    0.000;20.46667
 899.74;   10.600;   13.400;    0.000;-2.80000
 899.99;   11.533;  -20.400;    0.000;31.93333
 900.23;    7.400;   12.400;    0.000;-5.00000
 900.47;   18.000;   -2.067;    0.000;20.06667
 900.71;   17.733;   37.067;    0.000;-19.33333
 900.95;   40.867;   21.200;    0.000;19.66666
 901.19;   61.133;   43.800;    0.000;17.33334
 901.44;   56.067;   44.733;    0.000;11.33333
 901.68;   92.000;   90.733;    0.000; 1.26667
 901.92;   80.933;   66.133;    0.000;14.80000
 902.16;   87.867;   85.867;    0.000; 2.00000
 902.40;  127.333;   91.933;    0.000;35.40000
 902.64;  136.067;  139.933;    0.000;-3.86667
 902.88;  143.800;  136.067;    0.000; 7.73334
 903.13;  164.533;  183.600;    0.000;-19.06667

