point3
Integration time [ms]:  15.000
Averaging Nr. [scans]: 15
Smoothing Nr. [pixels]: 0
Data measured with spectrometer [name]: 1307078U2
Wave   ;Sample   ;Dark     ;Reference;Scope Corrected for Dark
[nm]   ;[counts] ;[counts] ;[counts] 

 351.07;    2.733;  -29.133;    0.000;31.86667
 351.37;    6.200;    1.067;    0.000; 5.13333
 351.66;   11.600;    0.600;    0.000;11.00000
 351.95;    5.667;   -9.067;    0.000;14.73333
 352.24;    0.067;  -24.533;    0.000;24.60000
 352.54;   13.733;    3.533;    0.000;10.20000
 352.83;   -1.333;  -17.533;    0.000;16.20000
 353.12;   18.667;    2.067;    0.000;16.60000
 353.42;   10.400;  -14.733;    0.000;25.13333
 353.71;   19.000;  -14.600;    0.000;33.60000
 354.00;   11.067;  -14.667;    0.000;25.73333
 354.30;   -1.400;   -3.533;    0.000; 2.13333
 354.59;   -2.600;  -31.933;    0.000;29.33333
 354.88;   13.267;  -11.267;    0.000;24.53333
 355.17;   -7.200;  -30.667;    0.000;23.46667
 355.47;   -3.333;   -7.667;    0.000; 4.33333
 355.76;   11.533;   -6.800;    0.000;18.33333
 356.05;   16.067;    8.733;    0.000; 7.33333
 356.35;  -14.267;  -20.467;    0.000; 6.20000
 356.64;   14.467;   18.200;    0.000;-3.73333
 356.93;   18.667;  -14.200;    0.000;32.86667
 357.22;   23.800;   14.600;    0.000; 9.20000
 357.52;    8.667;  -25.533;    0.000;34.20000
 357.81;   19.600;   19.667;    0.000;-0.06667
 358.10;  -15.600;  -13.467;    0.000;-2.13333
 358.39;    5.133;    2.600;    0.000; 2.53333
 358.69;    4.267;    0.200;    0.000; 4.06667
 358.98;  -16.733;   -2.267;    0.000;-14.46667
 359.27;   -4.333;  -23.733;    0.000;19.40000
 359.57;   20.400;    9.133;    0.000;11.26667
 359.86;    7.467;    0.200;    0.000; 7.26667
 360.15;   22.667;   13.867;    0.000; 8.80000
 360.44;   -9.200;  -12.000;    0.000; 2.80000
 360.74;   21.067;   -1.733;    0.000;22.80000
 361.03;    1.067;  -25.667;    0.000;26.73333
 361.32;   -6.000;    3.800;    0.000;-9.80000
 361.61;   -3.400;  -37.733;    0.000;34.33333
 361.91;    2.933;   17.600;    0.000;-14.66667
 362.20;  -10.667;  -21.600;    0.000;10.93333
 362.49;   15.067;    3.800;    0.000;11.26667
 362.78;    9.200;   -3.933;    0.000;13.13333
 363.08;   -0.867;    8.067;    0.000;-8.93333
 363.37;    6.467;  -13.667;    0.000;20.13333
 363.66;    2.933;   27.333;    0.000;-24.40000
 363.95;  -13.133;  -36.733;    0.000;23.60000
 364.24;   25.933;    6.000;    0.000;19.93333
 364.54;    9.667;  -14.400;    0.000;24.06667
 364.83;    1.333;   11.867;    0.000;-10.53333
 365.12;    6.133;  -19.000;    0.000;25.13333
 365.41;    6.800;   29.200;    0.000;-22.40000
 365.71;   -0.533;  -17.333;    0.000;16.80000
 366.00;    0.067;   -8.267;    0.000; 8.33333
 366.29;  -13.933;  -24.133;    0.000;10.20000
 366.58;   11.733;   -8.533;    0.000;20.26667
 366.87;   15.200;   -6.267;    0.000;21.46667
 367.17;   34.733;    1.133;    0.000;33.60000
 367.46;   -1.733;  -21.333;    0.000;19.60000
 367.75;    6.600;    6.333;    0.000; 0.26667
 368.04;  -11.667;  -16.200;    0.000; 4.53333
 368.34;    1.267;    3.000;    0.000;-1.73333
 368.63;  -11.200;  -20.667;    0.000; 9.46667
 368.92;   19.067;    2.067;    0.000;17.00000
 369.21;   11.467;    3.067;    0.000; 8.40000
 369.50;    3.333;    7.933;    0.000;-4.60000
 369.80;    9.533;  -15.400;    0.000;24.93333
 370.09;   18.200;    5.533;    0.000;12.66667
 370.38;    9.333;  -22.867;    0.000;32.20000
 370.67;    8.867;   -5.000;    0.000;13.86667
 370.96;  -10.600;  -14.067;    0.000; 3.46667
 371.26;    6.933;   -6.867;    0.000;13.80000
 371.55;    1.000;  -33.467;    0.000;34.46667
 371.84;    5.600;   -8.267;    0.000;13.86667
 372.13;   17.067;   -8.733;    0.000;25.80000
 372.42;   -2.533;   -8.733;    0.000; 6.20000
 372.71;    5.400;   -1.800;    0.000; 7.20000
 373.01;   10.200;   -5.733;    0.000;15.93333
 373.30;   -3.933;  -22.067;    0.000;18.13333
 373.59;   -2.867;   -5.400;    0.000; 2.53333
 373.88;    1.333;  -15.667;    0.000;17.00000
 374.17;   26.400;   23.400;    0.000; 3.00000
 374.46;   -1.733;  -22.067;    0.000;20.33333
 374.76;   13.467;  -10.733;    0.000;24.20000
 375.05;   10.333;   -3.067;    0.000;13.40000
 375.34;   13.200;  -14.933;    0.000;28.13333
 375.63;    3.267;  -17.200;    0.000;20.46667
 375.92;   11.933;   -1.800;    0.000;13.73333
 376.21;  -12.200;  -28.200;    0.000;16.00000
 376.51;   -8.533;  -18.867;    0.000;10.33333
 376.80;   16.133;  -29.133;    0.000;45.26667
 377.09;   -1.933;   11.733;    0.000;-13.66667
 377.38;    2.667;  -10.067;    0.000;12.73333
 377.67;   -1.933;   -1.600;    0.000;-0.33333
 377.96;   -9.067;  -24.000;    0.000;14.93333
 378.25;    4.267;   11.667;    0.000;-7.40000
 378.55;  -21.867;  -23.133;    0.000; 1.26667
 378.84;   12.267;   -4.067;    0.000;16.33333
 379.13;   19.533;  -22.667;    0.000;42.20000
 379.42;  -11.333;   -7.267;    0.000;-4.06667
 379.71;    3.000;  -18.733;    0.000;21.73333
 380.00;   14.867;   23.467;    0.000;-8.60000
 380.29;   -2.600;  -15.733;    0.000;13.13333
 380.59;   -1.200;    2.133;    0.000;-3.33333
 380.88;  -16.333;  -13.667;    0.000;-2.66667
 381.17;  -17.933;   -5.333;    0.000;-12.60000
 381.46;   19.667;   -2.133;    0.000;21.80000
 381.75;   12.067;   -5.133;    0.000;17.20000
 382.04;   -3.800;  -12.533;    0.000; 8.73333
 382.33;    7.933;   14.600;    0.000;-6.66667
 382.62;  -16.867;  -32.133;    0.000;15.26667
 382.91;   -0.400;    5.533;    0.000;-5.93333
 383.21;   -4.333;  -28.600;    0.000;24.26667
 383.50;   -0.867;  -18.067;    0.000;17.20000
 383.79;    2.133;  -37.533;    0.000;39.66667
 384.08;   -1.733;    0.200;    0.000;-1.93333
 384.37;   -4.733;  -32.467;    0.000;27.73333
 384.66;   -5.533;   -4.933;    0.000;-0.60000
 384.95;    7.667;  -25.867;    0.000;33.53333
 385.24;   -7.000;  -17.400;    0.000;10.40000
 385.53;  -10.600;   -4.800;    0.000;-5.80000
 385.83;   -6.600;  -14.267;    0.000; 7.66667
 386.12;    2.733;  -13.133;    0.000;15.86667
 386.41;   -9.000;   -7.067;    0.000;-1.93333
 386.70;   -7.667;  -28.267;    0.000;20.60000
 386.99;    3.600;    9.667;    0.000;-6.06667
 387.28;   11.733;  -11.200;    0.000;22.93333
 387.57;   -4.333;   -1.200;    0.000;-3.13333
 387.86;   -3.133;  -29.667;    0.000;26.53333
 388.15;   17.267;   10.667;    0.000; 6.60000
 388.44;   -6.533;  -33.933;    0.000;27.40000
 388.73;   11.267;   -3.800;    0.000;15.06667
 389.02;   -7.600;  -29.867;    0.000;22.26667
 389.31;    8.133;   -3.400;    0.000;11.53333
 389.61;   -4.800;  -22.600;    0.000;17.80000
 389.90;    6.467;    3.400;    0.000; 3.06667
 390.19;   -3.200;  -35.000;    0.000;31.80000
 390.48;   -1.200;   -6.267;    0.000; 5.06667
 390.77;    1.867;  -17.533;    0.000;19.40000
 391.06;   -6.533;  -17.667;    0.000;11.13333
 391.35;   -6.333;  -27.867;    0.000;21.53333
 391.64;   16.867;   13.733;    0.000; 3.13333
 391.93;   -3.467;  -24.467;    0.000;21.00000
 392.22;  -12.467;    0.933;    0.000;-13.40000
 392.51;   13.067;  -20.600;    0.000;33.66667
 392.80;   13.533;   10.667;    0.000; 2.86667
 393.09;   -2.667;  -39.000;    0.000;36.33333
 393.38;   -1.200;    2.133;    0.000;-3.33333
 393.67;  -10.733;  -34.333;    0.000;23.60000
 393.96;    6.467;    4.000;    0.000; 2.46667
 394.25;   -8.867;  -19.800;    0.000;10.93333
 394.54;    6.267;  -12.933;    0.000;19.20000
 394.83;   -6.467;  -25.867;    0.000;19.40000
 395.13;   -6.600;  -10.267;    0.000; 3.66667
 395.42;    5.933;  -30.600;    0.000;36.53333
 395.71;   10.067;   -1.467;    0.000;11.53333
 396.00;    7.000;  -35.267;    0.000;42.26667
 396.29;   -8.000;   -3.133;    0.000;-4.86667
 396.58;   -0.533;  -35.533;    0.000;35.00000
 396.87;    3.667;   -0.733;    0.000; 4.40000
 397.16;  -12.733;  -18.733;    0.000; 6.00000
 397.45;   -6.733;   -3.067;    0.000;-3.66667
 397.74;    8.200;  -38.600;    0.000;46.80000
 398.03;   -4.800;  -15.000;    0.000;10.20000
 398.32;  -15.733;  -30.333;    0.000;14.60000
 398.61;  -15.133;   -2.000;    0.000;-13.13333
 398.90;    7.933;  -14.800;    0.000;22.73333
 399.19;    5.467;    7.667;    0.000;-2.20000
 399.48;  -19.000;  -27.867;    0.000; 8.86667
 399.77;   20.467;    8.600;    0.000;11.86667
 400.06;    0.267;  -19.867;    0.000;20.13333
 400.35;    4.667;   -2.067;    0.000; 6.73333
 400.64;   -4.333;  -49.067;    0.000;44.73333
 400.93;   24.667;    5.800;    0.000;18.86667
 401.22;  -18.800;  -34.600;    0.000;15.80000
 401.51;    9.933;    3.267;    0.000; 6.66667
 401.80;  -15.400;  -19.067;    0.000; 3.66667
 402.09;   17.533;  -19.067;    0.000;36.60000
 402.38;  -20.267;  -10.800;    0.000;-9.46667
 402.67;   22.000;   -3.333;    0.000;25.33333
 402.96;  -15.400;  -16.533;    0.000; 1.13333
 403.25;   11.533;    7.200;    0.000; 4.33333
 403.54;   -3.533;  -19.133;    0.000;15.60000
 403.83;    1.733;    2.200;    0.000;-0.46667
 404.12;   -7.333;  -28.600;    0.000;21.26667
 404.41;   16.000;    0.400;    0.000;15.60000
 404.70;  -13.000;  -39.333;    0.000;26.33333
 404.98;   14.467;    3.400;    0.000;11.06667
 405.27;    1.133;  -12.533;    0.000;13.66667
 405.56;    7.667;    4.667;    0.000; 3.00000
 405.85;    0.667;  -31.267;    0.000;31.93333
 406.14;    1.133;   -6.467;    0.000; 7.60000
 406.43;  -16.000;   -8.000;    0.000;-8.00000
 406.72;  -13.200;   -2.600;    0.000;-10.60000
 407.01;   -2.667;  -38.133;    0.000;35.46667
 407.30;    6.467;  -13.133;    0.000;19.60000
 407.59;   -7.467;  -12.467;    0.000; 5.00000
 407.88;    1.133;   -3.800;    0.000; 4.93333
 408.17;   -0.200;  -12.267;    0.000;12.06667
 408.46;   18.933;  -19.533;    0.000;38.46667
 408.75;    2.867;  -28.133;    0.000;31.00000
 409.04;   13.600;    0.800;    0.000;12.80000
 409.33;   -6.267;  -27.933;    0.000;21.66667
 409.62;   -1.333;   11.733;    0.000;-13.06667
 409.91;  -12.067;  -25.467;    0.000;13.40000
 410.20;   -0.800;  -17.933;    0.000;17.13333
 410.48;    7.800;  -15.333;    0.000;23.13333
 410.77;    2.667;  -21.533;    0.000;24.20000
 411.06;    1.800;   -5.600;    0.000; 7.40000
 411.35;   20.267;    8.667;    0.000;11.60000
 411.64;   -2.467;  -21.933;    0.000;19.46667
 411.93;    3.933;   -8.133;    0.000;12.06667
 412.22;   -5.400;  -27.267;    0.000;21.86667
 412.51;   -4.333;   -9.133;    0.000; 4.80000
 412.80;  -14.600;  -15.533;    0.000; 0.93333
 413.09;   13.133;   -8.000;    0.000;21.13333
 413.38;    0.600;  -26.400;    0.000;27.00000
 413.67;   -7.733;   -9.533;    0.000; 1.80000
 413.96;  -23.200;  -33.000;    0.000; 9.80000
 414.24;   -4.267;   11.133;    0.000;-15.40000
 414.53;    1.600;   -7.867;    0.000; 9.46667
 414.82;  -13.133;  -10.400;    0.000;-2.73333
 415.11;   -8.667;  -13.333;    0.000; 4.66667
 415.40;   22.267;   -9.867;    0.000;32.13333
 415.69;   -5.867;  -31.933;    0.000;26.06667
 415.98;   -6.800;   -4.667;    0.000;-2.13333
 416.27;  -26.067;  -43.133;    0.000;17.06667
 416.56;   11.133;   -9.200;    0.000;20.33333
 416.84;   -7.933;   -8.467;    0.000; 0.53333
 417.13;   15.467;   -9.800;    0.000;25.26667
 417.42;  -15.667;  -14.133;    0.000;-1.53333
 417.71;    4.800;    2.667;    0.000; 2.13333
 418.00;   -4.200;  -34.200;    0.000;30.00000
 418.29;   -1.133;  -18.667;    0.000;17.53333
 418.58;    0.467;  -45.200;    0.000;45.66667
 418.87;    1.800;  -16.000;    0.000;17.80000
 419.15;   28.933;  -22.800;    0.000;51.73333
 419.44;   13.933;    8.867;    0.000; 5.06667
 419.73;    5.867;  -14.267;    0.000;20.13333
 420.02;   -2.133;   -5.867;    0.000; 3.73333
 420.31;   -1.933;  -38.000;    0.000;36.06667
 420.60;    7.333;  -26.067;    0.000;33.40000
 420.89;  -11.600;  -36.400;    0.000;24.80000
 421.18;   18.800;    6.067;    0.000;12.73333
 421.46;   -6.933;    0.000;    0.000;-6.93333
 421.75;   -0.600;    3.867;    0.000;-4.46667
 422.04;   -7.400;  -33.600;    0.000;26.20000
 422.33;   -5.400;   -1.200;    0.000;-4.20000
 422.62;    8.733;  -26.933;    0.000;35.66667
 422.91;    8.800;    0.733;    0.000; 8.06667
 423.19;  -14.333;  -30.133;    0.000;15.80000
 423.48;   13.600;   16.667;    0.000;-3.06667
 423.77;  -20.133;  -31.933;    0.000;11.80000
 424.06;    9.600;  -14.200;    0.000;23.80000
 424.35;  -12.200;  -41.267;    0.000;29.06667
 424.64;   17.667;    9.200;    0.000; 8.46667
 424.93;   -4.333;  -30.733;    0.000;26.40000
 425.21;  -15.133;   -9.000;    0.000;-6.13333
 425.50;    1.667;  -35.667;    0.000;37.33333
 425.79;   -5.800;  -13.133;    0.000; 7.33333
 426.08;   -6.467;  -21.400;    0.000;14.93333
 426.37;   -1.133;    6.933;    0.000;-8.06667
 426.65;  -14.533;  -43.467;    0.000;28.93333
 426.94;    2.333;  -15.533;    0.000;17.86667
 427.23;  -20.133;  -31.400;    0.000;11.26667
 427.52;   11.200;  -20.733;    0.000;31.93333
 427.81;   -0.533;  -27.333;    0.000;26.80000
 428.10;   19.067;  -21.467;    0.000;40.53333
 428.38;  -10.333;  -49.067;    0.000;38.73333
 428.67;    3.600;   -3.200;    0.000; 6.80000
 428.96;  -13.600;  -40.733;    0.000;27.13333
 429.25;  -14.000;   -4.867;    0.000;-9.13333
 429.54;   -8.933;  -35.133;    0.000;26.20000
 429.82;    3.200;    9.067;    0.000;-5.86667
 430.11;    9.600;  -15.400;    0.000;25.00000
 430.40;   11.600;  -13.667;    0.000;25.26667
 430.69;  -32.200;  -31.467;    0.000;-0.73333
 430.98;  -17.733;   -4.067;    0.000;-13.66667
 431.26;    1.133;  -21.933;    0.000;23.06667
 431.55;    5.267;   -2.133;    0.000; 7.40000
 431.84;    9.333;  -38.400;    0.000;47.73333
 432.13;   13.000;  -14.667;    0.000;27.66667
 432.41;   -9.200;  -19.000;    0.000; 9.80000
 432.70;   19.800;   -2.200;    0.000;22.00000
 432.99;    2.333;  -10.533;    0.000;12.86667
 433.28;   -2.200;  -12.267;    0.000;10.06667
 433.57;    2.867;  -16.933;    0.000;19.80000
 433.85;   11.133;  -11.933;    0.000;23.06667
 434.14;   -3.800;  -49.200;    0.000;45.40000
 434.43;   -0.200;    5.933;    0.000;-6.13333
 434.72;   -9.933;   -8.533;    0.000;-1.40000
 435.00;   -9.400;  -30.667;    0.000;21.26667
 435.29;  -18.133;  -29.733;    0.000;11.60000
 435.58;   -6.400;  -17.267;    0.000;10.86667
 435.87;    1.333;  -31.200;    0.000;32.53333
 436.15;    1.000;  -13.267;    0.000;14.26667
 436.44;   -4.800;  -35.267;    0.000;30.46667
 436.73;    7.000;  -11.867;    0.000;18.86667
 437.02;    3.933;  -26.600;    0.000;30.53333
 437.30;    1.800;  -12.933;    0.000;14.73333
 437.59;   -5.000;  -34.200;    0.000;29.20000
 437.88;   -7.000;  -14.800;    0.000; 7.80000
 438.17;  -18.133;  -34.800;    0.000;16.66667
 438.45;   -5.000;  -25.533;    0.000;20.53333
 438.74;    7.267;  -37.333;    0.000;44.60000
 439.03;    8.000;   -9.000;    0.000;17.00000
 439.32;   -9.333;  -40.200;    0.000;30.86667
 439.60;    9.067;    0.600;    0.000; 8.46667
 439.89;    0.933;  -30.400;    0.000;31.33333
 440.18;    6.600;  -15.133;    0.000;21.73333
 440.46;   -5.733;  -37.133;    0.000;31.40000
 440.75;   -0.867;  -18.200;    0.000;17.33333
 441.04;  -31.600;  -47.333;    0.000;15.73333
 441.33;   11.533;   -1.600;    0.000;13.13333
 441.61;  -16.200;  -30.800;    0.000;14.60000
 441.90;    6.000;    0.333;    0.000; 5.66667
 442.19;  -13.267;  -26.067;    0.000;12.80000
 442.47;   21.600;  -19.800;    0.000;41.40000
 442.76;  -14.400;  -40.067;    0.000;25.66667
 443.05;   -5.867;  -11.600;    0.000; 5.73333
 443.34;   -4.933;  -25.800;    0.000;20.86667
 443.62;   11.600;  -20.733;    0.000;32.33333
 443.91;  -25.600;  -45.600;    0.000;20.00000
 444.20;   12.200;   28.600;    0.000;-16.40000
 444.48;   -1.133;  -50.467;    0.000;49.33333
 444.77;   18.867;    9.067;    0.000; 9.80000
 445.06;  -33.867;  -16.600;    0.000;-17.26666
 445.34;    5.133;  -20.467;    0.000;25.60000
 445.63;  -16.467;  -28.467;    0.000;12.00000
 445.92;    8.667;   21.933;    0.000;-13.26667
 446.21;    8.400;  -36.000;    0.000;44.40000
 446.49;    8.000;  -10.133;    0.000;18.13333
 446.78;    6.133;  -23.533;    0.000;29.66667
 447.07;  -10.933;   -4.600;    0.000;-6.33333
 447.35;  -12.333;  -38.933;    0.000;26.60000
 447.64;    5.600;   -6.467;    0.000;12.06667
 447.93;   -7.867;  -31.867;    0.000;24.00000
 448.21;   -4.867;  -11.800;    0.000; 6.93333
 448.50;   -0.533;  -16.133;    0.000;15.60000
 448.79;    6.000;  -11.400;    0.000;17.40000
 449.07;   -9.467;  -51.800;    0.000;42.33333
 449.36;   -2.667;   -0.067;    0.000;-2.60000
 449.65;  -12.000;  -49.800;    0.000;37.80000
 449.93;   -3.533;   -6.133;    0.000; 2.60000
 450.22;   -5.733;  -22.867;    0.000;17.13333
 450.51;  -17.600;  -22.133;    0.000; 4.53333
 450.79;    7.000;  -24.067;    0.000;31.06667
 451.08;    4.133;  -11.333;    0.000;15.46667
 451.36;  -15.667;  -27.000;    0.000;11.33333
 451.65;  -13.800;   -0.133;    0.000;-13.66667
 451.94;  -16.267;  -21.467;    0.000; 5.20000
 452.22;  -24.600;   -5.333;    0.000;-19.26667
 452.51;  -24.067;  -38.133;    0.000;14.06667
 452.80;  -12.267;  -20.200;    0.000; 7.93333
 453.08;   -9.067;  -54.067;    0.000;45.00000
 453.37;    2.467;   -1.533;    0.000; 4.00000
 453.66;  -19.133;  -67.267;    0.000;48.13334
 453.94;   10.333;  -21.067;    0.000;31.40000
 454.23;  -10.533;  -33.467;    0.000;22.93333
 454.51;   -4.600;    8.600;    0.000;-13.20000
 454.80;  -10.000;  -50.133;    0.000;40.13334
 455.09;   24.067;   15.533;    0.000; 8.53333
 455.37;  -11.667;   -7.933;    0.000;-3.73333
 455.66;  -14.733;   -8.600;    0.000;-6.13333
 455.95;   -2.933;  -15.533;    0.000;12.60000
 456.23;    5.867;   10.200;    0.000;-4.33333
 456.52;  -14.933;  -37.800;    0.000;22.86667
 456.80;   -5.933;  -12.200;    0.000; 6.26667
 457.09;  -13.600;  -37.600;    0.000;24.00000
 457.38;    8.067;    0.867;    0.000; 7.20000
 457.66;  -13.667;  -18.533;    0.000; 4.86667
 457.95;    7.667;  -27.000;    0.000;34.66667
 458.23;  -10.933;  -14.467;    0.000; 3.53333
 458.52;    5.267;   -5.533;    0.000;10.80000
 458.81;    6.933;  -48.600;    0.000;55.53333
 459.09;   -1.267;  -25.133;    0.000;23.86667
 459.38;  -19.267;  -52.800;    0.000;33.53333
 459.66;  -10.333;  -11.000;    0.000; 0.66667
 459.95;   -5.667;  -29.667;    0.000;24.00000
 460.23;    4.933;  -21.533;    0.000;26.46667
 460.52;  -12.600;  -24.267;    0.000;11.66667
 460.81;   -3.800;  -10.933;    0.000; 7.13333
 461.09;  -17.533;  -37.400;    0.000;19.86667
 461.38;   -6.267;   -1.000;    0.000;-5.26667
 461.66;  -10.000;  -58.200;    0.000;48.20000
 461.95;  -11.600;  -16.600;    0.000; 5.00000
 462.23;  -11.000;  -34.200;    0.000;23.20000
 462.52;   10.667;  -23.733;    0.000;34.40000
 462.81;  -15.933;  -35.667;    0.000;19.73333
 463.09;   -5.733;  -16.800;    0.000;11.06667
 463.38;  -12.800;  -35.467;    0.000;22.66667
 463.66;   -7.467;  -15.867;    0.000; 8.40000
 463.95;    5.067;  -25.867;    0.000;30.93333
 464.23;   -2.000;  -15.133;    0.000;13.13333
 464.52;   -8.867;  -41.800;    0.000;32.93333
 464.80;   -2.733;  -23.533;    0.000;20.80000
 465.09;   -4.067;  -14.600;    0.000;10.53333
 465.38;    4.667;   -2.000;    0.000; 6.66667
 465.66;  -24.267;  -27.867;    0.000; 3.60000
 465.95;    0.400;  -12.000;    0.000;12.40000
 466.23;  -11.600;  -42.333;    0.000;30.73333
 466.52;   -4.800;  -17.533;    0.000;12.73333
 466.80;   -3.067;  -23.333;    0.000;20.26667
 467.09;    1.933;   -3.533;    0.000; 5.46667
 467.37;   -6.867;  -23.133;    0.000;16.26667
 467.66;   33.333;    7.667;    0.000;25.66667
 467.94;  -23.000;  -44.267;    0.000;21.26667
 468.23;   -7.067;   -7.067;    0.000; 0.00000
 468.51;  -16.200;  -33.800;    0.000;17.60000
 468.80;  -13.400;  -24.067;    0.000;10.66667
 469.08;   -3.000;  -10.333;    0.000; 7.33333
 469.37;    3.200;    5.667;    0.000;-2.46667
 469.66;  -16.133;  -22.067;    0.000; 5.93333
 469.94;  -23.600;  -14.600;    0.000;-9.00000
 470.23;    8.000;  -33.000;    0.000;41.00000
 470.51;    8.333;  -16.467;    0.000;24.80000
 470.80;  -10.733;  -18.667;    0.000; 7.93333
 471.08;    1.333;  -21.800;    0.000;23.13333
 471.37;    1.933;  -29.533;    0.000;31.46667
 471.65;    8.933;   -6.467;    0.000;15.40000
 471.94;   -7.400;  -39.867;    0.000;32.46666
 472.22;  -17.333;  -11.800;    0.000;-5.53333
 472.51;   -0.667;  -34.800;    0.000;34.13333
 472.79;    5.533;   -6.467;    0.000;12.00000
 473.08;   -3.867;  -17.400;    0.000;13.53333
 473.36;  -11.200;   -0.533;    0.000;-10.66667
 473.64;   -3.267;  -38.467;    0.000;35.20000
 473.93;    6.333;  -20.333;    0.000;26.66667
 474.21;   -6.933;  -18.533;    0.000;11.60000
 474.50;    0.667;  -18.067;    0.000;18.73333
 474.78;   11.400;  -17.533;    0.000;28.93333
 475.07;   -9.933;  -25.133;    0.000;15.20000
 475.35;   -6.600;  -41.067;    0.000;34.46667
 475.64;  -20.400;  -20.400;    0.000; 0.00000
 475.92;  -17.000;  -35.400;    0.000;18.40000
 476.21;    0.533;    2.000;    0.000;-1.46667
 476.49;    2.533;  -26.867;    0.000;29.40000
 476.78;   -8.267;  -28.933;    0.000;20.66667
 477.06;   -6.467;  -32.667;    0.000;26.20000
 477.35;   27.667;   -5.733;    0.000;33.40000
 477.63;  -14.667;  -30.200;    0.000;15.53333
 477.91;    0.933;  -15.400;    0.000;16.33333
 478.20;   -5.933;  -38.667;    0.000;32.73333
 478.48;   36.667;   18.533;    0.000;18.13334
 478.77;   -8.000;  -20.667;    0.000;12.66667
 479.05;   -1.000;  -27.000;    0.000;26.00000
 479.34;    4.000;  -30.333;    0.000;34.33333
 479.62;    1.533;  -23.867;    0.000;25.40000
 479.91;  -21.867;  -36.733;    0.000;14.86667
 480.19;    6.800;   -6.800;    0.000;13.60000
 480.47;  -15.600;  -44.333;    0.000;28.73333
 480.76;   -2.533;  -15.067;    0.000;12.53333
 481.04;   -9.733;  -25.267;    0.000;15.53333
 481.33;   31.200;  -12.600;    0.000;43.80000
 481.61;    7.800;  -30.133;    0.000;37.93333
 481.90;   -4.800;  -34.733;    0.000;29.93333
 482.18;   15.333;  -37.800;    0.000;53.13333
 482.46;    6.000;   -4.533;    0.000;10.53333
 482.75;  -11.200;  -51.333;    0.000;40.13333
 483.03;    8.533;   -4.867;    0.000;13.40000
 483.32;  -20.467;  -40.467;    0.000;20.00000
 483.60;    2.000;  -12.733;    0.000;14.73333
 483.88;  -23.733;  -46.133;    0.000;22.40000
 484.17;    2.400;  -14.600;    0.000;17.00000
 484.45;    8.000;  -25.800;    0.000;33.80000
 484.74;  -18.733;  -28.467;    0.000; 9.73333
 485.02;    3.333;  -37.200;    0.000;40.53333
 485.30;    6.600;  -33.267;    0.000;39.86667
 485.59;    2.933;  -37.467;    0.000;40.40000
 485.87;   27.067;  -13.333;    0.000;40.40000
 486.16;   26.467;  -40.867;    0.000;67.33333
 486.44;   22.733;  -25.933;    0.000;48.66667
 486.72;   19.000;  -63.467;    0.000;82.46667
 487.01;   32.333;  -25.133;    0.000;57.46667
 487.29;   31.867;  -32.000;    0.000;63.86667
 487.58;   53.267;  -16.400;    0.000;69.66667
 487.86;   48.333;  -35.400;    0.000;83.73333
 488.14;   67.267;   -8.667;    0.000;75.93334
 488.43;   54.267;  -43.267;    0.000;97.53333
 488.71;   63.067;  -17.600;    0.000;80.66667
 488.99;   74.267;  -47.200;    0.000;121.46667
 489.28;   89.533;  -23.067;    0.000;112.60000
 489.56;   88.600;  -36.000;    0.000;124.60000
 489.85;  110.600;   -8.200;    0.000;118.80000
 490.13;  131.867;  -22.933;    0.000;154.80000
 490.41;  143.867;  -10.933;    0.000;154.80000
 490.70;  135.733;  -38.600;    0.000;174.33334
 490.98;  169.733;  -19.267;    0.000;189.00000
 491.26;  191.067;  -46.533;    0.000;237.60000
 491.55;  204.933;  -30.933;    0.000;235.86667
 491.83;  199.000;  -39.600;    0.000;238.60000
 492.11;  257.267;  -21.733;    0.000;279.00000
 492.40;  251.600;  -46.600;    0.000;298.20000
 492.68;  294.667;  -16.200;    0.000;310.86666
 492.96;  332.067;  -48.733;    0.000;380.80001
 493.25;  336.200;   -2.267;    0.000;338.46668
 493.53;  353.933;  -41.467;    0.000;395.39999
 493.81;  380.067;  -20.133;    0.000;400.20001
 494.10;  420.667;  -28.067;    0.000;448.73332
 494.38;  490.400;  -11.867;    0.000;502.26666
 494.66;  504.467;  -52.267;    0.000;556.73334
 494.95;  581.600;  -23.933;    0.000;605.53331
 495.23;  596.467;  -46.600;    0.000;643.06667
 495.51;  661.733;   -5.933;    0.000;667.66667
 495.80;  665.800;  -45.667;    0.000;711.46666
 496.08;  756.933;  -10.467;    0.000;767.40002
 496.36;  795.800;  -39.533;    0.000;835.33332
 496.65;  830.800;  -27.333;    0.000;858.13332
 496.93;  880.867;  -31.800;    0.000;912.66664
 497.21;  907.000;  -12.600;    0.000;919.60000
 497.50;  986.400;  -34.600;    0.000;1021.00002
 497.78; 1046.467;  -14.733;    0.000;1061.20001
 498.06; 1101.267;  -47.200;    0.000;1148.46672
 498.34; 1185.200;  -15.067;    0.000;1200.26662
 498.63; 1199.600;  -46.800;    0.000;1246.39997
 498.91; 1319.733;  -19.133;    0.000;1338.86661
 499.19; 1371.467;  -43.333;    0.000;1414.80001
 499.48; 1445.600;  -10.867;    0.000;1456.46664
 499.76; 1559.933;  -41.333;    0.000;1601.26668
 500.04; 1601.533;   -9.800;    0.000;1611.33333
 500.32; 1687.933;  -50.933;    0.000;1738.86668
 500.61; 1732.533;  -26.000;    0.000;1758.53333
 500.89; 1848.267;  -35.667;    0.000;1883.93339
 501.17; 1910.600;  -37.467;    0.000;1948.06664
 501.46; 1994.067;  -40.267;    0.000;2034.33332
 501.74; 2140.667;  -33.667;    0.000;2174.33342
 502.02; 2217.400;  -26.067;    0.000;2243.46657
 502.30; 2305.333;   -8.267;    0.000;2313.59992
 502.59; 2327.933;  -45.133;    0.000;2373.06668
 502.87; 2452.400;  -16.733;    0.000;2469.13324
 503.15; 2589.133;  -35.667;    0.000;2624.79997
 503.43; 2658.733;  -13.867;    0.000;2672.60007
 503.72; 2765.333;  -46.800;    0.000;2812.13325
 504.00; 2821.000;   -8.800;    0.000;2829.80000
 504.28; 3019.200;  -46.933;    0.000;3066.13329
 504.56; 3079.667;  -38.733;    0.000;3118.40008
 504.85; 3243.933;  -24.933;    0.000;3268.86668
 505.13; 3249.867;  -16.867;    0.000;3266.73337
 505.41; 3355.867;  -55.000;    0.000;3410.86670
 505.69; 3556.333;  -23.800;    0.000;3580.13325
 505.98; 3571.667;  -37.600;    0.000;3609.26675
 506.26; 3750.800;   -1.667;    0.000;3752.46672
 506.54; 3885.933;  -51.333;    0.000;3937.26668
 506.82; 3986.000;  -26.267;    0.000;4012.26667
 507.11; 4103.533;  -26.867;    0.000;4130.39987
 507.39; 4212.467;  -35.067;    0.000;4247.53346
 507.67; 4362.200;  -47.133;    0.000;4409.33353
 507.95; 4456.600;  -28.133;    0.000;4484.73343
 508.23; 4598.800;  -30.533;    0.000;4629.33314
 508.52; 4708.267;  -11.333;    0.000;4719.59993
 508.80; 4807.133;  -49.533;    0.000;4856.66663
 509.08; 4987.333;  -14.400;    0.000;5001.73350
 509.36; 5058.600;  -44.800;    0.000;5103.40010
 509.65; 5138.333;  -26.333;    0.000;5164.66683
 509.93; 5366.533;  -62.000;    0.000;5428.53320
 510.21; 5451.933;  -14.600;    0.000;5466.53311
 510.49; 5601.000;  -29.000;    0.000;5630.00000
 510.77; 5713.733;  -16.067;    0.000;5729.80007
 511.06; 5777.200;  -60.467;    0.000;5837.66686
 511.34; 5924.067;  -31.800;    0.000;5955.86689
 511.62; 6031.000;  -38.867;    0.000;6069.86666
 511.90; 6147.933;  -27.133;    0.000;6175.06644
 512.18; 6269.933;  -30.000;    0.000;6299.93311
 512.47; 6402.200;   -4.267;    0.000;6406.46686
 512.75; 6463.867;  -59.467;    0.000;6523.33337
 513.03; 6679.600;  -38.400;    0.000;6718.00010
 513.31; 6728.200;  -34.467;    0.000;6762.66686
 513.59; 6862.600;  -14.400;    0.000;6877.00010
 513.87; 6977.667;  -49.867;    0.000;7027.53317
 514.16; 7231.267;   -6.733;    0.000;7237.99993
 514.44; 7243.933;  -26.867;    0.000;7270.79977
 514.72; 7371.067;  -22.600;    0.000;7393.66689
 515.00; 7506.667;  -23.733;    0.000;7530.39984
 515.28; 7586.200;  -20.400;    0.000;7606.60019
 515.56; 7613.667;  -42.200;    0.000;7655.86650
 515.85; 7788.600;  -25.067;    0.000;7813.66677
 516.13; 7940.267;  -48.467;    0.000;7988.73327
 516.41; 8006.733;  -24.200;    0.000;8030.93340
 516.69; 8094.800;  -45.400;    0.000;8140.19981
 516.97; 8307.800;  -22.733;    0.000;8330.53314
 517.25; 8356.200;  -51.933;    0.000;8408.13353
 517.54; 8395.533;  -23.600;    0.000;8419.13320
 517.82; 8552.066;  -38.333;    0.000;8590.39974
 518.10; 8636.667;  -20.533;    0.000;8657.20033
 518.38; 8746.267;  -50.133;    0.000;8796.39994
 518.66; 8852.600;  -26.733;    0.000;8879.33294
 518.94; 8954.866;  -30.133;    0.000;8984.99954
 519.22; 9045.600;  -18.000;    0.000;9063.59961
 519.51; 9198.134;  -45.067;    0.000;9243.20045
 519.79; 9269.333;  -24.667;    0.000;9293.99967
 520.07; 9456.866;  -33.800;    0.000;9490.66621
 520.35; 9564.600;  -32.400;    0.000;9596.99961
 520.63; 9482.533;  -32.800;    0.000;9515.33320
 520.91; 9571.733;  -22.600;    0.000;9594.33340
 521.19; 9721.667;  -53.333;    0.000;9775.00032
 521.47; 9719.267;  -13.267;    0.000;9732.53327
 521.75; 9820.066;  -47.000;    0.000;9867.06641
 522.04; 9977.333;  -23.733;    0.000;10001.06634
 522.32;10011.667;  -45.200;    0.000;10056.86699
 522.60;10102.333;  -11.600;    0.000;10113.93301
 522.88;10241.000;  -36.667;    0.000;10277.66667
 523.16;10257.866;  -28.400;    0.000;10286.26621
 523.44;10376.134;  -14.467;    0.000;10390.60046
 523.72;10474.134;  -13.267;    0.000;10487.40046
 524.00;10524.267;  -40.867;    0.000;10565.13327
 524.28;10618.800;    6.733;    0.000;10612.06647
 524.57;10674.066;  -42.733;    0.000;10716.79974
 524.85;10821.800;  -32.400;    0.000;10854.19981
 525.13;10855.000;  -29.000;    0.000;10884.00000
 525.41;10885.667;  -21.067;    0.000;10906.73366
 525.69;10950.066;  -26.933;    0.000;10976.99974
 525.97;11075.600;    0.533;    0.000;11075.06628
 526.25;11111.000;  -38.933;    0.000;11149.93333
 526.53;11250.533;  -14.667;    0.000;11265.19987
 526.81;11224.400;  -60.333;    0.000;11284.73372
 527.09;11338.134;  -26.667;    0.000;11364.80046
 527.37;11456.000;  -51.133;    0.000;11507.13334
 527.65;11486.667;  -17.400;    0.000;11504.06699
 527.93;11490.866;  -46.067;    0.000;11536.93288
 528.22;11565.733;  -21.333;    0.000;11587.06673
 528.50;11734.134;  -55.600;    0.000;11789.73379
 528.78;11778.467;  -34.200;    0.000;11812.66680
 529.06;11765.667;  -36.733;    0.000;11802.40033
 529.34;11845.200;  -11.867;    0.000;11857.06686
 529.62;11846.333;  -47.733;    0.000;11894.06634
 529.90;11959.600;  -21.133;    0.000;11980.73294
 530.18;11916.400;  -65.600;    0.000;11982.00039
 530.46;12119.134;  -12.400;    0.000;12131.53379
 530.74;12178.467;  -28.067;    0.000;12206.53346
 531.02;12232.267;   -6.067;    0.000;12238.33327
 531.30;12222.200;  -51.800;    0.000;12274.00019
 531.58;12262.733;  -18.467;    0.000;12281.20007
 531.86;12421.200;  -36.867;    0.000;12458.06686
 532.14;12537.066;  -11.133;    0.000;12548.19974
 532.42;12495.733;  -30.600;    0.000;12526.33340
 532.70;12485.333;   -0.133;    0.000;12485.46634
 532.98;12608.400;  -53.867;    0.000;12662.26706
 533.26;12574.800;  -15.467;    0.000;12590.26647
 533.54;12577.600;  -43.467;    0.000;12621.06628
 533.82;12664.733;  -13.333;    0.000;12678.06673
 534.10;12788.600;  -46.267;    0.000;12834.86628
 534.38;12931.667;  -28.467;    0.000;12960.13366
 534.66;12828.134;  -50.933;    0.000;12879.06712
 534.94;12858.600;  -10.667;    0.000;12869.26628
 535.22;12960.333;  -48.800;    0.000;13009.13301
 535.50;13097.400;  -23.733;    0.000;13121.13372
 535.78;13100.134;  -53.200;    0.000;13153.33379
 536.06;13122.267;  -37.733;    0.000;13159.99994
 536.34;13033.066;  -44.333;    0.000;13077.39974
 536.62;13052.200;  -12.533;    0.000;13064.73353
 536.90;13330.333;  -60.200;    0.000;13390.53301
 537.18;13355.800;  -28.467;    0.000;13384.26647
 537.46;13232.533;  -37.067;    0.000;13269.59987
 537.74;13316.066;  -14.933;    0.000;13330.99974
 538.02;13379.866;  -36.333;    0.000;13416.19954
 538.30;13379.333;   -7.333;    0.000;13386.66634
 538.58;13454.866;  -40.467;    0.000;13495.33288
 538.86;13455.000;  -21.133;    0.000;13476.13333
 539.14;13492.800;  -43.467;    0.000;13536.26647
 539.42;13657.134;   -9.800;    0.000;13666.93379
 539.70;13591.333;  -48.867;    0.000;13640.19967
 539.98;13627.066;    3.333;    0.000;13623.73307
 540.26;13683.533;  -64.467;    0.000;13747.99987
 540.54;13778.267;  -40.867;    0.000;13819.13327
 540.82;13625.267;  -55.400;    0.000;13680.66660
 541.10;13718.066;  -45.600;    0.000;13763.66640
 541.38;13677.733;  -66.533;    0.000;13744.26673
 541.66;13832.800;  -19.067;    0.000;13851.86647
 541.94;13966.200;  -55.933;    0.000;14022.13353
 542.22;13920.267;  -25.200;    0.000;13945.46660
 542.50;13971.400;  -18.800;    0.000;13990.20039
 542.78;13989.200;  -40.000;    0.000;14029.20020
 543.06;13918.200;  -41.733;    0.000;13959.93353
 543.34;14179.467;  -15.467;    0.000;14194.93346
 543.62;14021.533;  -41.133;    0.000;14062.66654
 543.90;14057.267;  -33.800;    0.000;14091.06660
 544.17;14085.533;  -40.333;    0.000;14125.86654
 544.45;14212.600;  -32.533;    0.000;14245.13294
 544.73;14153.600;  -39.733;    0.000;14193.33294
 545.01;14224.800;  -19.733;    0.000;14244.53314
 545.29;14180.000;  -50.733;    0.000;14230.73333
 545.57;14229.134;  -23.733;    0.000;14252.86712
 545.85;14258.066;  -34.867;    0.000;14292.93307
 546.13;14347.134;   -6.267;    0.000;14353.40046
 546.41;14336.134;  -32.067;    0.000;14368.20045
 546.69;14224.733;  -37.467;    0.000;14262.20007
 546.97;14259.533;  -44.000;    0.000;14303.53320
 547.25;14359.667;  -42.733;    0.000;14402.40033
 547.52;14312.934;  -50.667;    0.000;14363.60026
 547.80;14535.467;  -17.400;    0.000;14552.86680
 548.08;14524.667;  -42.133;    0.000;14566.80033
 548.36;14511.800;  -25.067;    0.000;14536.86647
 548.64;14412.467;  -39.400;    0.000;14451.86680
 548.92;14623.467;  -25.667;    0.000;14649.13346
 549.20;14532.866;  -52.067;    0.000;14584.93288
 549.48;14594.134;   -5.200;    0.000;14599.33379
 549.76;14515.400;  -44.800;    0.000;14560.20039
 550.04;14526.467;  -11.400;    0.000;14537.86680
 550.31;14628.733;  -32.800;    0.000;14661.53340
 550.59;14543.134;  -22.600;    0.000;14565.73379
 550.87;14680.333;  -48.133;    0.000;14728.46634
 551.15;14551.866;  -24.600;    0.000;14576.46621
 551.43;14671.134;  -45.200;    0.000;14716.33379
 551.71;14730.000;  -31.067;    0.000;14761.06667
 551.99;14606.066;  -23.600;    0.000;14629.66641
 552.27;14688.533;  -25.133;    0.000;14713.66654
 552.54;14623.533;  -45.600;    0.000;14669.13320
 552.82;14714.467;  -36.600;    0.000;14751.06680
 553.10;14560.800;  -48.200;    0.000;14608.99981
 553.38;14585.600;  -24.400;    0.000;14609.99961
 553.66;14675.400;  -39.533;    0.000;14714.93372
 553.94;14656.934;   -9.667;    0.000;14666.60026
 554.22;14728.866;  -32.000;    0.000;14760.86621
 554.49;14776.934;  -14.933;    0.000;14791.86693
 554.77;14726.066;  -43.400;    0.000;14769.46641
 555.05;14651.267;  -22.200;    0.000;14673.46660
 555.33;14700.533;  -60.533;    0.000;14761.06654
 555.61;14717.866;  -20.600;    0.000;14738.46621
 555.89;14634.467;  -74.400;    0.000;14708.86680
 556.16;14798.600;  -38.267;    0.000;14836.86628
 556.44;14782.333;  -38.600;    0.000;14820.93301
 556.72;14801.800;  -18.867;    0.000;14820.66647
 557.00;14752.267;  -55.733;    0.000;14807.99994
 557.28;14693.733;  -21.133;    0.000;14714.86673
 557.56;14740.134;  -58.533;    0.000;14798.66712
 557.83;14749.467;  -10.533;    0.000;14760.00013
 558.11;14745.000;  -45.733;    0.000;14790.73333
 558.39;14604.400;  -24.067;    0.000;14628.46706
 558.67;14772.200;  -43.267;    0.000;14815.46686
 558.95;14697.667;  -43.267;    0.000;14740.93366
 559.23;14726.134;  -47.267;    0.000;14773.40046
 559.50;14629.066;  -46.000;    0.000;14675.06641
 559.78;14610.000;  -52.200;    0.000;14662.20000
 560.06;14632.733;  -27.067;    0.000;14659.80007
 560.34;14577.134;  -54.200;    0.000;14631.33379
 560.62;14657.333;  -40.467;    0.000;14697.79967
 560.89;14633.000;  -30.333;    0.000;14663.33333
 561.17;14498.733;  -20.333;    0.000;14519.06673
 561.45;14576.134;  -47.533;    0.000;14623.66712
 561.73;14615.866;  -45.200;    0.000;14661.06621
 562.00;14509.733;  -32.133;    0.000;14541.86673
 562.28;14558.667;  -21.200;    0.000;14579.86699
 562.56;14564.600;  -52.733;    0.000;14617.33294
 562.84;14483.400;  -27.800;    0.000;14511.20039
 563.12;14541.800;  -60.067;    0.000;14601.86647
 563.39;14388.934;  -36.000;    0.000;14424.93359
 563.67;14449.134;  -40.267;    0.000;14489.40046
 563.95;14461.667;  -29.733;    0.000;14491.40033
 564.23;14292.066;  -34.267;    0.000;14326.33307
 564.50;14465.000;  -28.333;    0.000;14493.33333
 564.78;14417.000;  -43.867;    0.000;14460.86666
 565.06;14191.000;  -21.133;    0.000;14212.13333
 565.34;14330.800;  -29.267;    0.000;14360.06647
 565.61;14310.267;  -24.333;    0.000;14334.59994
 565.89;14226.066;  -39.800;    0.000;14265.86641
 566.17;14227.600;  -22.867;    0.000;14250.46628
 566.45;14235.000;  -36.267;    0.000;14271.26667
 566.73;14184.733;  -43.067;    0.000;14227.80006
 567.00;14155.333;  -53.600;    0.000;14208.93301
 567.28;14194.600;  -38.533;    0.000;14233.13294
 567.56;14189.866;  -66.200;    0.000;14256.06621
 567.83;14035.866;  -15.267;    0.000;14051.13288
 568.11;13938.333;  -58.800;    0.000;13997.13301
 568.39;14074.600;  -16.333;    0.000;14090.93294
 568.67;14002.467;  -49.867;    0.000;14052.33346
 568.94;13940.800;  -40.733;    0.000;13981.53314
 569.22;13947.400;  -39.733;    0.000;13987.13372
 569.50;13884.134;  -41.800;    0.000;13925.93379
 569.78;13809.333;  -31.733;    0.000;13841.06634
 570.05;13804.733;  -59.667;    0.000;13864.40007
 570.33;13901.267;  -57.133;    0.000;13958.39994
 570.61;13650.733;  -30.067;    0.000;13680.80007
 570.88;13645.866;  -61.133;    0.000;13706.99955
 571.16;13733.667;  -33.800;    0.000;13767.46699
 571.44;13677.267;  -58.867;    0.000;13736.13327
 571.72;13577.866;  -25.267;    0.000;13603.13288
 571.99;13632.533;  -35.400;    0.000;13667.93320
 572.27;13509.400;  -30.267;    0.000;13539.66706
 572.55;13505.267;  -62.800;    0.000;13568.06660
 572.82;13449.134;  -27.133;    0.000;13476.26712
 573.10;13451.333;  -41.067;    0.000;13492.39967
 573.38;13424.866;  -39.733;    0.000;13464.59954
 573.65;13375.134;  -20.533;    0.000;13395.66712
 573.93;13276.866;  -18.467;    0.000;13295.33288
 574.21;13296.134;  -48.867;    0.000;13345.00045
 574.48;13145.333;  -26.667;    0.000;13171.99967
 574.76;13082.066;  -36.267;    0.000;13118.33307
 575.04;13037.467;  -21.800;    0.000;13059.26680
 575.32;13067.066;  -33.733;    0.000;13100.79974
 575.59;13036.800;  -31.000;    0.000;13067.79980
 575.87;13069.600;  -57.333;    0.000;13126.93294
 576.15;12975.134;  -26.067;    0.000;13001.20046
 576.42;12894.066;  -57.533;    0.000;12951.59974
 576.70;12889.733;  -43.800;    0.000;12933.53340
 576.98;12759.533;  -61.933;    0.000;12821.46654
 577.25;12705.400;  -31.733;    0.000;12737.13372
 577.53;12548.667;  -45.533;    0.000;12594.20033
 577.80;12645.267;  -24.133;    0.000;12669.39993
 578.08;12578.467;  -58.333;    0.000;12636.80013
 578.36;12462.866;  -26.333;    0.000;12489.19954
 578.63;12422.467;  -59.600;    0.000;12482.06680
 578.91;12404.800;  -16.533;    0.000;12421.33314
 579.19;12429.800;  -31.133;    0.000;12460.93314
 579.46;12337.134;  -36.933;    0.000;12374.06712
 579.74;12185.066;  -37.200;    0.000;12222.26641
 580.02;12173.866;  -15.267;    0.000;12189.13288
 580.29;12158.600;  -44.933;    0.000;12203.53294
 580.57;12060.134;  -32.933;    0.000;12093.06712
 580.84;12064.800;  -45.067;    0.000;12109.86647
 581.12;11998.467;  -25.467;    0.000;12023.93346
 581.40;11922.134;  -65.800;    0.000;11987.93379
 581.67;11922.667;   -5.933;    0.000;11928.60033
 581.95;11737.333;  -53.467;    0.000;11790.79967
 582.23;11652.667;  -29.533;    0.000;11682.20033
 582.50;11648.733;  -59.400;    0.000;11708.13340
 582.78;11635.400;  -34.733;    0.000;11670.13372
 583.05;11496.533;  -49.933;    0.000;11546.46654
 583.33;11593.400;  -24.733;    0.000;11618.13372
 583.61;11590.934;  -59.000;    0.000;11649.93359
 583.88;11442.200;  -37.933;    0.000;11480.13353
 584.16;11306.667;  -49.733;    0.000;11356.40033
 584.43;11269.066;  -30.933;    0.000;11299.99974
 584.71;11292.800;  -50.067;    0.000;11342.86647
 584.99;11221.333;  -19.133;    0.000;11240.46634
 585.26;11099.733;  -49.667;    0.000;11149.40007
 585.54;11121.267;  -42.533;    0.000;11163.79993
 585.81;10977.866;  -50.600;    0.000;11028.46621
 586.09;10964.000;  -22.800;    0.000;10986.80000
 586.37;10945.733;  -45.400;    0.000;10991.13340
 586.64;10686.733;  -37.600;    0.000;10724.33340
 586.92;10823.200;  -47.467;    0.000;10870.66686
 587.19;10756.866;  -32.400;    0.000;10789.26621
 587.47;10703.733;  -59.467;    0.000;10763.20007
 587.74;10681.267;  -47.533;    0.000;10728.79993
 588.02;10583.134;  -49.533;    0.000;10632.66712
 588.30;10497.000;  -21.600;    0.000;10518.60000
 588.57;10563.667;  -56.733;    0.000;10620.40033
 588.85;10409.733;  -23.667;    0.000;10433.40006
 589.12;10336.134;  -54.600;    0.000;10390.73379
 589.40;10318.866;  -30.133;    0.000;10348.99954
 589.67;10269.800;  -45.400;    0.000;10315.19981
 589.95;10124.400;  -41.067;    0.000;10165.46706
 590.22;10035.667;  -63.467;    0.000;10099.13366
 590.50; 9964.866;  -33.133;    0.000;9997.99955
 590.77; 9962.066;  -47.400;    0.000;10009.46641
 591.05; 9910.066;  -41.933;    0.000;9951.99974
 591.33; 9884.400;  -46.667;    0.000;9931.06706
 591.60; 9777.333;  -57.533;    0.000;9834.86634
 591.88; 9707.200;  -55.933;    0.000;9763.13353
 592.15; 9658.467;  -45.267;    0.000;9703.73346
 592.43; 9709.667;  -53.733;    0.000;9763.40033
 592.70; 9522.667;  -33.133;    0.000;9555.80033
 592.98; 9473.066;  -42.733;    0.000;9515.79974
 593.25; 9456.934;  -22.333;    0.000;9479.26693
 593.53; 9470.333;  -58.200;    0.000;9528.53301
 593.80; 9288.000;  -42.067;    0.000;9330.06667
 594.08; 9178.134;  -51.200;    0.000;9229.33379
 594.35; 9104.400;  -28.667;    0.000;9133.06706
 594.63; 9184.000;  -33.800;    0.000;9217.80000
 594.90; 9030.800;  -37.600;    0.000;9068.39980
 595.18; 9035.000;  -43.867;    0.000;9078.86666
 595.45; 8921.000;  -11.933;    0.000;8932.93333
 595.73; 8860.600;  -37.933;    0.000;8898.53294
 596.00; 8832.866;  -36.600;    0.000;8869.46621
 596.28; 8735.200;  -69.133;    0.000;8804.33353
 596.55; 8702.866;  -37.067;    0.000;8739.93288
 596.83; 8593.800;  -50.267;    0.000;8644.06647
 597.10; 8577.533;  -19.667;    0.000;8597.19987
 597.38; 8604.200;  -42.800;    0.000;8647.00019
 597.65; 8454.267;  -40.133;    0.000;8494.39994
 597.93; 8475.533;  -55.800;    0.000;8531.33320
 598.20; 8398.934;  -42.467;    0.000;8441.40026
 598.48; 8321.667;  -47.600;    0.000;8369.26699
 598.75; 8256.733;  -32.133;    0.000;8288.86673
 599.03; 8103.667;  -47.800;    0.000;8151.46650
 599.30; 8129.733;  -38.600;    0.000;8168.33340
 599.58; 8078.867;  -54.467;    0.000;8133.33337
 599.85; 8004.600;  -21.333;    0.000;8025.93343
 600.12; 7842.667;  -45.733;    0.000;7888.39984
 600.40; 7786.533;  -32.067;    0.000;7818.59987
 600.67; 7795.333;  -56.200;    0.000;7851.53350
 600.95; 7734.467;  -26.000;    0.000;7760.46680
 601.22; 7713.933;  -43.800;    0.000;7757.73310
 601.50; 7703.067;  -25.467;    0.000;7728.53356
 601.77; 7612.067;  -48.933;    0.000;7661.00023
 602.05; 7441.400;   -1.667;    0.000;7443.06657
 602.32; 7477.667;  -31.400;    0.000;7509.06650
 602.59; 7386.067;  -27.667;    0.000;7413.73356
 602.87; 7375.067;  -44.400;    0.000;7419.46690
 603.14; 7378.400;  -34.000;    0.000;7412.39990
 603.42; 7243.867;  -56.733;    0.000;7300.60003
 603.69; 7216.800;  -55.200;    0.000;7271.99981
 603.97; 7031.067;  -65.533;    0.000;7096.60023
 604.24; 7112.667;  -35.933;    0.000;7148.59984
 604.51; 7020.200;  -46.333;    0.000;7066.53353
 604.79; 7056.867;  -48.600;    0.000;7105.46670
 605.06; 6889.933;  -39.667;    0.000;6929.59977
 605.34; 6903.600;  -24.600;    0.000;6928.20010
 605.61; 6882.933;  -58.000;    0.000;6940.93311
 605.89; 6837.133;  -28.867;    0.000;6865.99997
 606.16; 6821.867;  -49.333;    0.000;6871.20003
 606.43; 6786.400;  -36.133;    0.000;6822.53324
 606.71; 6644.333;  -40.533;    0.000;6684.86683
 606.98; 6653.467;  -41.867;    0.000;6695.33346
 607.26; 6553.667;  -50.333;    0.000;6603.99984
 607.53; 6521.800;  -54.333;    0.000;6576.13314
 607.80; 6436.000;  -56.867;    0.000;6492.86666
 608.08; 6518.733;  -19.867;    0.000;6538.60007
 608.35; 6441.533;  -74.133;    0.000;6515.66653
 608.62; 6448.333;  -38.067;    0.000;6486.40016
 608.90; 6380.067;  -52.800;    0.000;6432.86689
 609.17; 6282.533;  -37.533;    0.000;6320.06654
 609.45; 6240.600;  -36.200;    0.000;6276.80010
 609.72; 6243.800;  -46.800;    0.000;6290.59980
 609.99; 6167.200;  -53.200;    0.000;6220.40020
 610.27; 6112.067;  -36.133;    0.000;6148.20023
 610.54; 6152.067;  -68.133;    0.000;6220.20023
 610.81; 6049.733;  -37.600;    0.000;6087.33340
 611.09; 6019.267;  -51.533;    0.000;6070.79993
 611.36; 6027.067;  -29.200;    0.000;6056.26690
 611.64; 5959.000;  -59.867;    0.000;6018.86666
 611.91; 5887.533;  -32.800;    0.000;5920.33320
 612.18; 5845.867;  -41.600;    0.000;5887.46670
 612.46; 5952.467;  -28.533;    0.000;5981.00013
 612.73; 5799.733;  -66.000;    0.000;5865.73340
 613.00; 5768.467;  -49.333;    0.000;5817.80013
 613.28; 5708.467;  -52.667;    0.000;5761.13346
 613.55; 5714.067;  -38.733;    0.000;5752.80023
 613.82; 5674.800;  -55.733;    0.000;5730.53314
 614.10; 5549.400;  -28.467;    0.000;5577.86657
 614.37; 5510.800;  -71.600;    0.000;5582.39980
 614.64; 5430.267;  -60.400;    0.000;5490.66660
 614.92; 5314.667;  -47.533;    0.000;5362.19984
 615.19; 5299.467;  -17.667;    0.000;5317.13346
 615.46; 5207.333;  -50.867;    0.000;5258.20016
 615.74; 5150.733;  -31.867;    0.000;5182.60007
 616.01; 5016.933;  -82.267;    0.000;5099.19978
 616.28; 5019.000;  -25.533;    0.000;5044.53333
 616.56; 4898.533;  -50.467;    0.000;4948.99987
 616.83; 4961.000;  -22.933;    0.000;4983.93333
 617.10; 4834.400;  -60.533;    0.000;4894.93324
 617.37; 4836.133;  -40.933;    0.000;4877.06664
 617.65; 4832.467;  -53.933;    0.000;4886.40013
 617.92; 4906.467;  -18.867;    0.000;4925.33346
 618.19; 4909.333;  -65.933;    0.000;4975.26683
 618.47; 4762.200;  -38.800;    0.000;4801.00019
 618.74; 4780.467;  -72.067;    0.000;4852.53346
 619.01; 4787.333;  -46.133;    0.000;4833.46683
 619.28; 4720.000;  -51.267;    0.000;4771.26667
 619.56; 4707.333;  -42.733;    0.000;4750.06683
 619.83; 4641.933;  -46.200;    0.000;4688.13311
 620.10; 4648.733;  -19.400;    0.000;4668.13340
 620.38; 4650.067;  -58.933;    0.000;4709.00023
 620.65; 4642.067;  -45.333;    0.000;4687.40023
 620.92; 4566.333;  -58.867;    0.000;4625.20016
 621.19; 4627.400;  -33.667;    0.000;4661.06657
 621.47; 4570.267;  -57.333;    0.000;4627.59993
 621.74; 4658.400;  -37.000;    0.000;4695.39990
 622.01; 4616.400;  -58.933;    0.000;4675.33324
 622.28; 4630.933;  -46.800;    0.000;4677.73310
 622.56; 4591.533;  -46.667;    0.000;4638.19987
 622.83; 4583.333;  -41.067;    0.000;4624.40016
 623.10; 4582.467;  -66.400;    0.000;4648.86680
 623.38; 4516.067;  -40.467;    0.000;4556.53356
 623.65; 4477.200;  -37.600;    0.000;4514.80019
 623.92; 4488.933;  -40.333;    0.000;4529.26644
 624.19; 4403.200;  -71.333;    0.000;4474.53353
 624.46; 4393.533;  -29.133;    0.000;4422.66654
 624.74; 4388.400;  -48.867;    0.000;4437.26657
 625.01; 4383.667;  -27.933;    0.000;4411.59984
 625.28; 4359.667;  -59.200;    0.000;4418.86650
 625.55; 4356.933;  -34.667;    0.000;4391.59977
 625.83; 4415.667;  -46.267;    0.000;4461.93317
 626.10; 4282.267;  -31.733;    0.000;4313.99994
 626.37; 4289.533;  -56.000;    0.000;4345.53320
 626.64; 4255.800;  -52.067;    0.000;4307.86647
 626.92; 4300.533;  -47.000;    0.000;4347.53320
 627.19; 4282.067;  -42.067;    0.000;4324.13356
 627.46; 4188.067;  -47.800;    0.000;4235.86689
 627.73; 4163.067;  -43.467;    0.000;4206.53356
 628.00; 4181.933;  -78.000;    0.000;4259.93311
 628.28; 4201.133;  -40.933;    0.000;4242.06664
 628.55; 4108.333;  -58.933;    0.000;4167.26683
 628.82; 4081.800;  -37.867;    0.000;4119.66671
 629.09; 4112.733;  -66.733;    0.000;4179.46673
 629.36; 4078.333;  -41.667;    0.000;4119.99992
 629.64; 4102.133;  -46.600;    0.000;4148.73330
 629.91; 4062.800;  -41.667;    0.000;4104.46672
 630.18; 4051.400;  -49.067;    0.000;4100.46657
 630.45; 3989.467;  -44.067;    0.000;4033.53322
 630.72; 3961.067;  -63.267;    0.000;4024.33332
 631.00; 4001.600;  -53.400;    0.000;4055.00010
 631.27; 4022.933;  -51.600;    0.000;4074.53335
 631.54; 3925.000;  -37.400;    0.000;3962.40000
 631.81; 3879.333;  -57.467;    0.000;3936.79992
 632.08; 3858.533;  -32.533;    0.000;3891.06678
 632.35; 3876.067;  -38.200;    0.000;3914.26665
 632.63; 3917.267;  -45.533;    0.000;3962.79993
 632.90; 3896.800;  -69.600;    0.000;3966.40005
 633.17; 3855.000;  -41.933;    0.000;3896.93333
 633.44; 3861.200;  -71.667;    0.000;3932.86662
 633.71; 3807.000;  -41.933;    0.000;3848.93333
 633.98; 3790.133;  -44.400;    0.000;3834.53330
 634.25; 3838.600;  -54.333;    0.000;3892.93343
 634.53; 3832.733;  -51.267;    0.000;3884.00006
 634.80; 3838.067;  -46.000;    0.000;3884.06665
 635.07; 3749.733;  -57.467;    0.000;3807.20007
 635.34; 3796.333;  -22.200;    0.000;3818.53325
 635.61; 3757.533;  -52.933;    0.000;3810.46678
 635.88; 3782.933;  -29.600;    0.000;3812.53335
 636.15; 3783.333;  -57.867;    0.000;3841.19992
 636.43; 3820.867;  -30.933;    0.000;3851.80003
 636.70; 3811.867;  -63.000;    0.000;3874.86670
 636.97; 3795.200;  -22.200;    0.000;3817.39995
 637.24; 3661.867;  -53.333;    0.000;3715.20003
 637.51; 3644.667;  -17.200;    0.000;3661.86675
 637.78; 3649.733;  -59.733;    0.000;3709.46673
 638.05; 3613.267;  -43.067;    0.000;3656.33327
 638.32; 3548.133;  -62.733;    0.000;3610.86663
 638.60; 3501.467;  -31.133;    0.000;3532.59989
 638.87; 3514.267;  -75.133;    0.000;3589.39993
 639.14; 3538.200;  -20.533;    0.000;3558.73328
 639.41; 3464.067;  -29.000;    0.000;3493.06665
 639.68; 3431.067;  -38.467;    0.000;3469.53332
 639.95; 3484.067;  -73.867;    0.000;3557.93332
 640.22; 3427.067;  -28.000;    0.000;3455.06665
 640.49; 3337.067;  -48.733;    0.000;3385.79998
 640.76; 3366.800;  -50.267;    0.000;3417.06672
 641.03; 3308.733;  -55.067;    0.000;3363.80006
 641.30; 3269.400;  -31.733;    0.000;3301.13324
 641.58; 3200.133;  -50.733;    0.000;3250.86663
 641.85; 3141.400;  -39.200;    0.000;3180.59990
 642.12; 3159.533;  -69.200;    0.000;3228.73344
 642.39; 3127.400;  -41.467;    0.000;3168.86657
 642.66; 3111.200;  -59.200;    0.000;3170.39995
 642.93; 3072.867;  -27.533;    0.000;3100.40003
 643.20; 3023.133;  -58.467;    0.000;3081.59997
 643.47; 3084.467;  -45.400;    0.000;3129.86655
 643.74; 3045.200;  -71.067;    0.000;3116.26662
 644.01; 3063.467;  -44.667;    0.000;3108.13322
 644.28; 2960.933;  -62.667;    0.000;3023.60002
 644.55; 2979.667;  -43.267;    0.000;3022.93341
 644.82; 2951.533;  -38.400;    0.000;2989.93345
 645.09; 2916.933;  -26.733;    0.000;2943.66668
 645.36; 2875.933;  -62.733;    0.000;2938.66668
 645.63; 2864.200;  -37.733;    0.000;2901.93328
 645.91; 2910.400;  -52.333;    0.000;2962.73323
 646.18; 2932.667;  -17.267;    0.000;2949.93341
 646.45; 2826.400;  -63.000;    0.000;2889.39990
 646.72; 2805.733;  -36.933;    0.000;2842.66673
 646.99; 2829.933;  -63.667;    0.000;2893.60002
 647.26; 2751.733;  -26.200;    0.000;2777.93340
 647.53; 2773.200;  -67.733;    0.000;2840.93328
 647.80; 2774.600;  -19.200;    0.000;2793.80010
 648.07; 2675.867;  -62.467;    0.000;2738.33337
 648.34; 2726.133;  -36.067;    0.000;2762.19997
 648.61; 2705.800;  -69.133;    0.000;2774.93338
 648.88; 2694.200;  -34.067;    0.000;2728.26662
 649.15; 2632.400;  -75.600;    0.000;2707.99990
 649.42; 2631.733;  -37.800;    0.000;2669.53340
 649.69; 2660.200;  -39.200;    0.000;2699.39995
 649.96; 2627.333;  -41.800;    0.000;2669.13325
 650.23; 2591.267;  -60.667;    0.000;2651.93327
 650.50; 2589.867;  -58.200;    0.000;2648.06670
 650.77; 2546.600;  -55.667;    0.000;2602.26677
 651.04; 2519.800;  -46.467;    0.000;2566.26672
 651.31; 2496.267;  -85.000;    0.000;2581.26660
 651.58; 2499.933;  -36.267;    0.000;2536.20002
 651.85; 2515.867;  -62.733;    0.000;2578.60003
 652.12; 2504.800;  -42.000;    0.000;2546.80005
 652.39; 2402.067;  -81.467;    0.000;2483.53332
 652.66; 2441.133;  -32.067;    0.000;2473.19997
 652.93; 2403.933;  -61.800;    0.000;2465.73335
 653.20; 2365.800;  -41.600;    0.000;2407.40005
 653.47; 2411.867;  -72.867;    0.000;2484.73337
 653.74; 2383.667;  -49.267;    0.000;2432.93341
 654.01; 2309.733;  -67.933;    0.000;2377.66673
 654.28; 2381.400;  -41.800;    0.000;2423.19990
 654.55; 2315.333;  -63.600;    0.000;2378.93325
 654.81; 2328.800;  -38.133;    0.000;2366.93338
 655.08; 2324.133;  -69.600;    0.000;2393.73330
 655.35; 2280.800;  -39.867;    0.000;2320.66671
 655.62; 2258.533;  -60.933;    0.000;2319.46678
 655.89; 2226.867;  -27.800;    0.000;2254.66670
 656.16; 2234.467;  -66.133;    0.000;2300.59988
 656.43; 2207.600;  -53.267;    0.000;2260.86676
 656.70; 2185.400;  -67.133;    0.000;2252.53323
 656.97; 2188.467;  -49.267;    0.000;2237.73322
 657.24; 2148.000;  -65.133;    0.000;2213.13333
 657.51; 2145.933;  -46.867;    0.000;2192.80001
 657.78; 2173.267;  -67.533;    0.000;2240.79993
 658.05; 2102.733;  -39.267;    0.000;2142.00006
 658.32; 2084.133;  -61.800;    0.000;2145.93330
 658.59; 2107.067;  -47.867;    0.000;2154.93332
 658.86; 2106.200;  -58.400;    0.000;2164.59995
 659.12; 2070.200;  -49.733;    0.000;2119.93328
 659.39; 2095.667;  -63.400;    0.000;2159.06675
 659.66; 2068.200;  -34.667;    0.000;2102.86662
 659.93; 2047.933;  -49.467;    0.000;2097.40002
 660.20; 2034.533;  -39.733;    0.000;2074.26666
 660.47; 2016.467;  -67.067;    0.000;2083.53334
 660.74; 1998.467;  -44.733;    0.000;2043.20001
 661.01; 1947.400;  -57.067;    0.000;2004.46669
 661.28; 1953.667;  -33.067;    0.000;1986.73329
 661.55; 1952.667;  -17.400;    0.000;1970.06663
 661.81; 1902.667;  -65.267;    0.000;1967.93330
 662.08; 1881.000;  -57.933;    0.000;1938.93333
 662.35; 1881.400;  -49.133;    0.000;1930.53336
 662.62; 1882.533;  -75.000;    0.000;1957.53333
 662.89; 1899.267;  -42.867;    0.000;1942.13339
 663.16; 1862.000;  -57.400;    0.000;1919.40000
 663.43; 1847.133;  -32.400;    0.000;1879.53330
 663.70; 1836.933;  -69.667;    0.000;1906.60001
 663.96; 1793.067;  -38.533;    0.000;1831.59998
 664.23; 1804.867;  -66.733;    0.000;1871.60003
 664.50; 1757.733;  -50.467;    0.000;1808.19994
 664.77; 1769.200;  -72.133;    0.000;1841.33328
 665.04; 1784.933;  -39.667;    0.000;1824.60002
 665.31; 1769.267;  -61.067;    0.000;1830.33339
 665.58; 1711.267;  -70.400;    0.000;1781.66673
 665.84; 1715.733;  -69.000;    0.000;1784.73328
 666.11; 1723.600;  -51.000;    0.000;1774.59998
 666.38; 1702.267;  -63.667;    0.000;1765.93339
 666.65; 1696.333;  -42.333;    0.000;1738.66671
 666.92; 1647.400;  -57.267;    0.000;1704.66669
 667.19; 1638.867;  -29.333;    0.000;1668.20003
 667.46; 1653.933;  -51.933;    0.000;1705.86668
 667.72; 1641.200;  -49.533;    0.000;1690.73328
 667.99; 1644.933;  -56.667;    0.000;1701.60002
 668.26; 1589.200;  -14.267;    0.000;1603.46662
 668.53; 1575.467;  -86.333;    0.000;1661.80001
 668.80; 1623.933;  -47.467;    0.000;1671.40002
 669.06; 1554.333;  -52.467;    0.000;1606.80004
 669.33; 1569.600;  -38.467;    0.000;1608.06664
 669.60; 1572.600;  -60.067;    0.000;1632.66664
 669.87; 1537.267;  -43.667;    0.000;1580.93339
 670.14; 1512.267;  -66.133;    0.000;1578.40005
 670.41; 1535.400;  -46.933;    0.000;1582.33336
 670.67; 1496.667;  -69.800;    0.000;1566.46663
 670.94; 1479.467;  -38.667;    0.000;1518.13334
 671.21; 1487.933;  -45.200;    0.000;1533.13335
 671.48; 1461.867;  -45.733;    0.000;1507.60003
 671.75; 1456.667;  -70.067;    0.000;1526.73329
 672.01; 1444.267;  -63.667;    0.000;1507.93339
 672.28; 1406.200;  -65.333;    0.000;1471.53329
 672.55; 1428.133;  -32.533;    0.000;1460.66663
 672.82; 1426.600;  -77.533;    0.000;1504.13331
 673.08; 1401.067;  -37.533;    0.000;1438.59998
 673.35; 1369.467;  -74.067;    0.000;1443.53334
 673.62; 1353.600;  -34.133;    0.000;1387.73331
 673.89; 1357.267;  -73.000;    0.000;1430.26672
 674.16; 1333.733;  -55.533;    0.000;1389.26661
 674.42; 1362.400;  -75.400;    0.000;1437.80003
 674.69; 1356.267;  -32.800;    0.000;1389.06672
 674.96; 1336.333;  -51.867;    0.000;1388.20004
 675.23; 1271.800;  -47.333;    0.000;1319.13338
 675.49; 1264.267;  -62.800;    0.000;1327.06672
 675.76; 1236.600;  -39.467;    0.000;1276.06664
 676.03; 1291.067;  -61.200;    0.000;1352.26665
 676.30; 1259.400;  -44.733;    0.000;1304.13336
 676.56; 1248.867;  -48.467;    0.000;1297.33337
 676.83; 1225.267;  -50.933;    0.000;1276.20006
 677.10; 1182.800;  -73.133;    0.000;1255.93338
 677.37; 1213.667;  -34.467;    0.000;1248.13329
 677.63; 1178.800;  -52.000;    0.000;1230.80005
 677.90; 1195.067;  -49.800;    0.000;1244.86665
 678.17; 1161.800;  -70.600;    0.000;1232.40005
 678.44; 1164.333;  -40.067;    0.000;1204.40004
 678.70; 1144.200;  -71.133;    0.000;1215.33328
 678.97; 1127.467;  -33.933;    0.000;1161.40001
 679.24; 1150.533;  -65.867;    0.000;1216.39999
 679.50; 1104.400;  -29.800;    0.000;1134.20002
 679.77; 1154.867;  -70.600;    0.000;1225.46670
 680.04; 1120.200;  -52.533;    0.000;1172.73328
 680.31; 1080.667;  -75.733;    0.000;1156.39996
 680.57; 1055.067;  -38.067;    0.000;1093.13332
 680.84; 1064.200;  -63.200;    0.000;1127.39995
 681.11; 1072.933;  -43.667;    0.000;1116.60002
 681.37; 1076.400;  -71.667;    0.000;1148.06669
 681.64; 1069.933;  -44.800;    0.000;1114.73335
 681.91; 1048.067;  -99.267;    0.000;1147.33332
 682.17; 1041.067;  -29.667;    0.000;1070.73332
 682.44; 1054.533;  -78.800;    0.000;1133.33333
 682.71; 1032.533;   -8.267;    0.000;1040.79999
 682.98;  990.867;  -56.067;    0.000;1046.93330
 683.24; 1002.600;  -68.000;    0.000;1070.59998
 683.51; 1010.600;  -77.267;    0.000;1087.86665
 683.78; 1013.667;  -53.733;    0.000;1067.40002
 684.04;  964.667;  -57.000;    0.000;1021.66669
 684.31;  955.867;  -45.267;    0.000;1001.13330
 684.58;  943.800;  -77.800;    0.000;1021.59999
 684.84;  978.267;  -35.333;    0.000;1013.59999
 685.11;  925.400;  -71.467;    0.000;996.86669
 685.38;  938.400;  -46.667;    0.000;985.06669
 685.64;  937.267;  -65.533;    0.000;1002.80000
 685.91;  921.600;  -42.000;    0.000;963.59998
 686.17;  898.000;  -65.733;    0.000;963.73333
 686.44;  932.267;  -33.067;    0.000;965.33333
 686.71;  889.600;  -68.200;    0.000;957.79997
 686.97;  913.400;  -48.600;    0.000;962.00002
 687.24;  858.667;  -69.267;    0.000;927.93336
 687.51;  913.133;  -32.400;    0.000;945.53336
 687.77;  885.933;  -60.600;    0.000;946.53335
 688.04;  844.867;  -60.267;    0.000;905.13330
 688.31;  853.533;  -79.267;    0.000;932.80000
 688.57;  848.933;  -39.267;    0.000;888.20002
 688.84;  829.800;  -66.467;    0.000;896.26665
 689.10;  825.867;  -50.933;    0.000;876.79997
 689.37;  800.333;  -64.800;    0.000;865.13332
 689.64;  810.067;  -68.200;    0.000;878.26665
 689.90;  777.133;  -66.000;    0.000;843.13336
 690.17;  798.667;  -58.400;    0.000;857.06669
 690.44;  756.400;  -71.733;    0.000;828.13335
 690.70;  776.333;  -37.533;    0.000;813.86665
 690.97;  790.200;  -74.933;    0.000;865.13335
 691.23;  749.467;  -37.000;    0.000;786.46667
 691.50;  736.467;  -84.000;    0.000;820.46667
 691.77;  746.800;  -44.800;    0.000;791.59999
 692.03;  770.133;  -66.733;    0.000;836.86669
 692.30;  734.133;  -45.667;    0.000;779.80003
 692.56;  725.333;  -83.467;    0.000;808.79998
 692.83;  721.600;  -52.600;    0.000;774.19997
 693.10;  720.800;  -57.200;    0.000;777.99999
 693.36;  740.533;  -46.600;    0.000;787.13332
 693.63;  680.000;  -72.200;    0.000;752.20000
 693.89;  720.933;  -46.467;    0.000;767.40002
 694.16;  676.267;  -70.800;    0.000;747.06667
 694.42;  694.400;  -51.733;    0.000;746.13336
 694.69;  677.600;  -46.400;    0.000;723.99998
 694.96;  680.400;  -16.200;    0.000;696.60003
 695.22;  634.733;  -59.467;    0.000;694.20000
 695.49;  682.867;  -14.400;    0.000;697.26664
 695.75;  630.467;  -83.267;    0.000;713.73335
 696.02;  608.667;  -47.333;    0.000;656.00002
 696.28;  647.933;  -67.733;    0.000;715.66668
 696.55;  631.267;  -48.333;    0.000;679.59999
 696.81;  612.733;  -65.800;    0.000;678.53334
 697.08;  622.867;  -51.800;    0.000;674.66664
 697.34;  586.933;  -69.067;    0.000;656.00002
 697.61;  590.000;  -51.867;    0.000;641.86666
 697.88;  577.200;  -51.267;    0.000;628.46668
 698.14;  574.800;  -50.067;    0.000;624.86665
 698.41;  526.800;  -69.800;    0.000;596.59999
 698.67;  538.333;  -53.200;    0.000;591.53331
 698.94;  527.733;  -78.000;    0.000;605.73334
 699.20;  540.867;  -33.533;    0.000;574.39997
 699.47;  543.600;  -58.067;    0.000;601.66664
 699.73;  537.533;  -36.600;    0.000;574.13332
 700.00;  509.200;  -87.200;    0.000;596.40001
 700.26;  492.067;  -51.267;    0.000;543.33335
 700.53;  526.800;  -54.000;    0.000;580.79999
 700.79;  492.600;  -43.667;    0.000;536.26667
 701.06;  480.867;  -68.600;    0.000;549.46667
 701.32;  480.800;  -47.333;    0.000;528.13332
 701.59;  472.467;  -73.267;    0.000;545.73335
 701.85;  460.400;  -41.733;    0.000;502.13333
 702.12;  478.800;  -78.333;    0.000;557.13332
 702.38;  468.867;  -32.933;    0.000;501.80000
 702.65;  428.467;  -60.267;    0.000;488.73334
 702.91;  443.133;  -39.533;    0.000;482.66666
 703.18;  443.000;  -72.267;    0.000;515.26667
 703.44;  435.467;  -59.400;    0.000;494.86668
 703.71;  408.600;  -78.067;    0.000;486.66667
 703.97;  401.800;  -63.000;    0.000;464.79999
 704.24;  420.533;  -81.733;    0.000;502.26665
 704.50;  404.133;  -53.000;    0.000;457.13333
 704.76;  375.867;  -72.933;    0.000;448.80000
 705.03;  399.467;  -47.467;    0.000;446.93334
 705.29;  364.067;  -57.333;    0.000;421.40001
 705.56;  361.067;  -64.867;    0.000;425.93335
 705.82;  334.600;  -62.267;    0.000;396.86667
 706.09;  397.200;  -19.200;    0.000;416.40001
 706.35;  351.000;  -70.933;    0.000;421.93333
 706.62;  365.733;  -27.533;    0.000;393.26667
 706.88;  322.533;  -76.733;    0.000;399.26665
 707.15;  318.200;  -45.467;    0.000;363.66668
 707.41;  322.533;  -83.400;    0.000;405.93333
 707.67;  324.000;  -39.000;    0.000;363.00000
 707.94;  327.467;  -55.733;    0.000;383.20001
 708.20;  307.533;  -79.133;    0.000;386.66666
 708.47;  302.867;  -55.000;    0.000;357.86667
 708.73;  281.200;  -54.133;    0.000;335.33335
 709.00;  295.200;  -83.267;    0.000;378.46668
 709.26;  281.733;  -37.933;    0.000;319.66667
 709.52;  297.067;  -57.533;    0.000;354.60001
 709.79;  278.200;  -59.533;    0.000;337.73335
 710.05;  263.733;  -61.200;    0.000;324.93334
 710.32;  267.867;  -32.800;    0.000;300.66667
 710.58;  248.467;  -76.533;    0.000;324.99999
 710.84;  252.200;  -55.600;    0.000;307.80000
 711.11;  244.467;  -69.200;    0.000;313.66666
 711.37;  262.600;  -34.467;    0.000;297.06667
 711.64;  249.267;  -77.267;    0.000;326.53333
 711.90;  262.400;  -41.333;    0.000;303.73333
 712.16;  261.267;  -66.000;    0.000;327.26666
 712.43;  255.600;  -43.000;    0.000;298.60001
 712.69;  221.333;  -65.867;    0.000;287.20000
 712.96;  231.133;  -61.733;    0.000;292.86666
 713.22;  237.333;  -75.400;    0.000;312.73333
 713.48;  207.133;  -50.533;    0.000;257.66666
 713.75;  233.933;  -75.000;    0.000;308.93333
 714.01;  217.467;  -66.000;    0.000;283.46666
 714.27;  225.133;  -55.000;    0.000;280.13333
 714.54;  229.533;  -49.200;    0.000;278.73334
 714.80;  189.133;  -67.933;    0.000;257.06667
 715.06;  216.400;  -24.533;    0.000;240.93333
 715.33;  202.667;  -94.267;    0.000;296.93334
 715.59;  192.133;  -52.000;    0.000;244.13333
 715.86;  189.067;  -70.000;    0.000;259.06667
 716.12;  220.733;  -54.200;    0.000;274.93334
 716.38;  186.800;  -69.733;    0.000;256.53333
 716.65;  179.733;  -62.133;    0.000;241.86667
 716.91;  181.933;  -70.467;    0.000;252.40000
 717.17;  229.667;  -35.133;    0.000;264.80001
 717.44;  194.533;  -70.000;    0.000;264.53334
 717.70;  182.933;  -36.800;    0.000;219.73333
 717.96;  194.000;  -76.533;    0.000;270.53333
 718.23;  188.933;  -42.267;    0.000;231.20000
 718.49;  184.533;  -62.200;    0.000;246.73334
 718.75;  199.533;  -44.267;    0.000;243.80001
 719.02;  179.467;  -81.800;    0.000;261.26666
 719.28;  191.200;  -57.067;    0.000;248.26666
 719.54;  148.000;  -62.267;    0.000;210.26667
 719.80;  163.533;  -34.067;    0.000;197.60001
 720.07;  162.667;  -79.467;    0.000;242.13334
 720.33;  200.067;  -33.933;    0.000;234.00000
 720.59;  163.667;  -72.800;    0.000;236.46667
 720.86;  168.267;  -56.733;    0.000;225.00000
 721.12;  181.533;  -59.000;    0.000;240.53334
 721.38;  170.800;  -44.200;    0.000;215.00000
 721.65;  166.400;  -54.600;    0.000;220.99999
 721.91;  170.400;  -42.867;    0.000;213.26666
 722.17;  151.467;  -80.067;    0.000;231.53333
 722.43;  172.867;  -53.467;    0.000;226.33334
 722.70;  130.800;  -77.800;    0.000;208.60001
 722.96;  167.200;  -31.400;    0.000;198.60000
 723.22;  173.067;  -75.800;    0.000;248.86667
 723.48;  168.267;  -69.267;    0.000;237.53333
 723.75;  145.533;  -77.867;    0.000;223.40001
 724.01;  142.333;  -57.200;    0.000;199.53333
 724.27;  138.667;  -85.733;    0.000;224.40000
 724.54;  159.867;  -42.933;    0.000;202.80000
 724.80;  168.000;  -84.133;    0.000;252.13333
 725.06;  149.267;  -67.000;    0.000;216.26666
 725.32;  183.133;  -62.600;    0.000;245.73333
 725.59;  138.533;  -44.267;    0.000;182.80001
 725.85;  129.333;  -65.933;    0.000;195.26666
 726.11;  166.933;  -51.933;    0.000;218.86667
 726.37;  152.000;  -55.467;    0.000;207.46667
 726.64;  169.800;  -28.867;    0.000;198.66667
 726.90;  146.267;  -64.467;    0.000;210.73333
 727.16;  148.533;  -46.333;    0.000;194.86667
 727.42;  145.867;  -82.467;    0.000;228.33334
 727.68;  166.000;  -42.133;    0.000;208.13334
 727.95;  146.400;  -67.133;    0.000;213.53333
 728.21;  159.733;  -40.067;    0.000;199.80000
 728.47;  149.067;  -75.933;    0.000;225.00000
 728.73;  171.533;  -40.667;    0.000;212.20001
 729.00;  141.933;  -70.800;    0.000;212.73334
 729.26;  153.267;  -52.667;    0.000;205.93333
 729.52;  132.200;  -75.333;    0.000;207.53333
 729.78;  136.400;  -61.800;    0.000;198.19999
 730.04;  144.267;  -63.600;    0.000;207.86666
 730.31;  166.933;  -63.733;    0.000;230.66667
 730.57;  159.400;  -83.400;    0.000;242.80000
 730.83;  138.400;  -46.200;    0.000;184.59999
 731.09;  127.133;  -65.600;    0.000;192.73333
 731.35;  138.467;  -49.733;    0.000;188.19999
 731.62;  111.667;  -94.467;    0.000;206.13333
 731.88;  134.800;  -43.200;    0.000;178.00000
 732.14;  143.733;  -83.133;    0.000;226.86667
 732.40;  153.467;  -46.400;    0.000;199.86666
 732.66;  131.200;  -70.733;    0.000;201.93333
 732.92;  111.000;  -67.800;    0.000;178.80000
 733.19;  132.200;  -76.867;    0.000;209.06667
 733.45;  158.200;  -55.400;    0.000;213.60000
 733.71;  107.333;  -62.867;    0.000;170.20000
 733.97;  172.600;  -10.400;    0.000;183.00001
 734.23;  116.400;  -73.067;    0.000;189.46667
 734.49;  130.667;  -50.333;    0.000;181.00000
 734.76;  123.667;  -78.133;    0.000;201.80000
 735.02;  128.533;  -67.667;    0.000;196.20000
 735.28;  132.533;  -56.200;    0.000;188.73334
 735.54;  114.133;  -52.733;    0.000;166.86666
 735.80;  125.933;  -84.200;    0.000;210.13333
 736.06;  115.200;  -54.933;    0.000;170.13333
 736.32;  107.933;  -85.800;    0.000;193.73334
 736.59;  126.200;  -42.067;    0.000;168.26666
 736.85;  128.467;  -84.067;    0.000;212.53333
 737.11;   92.867;  -60.200;    0.000;153.06667
 737.37;  114.333;  -69.933;    0.000;184.26667
 737.63;   93.467;  -53.200;    0.000;146.66667
 737.89;  110.867;  -72.533;    0.000;183.40000
 738.15;  126.000;  -32.467;    0.000;158.46667
 738.41;  109.867;  -74.000;    0.000;183.86667
 738.67;  130.000;  -64.133;    0.000;194.13333
 738.94;   83.400;  -86.267;    0.000;169.66667
 739.20;  115.467;  -49.467;    0.000;164.93333
 739.46;   93.000;  -64.600;    0.000;157.60000
 739.72;   86.200;  -63.000;    0.000;149.20000
 739.98;   88.467;  -72.000;    0.000;160.46667
 740.24;   82.867;  -52.800;    0.000;135.66667
 740.50;   98.000;  -59.800;    0.000;157.80000
 740.76;   99.800;  -37.800;    0.000;137.60000
 741.02;   90.667;  -84.867;    0.000;175.53333
 741.28;  110.800;  -52.600;    0.000;163.40000
 741.54;   83.800;  -74.200;    0.000;158.00000
 741.81;  111.133;  -47.133;    0.000;158.26667
 742.07;   56.333;  -92.600;    0.000;148.93333
 742.33;   86.200;  -28.800;    0.000;115.00000
 742.59;  102.867;  -60.000;    0.000;162.86667
 742.85;   78.467;  -54.400;    0.000;132.86667
 743.11;   61.067;  -97.533;    0.000;158.60000
 743.37;   81.600;  -56.200;    0.000;137.80000
 743.63;   73.200;  -82.133;    0.000;155.33333
 743.89;   63.067;  -52.133;    0.000;115.20000
 744.15;   60.667;  -75.800;    0.000;136.46667
 744.41;   58.267;  -64.267;    0.000;122.53334
 744.67;   61.133;  -72.800;    0.000;133.93334
 744.93;   73.400;  -51.067;    0.000;124.46667
 745.19;   66.733;  -84.133;    0.000;150.86666
 745.45;   68.600;  -60.467;    0.000;129.06667
 745.71;   52.867;  -79.133;    0.000;132.00000
 745.97;   58.467;  -32.067;    0.000;90.53333
 746.23;   70.867;  -66.200;    0.000;137.06667
 746.49;   53.000;  -58.200;    0.000;111.20000
 746.75;   65.133;  -78.000;    0.000;143.13333
 747.02;   52.333;  -38.667;    0.000;91.00000
 747.28;   30.400;  -79.400;    0.000;109.80000
 747.54;   66.800;  -54.000;    0.000;120.80000
 747.80;   51.267;  -80.867;    0.000;132.13334
 748.06;   63.933;  -64.733;    0.000;128.66666
 748.32;   52.133;  -91.333;    0.000;143.46667
 748.58;   51.800;  -47.000;    0.000;98.80000
 748.84;   36.067;  -66.933;    0.000;103.00000
 749.10;  142.533;   19.133;    0.000;123.40001
 749.36;   70.600;  -76.067;    0.000;146.66666
 749.62;   64.333;  -47.133;    0.000;111.46667
 749.88;   59.067;  -73.133;    0.000;132.20000
 750.14;   38.333;  -50.800;    0.000;89.13333
 750.40;   69.533;  -75.667;    0.000;145.20000
 750.66;   45.467;  -40.333;    0.000;85.80000
 750.91;   71.533;  -67.400;    0.000;138.93333
 751.17;   52.200;  -46.467;    0.000;98.66667
 751.43;   17.200;  -98.267;    0.000;115.46667
 751.69;   41.400;  -32.333;    0.000;73.73333
 751.95;   30.667;  -65.000;    0.000;95.66667
 752.21;   36.600;  -53.733;    0.000;90.33333
 752.47;   43.467;  -68.400;    0.000;111.86667
 752.73;   51.267;  -46.200;    0.000;97.46667
 752.99;   39.533;  -87.933;    0.000;127.46667
 753.25;   18.667;  -47.200;    0.000;65.86667
 753.51;   30.267;  -61.467;    0.000;91.73333
 753.77;   21.467;  -58.400;    0.000;79.86667
 754.03;   46.933;  -64.600;    0.000;111.53333
 754.29;   20.867;  -71.867;    0.000;92.73334
 754.55;   26.800;  -67.867;    0.000;94.66667
 754.81;   27.667;  -62.600;    0.000;90.26666
 755.07;   15.733;  -70.067;    0.000;85.80000
 755.33;   42.733;  -67.800;    0.000;110.53334
 755.59;   26.400;  -78.600;    0.000;105.00000
 755.85;   49.000;  -42.200;    0.000;91.20000
 756.10;   19.733;  -72.867;    0.000;92.60000
 756.36;   40.067;  -65.067;    0.000;105.13333
 756.62;   -1.600;  -77.333;    0.000;75.73334
 756.88;   31.000;  -60.667;    0.000;91.66667
 757.14;   31.867;  -73.600;    0.000;105.46667
 757.40;   19.933;  -35.200;    0.000;55.13333
 757.66;   37.267;  -69.267;    0.000;106.53334
 757.92;   26.533;  -54.667;    0.000;81.20000
 758.18;    2.733;  -74.267;    0.000;77.00000
 758.44;    8.667;  -59.867;    0.000;68.53333
 758.70;   16.267;  -54.533;    0.000;70.80000
 758.95;   33.000;  -41.200;    0.000;74.20000
 759.21;   -4.733;  -79.067;    0.000;74.33333
 759.47;   24.000;  -45.267;    0.000;69.26667
 759.73;    6.667;  -75.867;    0.000;82.53334
 759.99;   28.533;  -56.133;    0.000;84.66667
 760.25;   10.133;  -65.400;    0.000;75.53333
 760.51;   23.200;  -54.400;    0.000;77.60000
 760.77;   -6.333;  -88.400;    0.000;82.06667
 761.02;   -8.933;  -63.000;    0.000;54.06667
 761.28;  -17.933;  -80.200;    0.000;62.26666
 761.54;   18.533;  -57.867;    0.000;76.40000
 761.80;   -0.067;  -95.533;    0.000;95.46667
 762.06;    3.733;  -43.667;    0.000;47.40000
 762.32;  -11.933;  -81.467;    0.000;69.53333
 762.58;    5.733;  -80.600;    0.000;86.33333
 762.83;    6.467;  -64.733;    0.000;71.20000
 763.09;    9.600;  -42.133;    0.000;51.73334
 763.35;    0.000;  -77.067;    0.000;77.06667
 763.61;   -8.067;  -65.200;    0.000;57.13333
 763.87;   25.200;  -58.733;    0.000;83.93333
 764.13;    5.600;  -51.133;    0.000;56.73334
 764.38;  -18.267;  -80.067;    0.000;61.80000
 764.64;  -10.600;  -65.867;    0.000;55.26667
 764.90;    3.533;  -92.067;    0.000;95.60000
 765.16;   11.933;  -39.667;    0.000;51.60000
 765.42;  -19.533;  -72.200;    0.000;52.66666
 765.68;   17.867;  -67.200;    0.000;85.06666
 765.93;   -2.933;  -82.067;    0.000;79.13333
 766.19;    1.267;  -88.800;    0.000;90.06667
 766.45;  -17.933;  -82.333;    0.000;64.40000
 766.71;   -0.333;  -53.200;    0.000;52.86667
 766.97;  -10.200;  -74.000;    0.000;63.80000
 767.22;    6.667;  -57.067;    0.000;63.73333
 767.48;  -26.867;  -84.333;    0.000;57.46667
 767.74;    5.600;  -56.533;    0.000;62.13333
 768.00;  -19.533;  -87.133;    0.000;67.60000
 768.26;   -4.133;  -39.867;    0.000;35.73333
 768.51;  -13.400;  -73.800;    0.000;60.40000
 768.77;    0.267;  -36.000;    0.000;36.26667
 769.03;  -22.933;  -86.533;    0.000;63.60000
 769.29;   -9.533;  -53.933;    0.000;44.40000
 769.54;   -4.267;  -83.333;    0.000;79.06667
 769.80;    6.333;  -68.467;    0.000;74.80000
 770.06;  -30.467;  -95.600;    0.000;65.13333
 770.32;  -13.600;  -57.000;    0.000;43.40000
 770.57;  -18.733;  -86.867;    0.000;68.13334
 770.83;   -2.933;  -59.333;    0.000;56.40000
 771.09;   -8.133;  -72.933;    0.000;64.80000
 771.35;  -20.267;  -65.133;    0.000;44.86666
 771.61;  -32.467;  -79.533;    0.000;47.06667
 771.86;   14.867;  -49.933;    0.000;64.80000
 772.12;  -19.400;  -88.000;    0.000;68.60000
 772.38;   -5.733;  -55.933;    0.000;50.20000
 772.63;  -12.933;  -91.400;    0.000;78.46667
 772.89;  -19.600;  -62.600;    0.000;43.00000
 773.15;  -40.533;  -82.533;    0.000;42.00000
 773.41;  -12.133;  -79.067;    0.000;66.93333
 773.66;  -13.667; -102.533;    0.000;88.86667
 773.92;   -0.133;  -47.133;    0.000;47.00000
 774.18;  -28.733;  -76.400;    0.000;47.66667
 774.44;   -8.800;  -79.933;    0.000;71.13333
 774.69;  -22.933;  -76.467;    0.000;53.53333
 774.95;  -13.000;  -55.467;    0.000;42.46667
 775.21;  -10.933;  -58.600;    0.000;47.66667
 775.46;  -13.333;  -76.867;    0.000;63.53334
 775.72;  -10.533;  -77.467;    0.000;66.93333
 775.98;  -19.667;  -52.200;    0.000;32.53333
 776.24;  -28.400;  -69.800;    0.000;41.40000
 776.49;   -9.067;  -64.667;    0.000;55.60000
 776.75;  -14.000;  -89.200;    0.000;75.20000
 777.01;  -28.800;  -51.467;    0.000;22.66667
 777.26;  -19.000;  -71.067;    0.000;52.06667
 777.52;  -26.400;  -58.733;    0.000;32.33333
 777.78;  -17.933;  -91.733;    0.000;73.80000
 778.03;  -12.267;  -42.933;    0.000;30.66667
 778.29;  -26.333;  -82.733;    0.000;56.40000
 778.55;  -19.867;  -49.800;    0.000;29.93333
 778.80;  -14.000;  -84.400;    0.000;70.40000
 779.06;  -33.667;  -57.667;    0.000;24.00000
 779.32;  -30.467;  -95.467;    0.000;65.00000
 779.57;  -26.867;  -49.133;    0.000;22.26667
 779.83;  -47.400;  -80.067;    0.000;32.66666
 780.09;  -27.867;  -63.267;    0.000;35.40000
 780.34;  -35.867;  -78.467;    0.000;42.60000
 780.60;   -8.067;  -43.867;    0.000;35.80000
 780.86;  -16.933;  -82.600;    0.000;65.66667
 781.11;  -22.067;  -54.000;    0.000;31.93333
 781.37;  -37.000;  -87.800;    0.000;50.80000
 781.63;  -22.400;  -62.267;    0.000;39.86667
 781.88;  -14.133;  -94.600;    0.000;80.46667
 782.14;   -7.933;  -70.133;    0.000;62.20000
 782.39;  -35.000;  -88.133;    0.000;53.13333
 782.65;  -25.933;  -88.467;    0.000;62.53333
 782.91;  -37.533;  -82.867;    0.000;45.33334
 783.16;  -26.600;  -49.533;    0.000;22.93333
 783.42;  -58.467;  -95.667;    0.000;37.20000
 783.67;  -14.267;  -63.333;    0.000;49.06667
 783.93;  -21.400;  -62.467;    0.000;41.06667
 784.19;  -38.533;  -61.400;    0.000;22.86667
 784.44;  -10.667;  -65.400;    0.000;54.73333
 784.70;  -20.200;  -54.267;    0.000;34.06667
 784.96;  -37.933;  -86.933;    0.000;49.00000
 785.21;  -19.600;  -72.867;    0.000;53.26667
 785.47;  -24.000;  -57.267;    0.000;33.26667
 785.72;  -13.333;  -44.867;    0.000;31.53333
 785.98;  -39.933;  -94.333;    0.000;54.40000
 786.23;  -28.067;  -65.133;    0.000;37.06666
 786.49;  -28.533;  -74.333;    0.000;45.80000
 786.75;  -42.800;  -49.133;    0.000; 6.33334
 787.00;  -32.400;  -93.733;    0.000;61.33333
 787.26;  -27.800;  -60.600;    0.000;32.80000
 787.51;  -29.933;  -64.267;    0.000;34.33334
 787.77;  -12.733;  -53.800;    0.000;41.06667
 788.02;  -30.467;  -81.800;    0.000;51.33334
 788.28;  -21.067;  -71.467;    0.000;50.40000
 788.54;  -36.800;  -73.067;    0.000;36.26667
 788.79;  -19.267;  -61.800;    0.000;42.53333
 789.05;  -29.600;  -80.733;    0.000;51.13333
 789.30;  -41.867;  -54.067;    0.000;12.20000
 789.56;  -52.400;  -86.600;    0.000;34.20000
 789.81;  -34.000;  -56.800;    0.000;22.80000
 790.07;  -29.067; -102.667;    0.000;73.60000
 790.32;  -37.933;  -63.667;    0.000;25.73333
 790.58;  -51.933;  -67.333;    0.000;15.40000
 790.83;  -31.000;  -45.067;    0.000;14.06667
 791.09;  -17.533;  -83.733;    0.000;66.20000
 791.35;  -48.800;  -57.000;    0.000; 8.20000
 791.60;  -31.133;  -68.867;    0.000;37.73334
 791.86;  -41.333;  -48.267;    0.000; 6.93333
 792.11;  -48.400;  -87.933;    0.000;39.53333
 792.37;  -35.200;  -72.133;    0.000;36.93333
 792.62;  -37.800;  -67.800;    0.000;30.00000
 792.88;  -40.400;  -63.467;    0.000;23.06667
 793.13;  -48.333;  -62.800;    0.000;14.46667
 793.39;  -50.000;  -55.800;    0.000; 5.80000
 793.64;  -40.267;  -70.333;    0.000;30.06667
 793.90;  -37.067;  -55.467;    0.000;18.40000
 794.15;  -50.333;  -76.800;    0.000;26.46667
 794.41;  -29.133;  -56.933;    0.000;27.80000
 794.66;  -49.467;  -84.933;    0.000;35.46667
 794.92;  -43.800;  -65.267;    0.000;21.46667
 795.17;  -58.600;  -90.200;    0.000;31.60000
 795.43;  -44.333;  -84.200;    0.000;39.86666
 795.68;  -47.200;  -80.933;    0.000;33.73333
 795.94;  -37.067;  -54.667;    0.000;17.60000
 796.19;  -43.933;  -73.800;    0.000;29.86667
 796.44;  -25.733;  -69.867;    0.000;44.13334
 796.70;  -25.867;  -89.200;    0.000;63.33333
 796.95;  -25.333;  -45.400;    0.000;20.06667
 797.21;  -49.600;  -71.867;    0.000;22.26667
 797.46;  -46.133;  -71.333;    0.000;25.20000
 797.72;  -62.400;  -96.733;    0.000;34.33333
 797.97;  -48.667;  -64.200;    0.000;15.53333
 798.23;  -45.533;  -81.933;    0.000;36.40000
 798.48;  -18.467;  -61.400;    0.000;42.93333
 798.74;  -35.667;  -88.333;    0.000;52.66667
 798.99;  -46.400;  -63.533;    0.000;17.13333
 799.24;  -47.200;  -82.933;    0.000;35.73333
 799.50;  -41.067;  -50.000;    0.000; 8.93333
 799.75;  -38.733;  -86.933;    0.000;48.20000
 800.01;  -49.467;  -54.467;    0.000; 5.00000
 800.26;  -47.467;  -82.467;    0.000;35.00000
 800.52;  -47.400;  -56.067;    0.000; 8.66666
 800.77;  -44.933;  -72.667;    0.000;27.73333
 801.02;  -23.067;  -69.933;    0.000;46.86667
 801.28;  -52.067;  -81.733;    0.000;29.66666
 801.53;  -35.867;  -37.267;    0.000; 1.40000
 801.79;  -40.933; -100.067;    0.000;59.13333
 802.04;  -40.867;  -38.667;    0.000;-2.20000
 802.29;  -45.867;  -72.867;    0.000;27.00000
 802.55;  -42.400;  -51.333;    0.000; 8.93333
 802.80;  -72.133;  -72.733;    0.000; 0.60000
 803.06;  -50.467;  -52.400;    0.000; 1.93333
 803.31;  -55.467;  -88.200;    0.000;32.73333
 803.56;  -52.733;  -65.667;    0.000;12.93333
 803.82;  -47.400;  -66.533;    0.000;19.13333
 804.07;  -43.467;  -72.800;    0.000;29.33334
 804.32;  -64.867;  -71.533;    0.000; 6.66666
 804.58;  -35.600;  -63.867;    0.000;28.26667
 804.83;  -28.467;  -83.867;    0.000;55.40000
 805.09;  -51.067;  -67.400;    0.000;16.33334
 805.34;  -63.267;  -80.267;    0.000;17.00000
 805.59;  -34.867;  -64.467;    0.000;29.60000
 805.85;  -44.267;  -92.267;    0.000;48.00000
 806.10;  -45.267;  -48.733;    0.000; 3.46667
 806.35;  -50.400;  -70.267;    0.000;19.86667
 806.61;  -42.333;  -53.067;    0.000;10.73333
 806.86;  -55.467;  -91.600;    0.000;36.13333
 807.11;  -31.667;  -66.467;    0.000;34.80000
 807.37;  -38.400;  -62.600;    0.000;24.20000
 807.62;  -60.200;  -53.467;    0.000;-6.73333
 807.87;  -53.067;  -81.933;    0.000;28.86667
 808.13;  -39.667;  -67.267;    0.000;27.60000
 808.38;  -45.533;  -85.467;    0.000;39.93333
 808.63;  -31.600;  -65.133;    0.000;33.53333
 808.89;  -62.000;  -86.133;    0.000;24.13333
 809.14;  -52.400;  -60.533;    0.000; 8.13333
 809.39;  -61.467;  -71.800;    0.000;10.33334
 809.65;  -62.600;  -54.200;    0.000;-8.40000
 809.90;  -40.800;  -97.800;    0.000;57.00000
 810.15;  -67.867;  -59.600;    0.000;-8.26667
 810.41;  -50.733;  -91.133;    0.000;40.40000
 810.66;  -46.533;  -75.200;    0.000;28.66666
 810.91;  -50.200;  -77.000;    0.000;26.80000
 811.16;  -72.467;  -56.867;    0.000;-15.60000
 811.42;  -45.333;  -87.067;    0.000;41.73333
 811.67;  -57.933;  -71.933;    0.000;14.00000
 811.92;  -65.400;  -98.000;    0.000;32.60000
 812.18;  -71.333;  -60.533;    0.000;-10.80000
 812.43;  -52.867;  -80.267;    0.000;27.40001
 812.68;  -33.200;  -54.600;    0.000;21.40000
 812.93;  -55.267;  -92.933;    0.000;37.66667
 813.19;  -41.333;  -42.800;    0.000; 1.46667
 813.44;  -42.733;  -83.400;    0.000;40.66667
 813.69;  -36.533;  -44.800;    0.000; 8.26667
 813.95;  -53.733;  -87.800;    0.000;34.06667
 814.20;  -33.400;  -63.200;    0.000;29.80000
 814.45;  -54.200;  -97.733;    0.000;43.53333
 814.70;  -51.733;  -75.600;    0.000;23.86666
 814.96;  -50.400;  -79.000;    0.000;28.60000
 815.21;  -34.667;  -62.733;    0.000;28.06667
 815.46;  -73.867; -105.733;    0.000;31.86666
 815.71;  -54.867;  -66.200;    0.000;11.33333
 815.96;  -65.467;  -79.400;    0.000;13.93333
 816.22;  -61.267;  -66.733;    0.000; 5.46666
 816.47;  -49.667;  -93.867;    0.000;44.20000
 816.72;  -49.933;  -48.400;    0.000;-1.53333
 816.97;  -53.467;  -71.000;    0.000;17.53333
 817.23;  -51.267;  -58.267;    0.000; 7.00000
 817.48;  -58.533;  -88.667;    0.000;30.13333
 817.73;  -57.133;  -74.400;    0.000;17.26667
 817.98;  -40.400;  -93.200;    0.000;52.80000
 818.23;  -41.467;  -60.733;    0.000;19.26667
 818.49;  -53.267;  -63.933;    0.000;10.66667
 818.74;  -35.200;  -54.400;    0.000;19.20000
 818.99;  -55.133;  -81.667;    0.000;26.53333
 819.24;  -54.133;  -42.933;    0.000;-11.20000
 819.50;  -49.733;  -87.600;    0.000;37.86666
 819.75;  -49.533;  -58.333;    0.000; 8.80000
 820.00;  -53.267;  -70.467;    0.000;17.20000
 820.25;  -63.533;  -53.933;    0.000;-9.60000
 820.50;  -73.533;  -84.933;    0.000;11.40000
 820.75;  -39.333;  -62.600;    0.000;23.26667
 821.01;  -70.533;  -79.267;    0.000; 8.73334
 821.26;  -33.867;  -58.400;    0.000;24.53334
 821.51;  -56.800;  -73.800;    0.000;17.00000
 821.76;  -59.067;  -74.333;    0.000;15.26667
 822.01;  -65.733;  -82.933;    0.000;17.20000
 822.26;  -58.267;  -55.667;    0.000;-2.60000
 822.52;  -47.800;  -79.667;    0.000;31.86666
 822.77;  -33.533;  -61.067;    0.000;27.53333
 823.02;  -50.733;  -92.867;    0.000;42.13334
 823.27;  -38.933;  -59.933;    0.000;21.00000
 823.52;  -71.800;  -79.000;    0.000; 7.20000
 823.77;  -49.000;  -67.667;    0.000;18.66666
 824.03;  -63.067;  -71.867;    0.000; 8.80000
 824.28;  -62.600;  -62.267;    0.000;-0.33333
 824.53;  -64.467;  -84.333;    0.000;19.86667
 824.78;  -45.600;  -47.000;    0.000; 1.40000
 825.03;  -74.800;  -90.467;    0.000;15.66666
 825.28;  -40.467;  -57.467;    0.000;17.00000
 825.53;  -45.667;  -74.800;    0.000;29.13334
 825.78;  -57.200;  -49.267;    0.000;-7.93333
 826.04;  -50.667;  -92.667;    0.000;42.00000
 826.29;  -56.267;  -72.533;    0.000;16.26667
 826.54;  -61.933;  -85.267;    0.000;23.33334
 826.79;  -53.467;  -51.200;    0.000;-2.26667
 827.04;  -65.333;  -92.867;    0.000;27.53333
 827.29;  -35.133;  -64.000;    0.000;28.86666
 827.54;  -60.933;  -77.267;    0.000;16.33334
 827.79;  -49.667;  -57.867;    0.000; 8.20000
 828.04;  -44.600;  -75.267;    0.000;30.66667
 828.29;  -52.267;  -67.067;    0.000;14.80000
 828.55;  -71.267;  -74.600;    0.000; 3.33333
 828.80;  -30.000;  -60.267;    0.000;30.26667
 829.05;  -71.733;  -85.333;    0.000;13.60001
 829.30;  -46.733;  -82.533;    0.000;35.80000
 829.55;  -64.933;  -78.133;    0.000;13.20000
 829.80;  -58.333;  -63.133;    0.000; 4.80000
 830.05;  -61.733;  -73.800;    0.000;12.06667
 830.30;  -67.267;  -69.533;    0.000; 2.26666
 830.55;  -48.867;  -91.600;    0.000;42.73333
 830.80;  -63.400;  -68.467;    0.000; 5.06667
 831.05;  -55.000;  -75.200;    0.000;20.20000
 831.30;  -33.267;  -54.933;    0.000;21.66667
 831.55;  -39.933; -110.333;    0.000;70.40000
 831.80;  -42.933;  -70.267;    0.000;27.33334
 832.05;  -48.200;  -75.533;    0.000;27.33333
 832.30;  -42.467;  -55.333;    0.000;12.86666
 832.56;  -75.867;  -75.467;    0.000;-0.40000
 832.81;  -45.800;  -69.667;    0.000;23.86666
 833.06;  -51.200;  -88.267;    0.000;37.06667
 833.31;  -68.800;  -78.200;    0.000; 9.39999
 833.56;  -64.800;  -74.533;    0.000; 9.73333
 833.81;  -51.933;  -47.133;    0.000;-4.80000
 834.06;  -59.867;  -83.600;    0.000;23.73333
 834.31;  -51.867;  -79.133;    0.000;27.26667
 834.56;  -78.400;  -79.933;    0.000; 1.53333
 834.81;  -69.133;  -72.867;    0.000; 3.73334
 835.06;  -62.667;  -79.533;    0.000;16.86666
 835.31;  -48.933;  -51.000;    0.000; 2.06667
 835.56;  -47.133;  -71.333;    0.000;24.20000
 835.81;  -47.333;  -72.333;    0.000;25.00000
 836.06;  -50.533;  -64.800;    0.000;14.26667
 836.31;  -66.667;  -71.200;    0.000; 4.53333
 836.56;  -51.600;  -78.933;    0.000;27.33334
 836.81;  -51.267;  -74.400;    0.000;23.13334
 837.06;  -40.400;  -71.667;    0.000;31.26666
 837.31;  -54.000;  -79.200;    0.000;25.20000
 837.56;  -80.000;  -93.733;    0.000;13.73333
 837.81;  -62.733;  -52.467;    0.000;-10.26667
 838.06;  -54.400;  -77.267;    0.000;22.86667
 838.31;  -57.667;  -74.000;    0.000;16.33333
 838.56;  -71.933;  -79.400;    0.000; 7.46667
 838.80;  -59.400;  -73.933;    0.000;14.53333
 839.05;  -50.067;  -90.533;    0.000;40.46667
 839.30;  -66.667;  -48.067;    0.000;-18.60000
 839.55;  -60.800;  -95.733;    0.000;34.93333
 839.80;  -69.000;  -63.400;    0.000;-5.60000
 840.05;  -51.267;  -93.000;    0.000;41.73333
 840.30;  -38.933;  -57.667;    0.000;18.73333
 840.55;  -56.667;  -63.267;    0.000; 6.60000
 840.80;  -37.933;  -42.000;    0.000; 4.06667
 841.05;  -76.000;  -77.867;    0.000; 1.86667
 841.30;  -37.400;  -67.600;    0.000;30.20000
 841.55;  -57.467;  -83.733;    0.000;26.26666
 841.80;  -51.333;  -62.000;    0.000;10.66667
 842.05;  -54.667;  -79.600;    0.000;24.93333
 842.30;  -62.800;  -76.667;    0.000;13.86666
 842.55;  -65.733;  -92.667;    0.000;26.93333
 842.79;  -69.267;  -82.400;    0.000;13.13333
 843.04;  -59.667;  -71.800;    0.000;12.13334
 843.29;  -57.733;  -50.000;    0.000;-7.73333
 843.54;  -41.067;  -64.533;    0.000;23.46667
 843.79;  -60.933;  -57.200;    0.000;-3.73333
 844.04;  -48.400;  -79.400;    0.000;31.00000
 844.29;  -57.600;  -84.400;    0.000;26.80000
 844.54;  -64.533;  -86.467;    0.000;21.93333
 844.79;  -63.467;  -65.200;    0.000; 1.73333
 845.04;  -71.533;  -84.133;    0.000;12.60000
 845.28;  -60.200;  -56.067;    0.000;-4.13334
 845.53;  -62.867;  -90.333;    0.000;27.46667
 845.78;  -46.600;  -51.400;    0.000; 4.80000
 846.03;  -78.467;  -73.267;    0.000;-5.20000
 846.28;  -58.867;  -73.400;    0.000;14.53334
 846.53;  -50.933;  -82.133;    0.000;31.20000
 846.78;  -48.933;  -74.067;    0.000;25.13333
 847.02;  -49.800;  -86.600;    0.000;36.80000
 847.27;  -38.333;  -82.133;    0.000;43.80000
 847.52;  -60.200;  -97.400;    0.000;37.20000
 847.77;  -71.667;  -68.800;    0.000;-2.86666
 848.02;  -78.133;  -69.667;    0.000;-8.46667
 848.27;  -61.600;  -54.133;    0.000;-7.46666
 848.52;  -76.600;  -99.333;    0.000;22.73334
 848.76;  -33.400;  -66.533;    0.000;33.13333
 849.01;  -65.533;  -64.733;    0.000;-0.80000
 849.26;  -41.067;  -52.333;    0.000;11.26667
 849.51;  -62.267;  -70.533;    0.000; 8.26667
 849.76;  -76.200;  -62.133;    0.000;-14.06666
 850.01;  -84.133;  -87.867;    0.000; 3.73334
 850.25;  -59.800;  -73.133;    0.000;13.33333
 850.50;  -57.133;  -75.800;    0.000;18.66667
 850.75;  -62.533;  -51.600;    0.000;-10.93333
 851.00;  -64.067;  -88.267;    0.000;24.20000
 851.25;  -58.467;  -46.733;    0.000;-11.73333
 851.49;  -60.000;  -67.667;    0.000; 7.66666
 851.74;  -77.533;  -72.133;    0.000;-5.40000
 851.99;  -73.133;  -96.133;    0.000;23.00000
 852.24;  -80.933;  -64.267;    0.000;-16.66666
 852.49;  -71.733;  -96.067;    0.000;24.33334
 852.73;  -57.200;  -64.533;    0.000; 7.33333
 852.98;  -58.867;  -86.200;    0.000;27.33333
 853.23;  -50.333;  -65.800;    0.000;15.46667
 853.48;  -66.600;  -79.333;    0.000;12.73334
 853.73;  -75.867;  -69.400;    0.000;-6.46667
 853.97;  -64.933;  -94.600;    0.000;29.66666
 854.22;  -72.800;  -63.267;    0.000;-9.53334
 854.47;  -68.333;  -88.400;    0.000;20.06667
 854.72;  -66.800;  -62.067;    0.000;-4.73334
 854.96;  -70.333;  -87.933;    0.000;17.60000
 855.21;  -60.733;  -53.000;    0.000;-7.73333
 855.46;  -58.000;  -77.467;    0.000;19.46667
 855.71;  -50.000;  -73.400;    0.000;23.40000
 855.95;  -76.133;  -70.933;    0.000;-5.20000
 856.20;  -77.267;  -64.933;    0.000;-12.33334
 856.45;  -74.267; -101.067;    0.000;26.80000
 856.70;  -48.467;  -62.800;    0.000;14.33333
 856.94;  -67.867;  -78.000;    0.000;10.13333
 857.19;  -56.200;  -57.333;    0.000; 1.13333
 857.44;  -75.333;  -82.800;    0.000; 7.46667
 857.69;  -67.400;  -51.000;    0.000;-16.40000
 857.93;  -67.800;  -75.467;    0.000; 7.66666
 858.18;  -57.867;  -34.533;    0.000;-23.33333
 858.43;  -76.333;  -67.200;    0.000;-9.13334
 858.67;  -41.733;  -46.933;    0.000; 5.20000
 858.92;  -57.267;  -79.133;    0.000;21.86666
 859.17;  -39.867;  -42.267;    0.000; 2.40000
 859.42;  -84.600;  -91.933;    0.000; 7.33334
 859.66;  -71.867;  -51.533;    0.000;-20.33334
 859.91;  -77.933;  -84.800;    0.000; 6.86667
 860.16;  -72.067;  -74.133;    0.000; 2.06667
 860.40;  -64.600;  -88.733;    0.000;24.13333
 860.65;  -83.400;  -81.267;    0.000;-2.13333
 860.90;  -90.400; -117.600;    0.000;27.20000
 861.14;  -44.133;  -56.400;    0.000;12.26667
 861.39;  -67.000;  -79.200;    0.000;12.20000
 861.64;  -58.000;  -63.067;    0.000; 5.06667
 861.88;  -76.133;  -93.467;    0.000;17.33334
 862.13;  -45.333;  -59.067;    0.000;13.73333
 862.38;  -87.533; -103.800;    0.000;16.26667
 862.62;  -46.933;  -56.667;    0.000; 9.73333
 862.87;  -74.200;  -77.133;    0.000; 2.93333
 863.12;  -57.467;  -67.000;    0.000; 9.53333
 863.36;  -90.000;  -85.933;    0.000;-4.06667
 863.61;  -59.267;  -57.200;    0.000;-2.06667
 863.86;  -87.600;  -74.667;    0.000;-12.93333
 864.10;  -89.467;  -62.933;    0.000;-26.53333
 864.35;  -56.067;  -90.400;    0.000;34.33334
 864.60;  -58.267;  -64.800;    0.000; 6.53334
 864.84;  -60.733;  -82.533;    0.000;21.80000
 865.09;  -55.867;  -54.667;    0.000;-1.20000
 865.33;  -85.400;  -84.733;    0.000;-0.66667
 865.58;  -75.533;  -54.333;    0.000;-21.20000
 865.83;  -81.400;  -81.933;    0.000; 0.53333
 866.07;  -71.133;  -64.467;    0.000;-6.66666
 866.32;  -40.333;  -61.800;    0.000;21.46667
 866.57;  -55.333;  -52.067;    0.000;-3.26667
 866.81;  -70.667;  -85.200;    0.000;14.53333
 867.06;  -75.533;  -78.133;    0.000; 2.60000
 867.30;  -59.600;  -83.267;    0.000;23.66667
 867.55;  -64.267;  -62.000;    0.000;-2.26667
 867.80;  -52.467;  -73.067;    0.000;20.60000
 868.04;  -74.067;  -66.133;    0.000;-7.93333
 868.29;  -84.867;  -87.067;    0.000; 2.20000
 868.53;  -65.867;  -42.000;    0.000;-23.86667
 868.78;  -75.600;  -99.200;    0.000;23.60000
 869.03;  -54.333;  -67.400;    0.000;13.06667
 869.27;  -49.067;  -58.800;    0.000; 9.73333
 869.52;  -72.333;  -67.800;    0.000;-4.53333
 869.76;  -69.200;  -80.200;    0.000;11.00000
 870.01;  -59.667;  -62.533;    0.000; 2.86666
 870.25;  -72.067;  -81.933;    0.000; 9.86667
 870.50;  -44.933;  -67.467;    0.000;22.53333
 870.75;  -74.067;  -69.067;    0.000;-5.00000
 870.99;  -56.200;  -52.467;    0.000;-3.73333
 871.24;  -62.733;  -73.467;    0.000;10.73333
 871.48;  -53.133;  -48.933;    0.000;-4.20000
 871.73;  -80.267;  -74.467;    0.000;-5.80000
 871.97;  -65.333;  -62.267;    0.000;-3.06667
 872.22;  -71.400;  -90.267;    0.000;18.86667
 872.46;  -51.267;  -67.000;    0.000;15.73333
 872.71;  -66.000;  -82.600;    0.000;16.60000
 872.95;  -59.267;  -56.667;    0.000;-2.60000
 873.20;  -57.467;  -77.000;    0.000;19.53333
 873.44;  -62.000;  -74.333;    0.000;12.33334
 873.69;  -79.800;  -79.933;    0.000; 0.13333
 873.94;  -55.467;  -39.067;    0.000;-16.40000
 874.18;  -69.400;  -95.400;    0.000;26.00000
 874.43;  -59.133;  -48.867;    0.000;-10.26667
 874.67;  -68.000;  -92.733;    0.000;24.73333
 874.92;  -38.133;  -45.267;    0.000; 7.13333
 875.16;  -68.867;  -77.267;    0.000; 8.40000
 875.41;  -55.333;  -62.267;    0.000; 6.93333
 875.65;  -82.400;  -77.533;    0.000;-4.86667
 875.90;  -49.933;  -48.467;    0.000;-1.46667
 876.14;  -69.733;  -91.267;    0.000;21.53334
 876.39;  -56.733;  -44.933;    0.000;-11.80000
 876.63;  -77.933;  -85.667;    0.000; 7.73333
 876.88;  -53.800;  -72.533;    0.000;18.73333
 877.12;  -87.533;  -55.533;    0.000;-32.00000
 877.36;  -43.867;  -60.267;    0.000;16.40000
 877.61;  -77.867;  -95.533;    0.000;17.66666
 877.85;  -49.333;  -57.733;    0.000; 8.40000
 878.10;  -61.333;  -75.333;    0.000;14.00000
 878.34;  -45.267;  -41.600;    0.000;-3.66667
 878.59;  -71.000;  -46.600;    0.000;-24.40000
 878.83;  -69.000;  -69.467;    0.000; 0.46667
 879.08;  -55.733;  -51.467;    0.000;-4.26667
 879.32;  -73.267;  -47.400;    0.000;-25.86667
 879.57;  -63.800;  -67.667;    0.000; 3.86666
 879.81;  -46.067;  -48.000;    0.000; 1.93333
 880.05;  -36.533;  -69.200;    0.000;32.66666
 880.30;  -74.000;  -58.000;    0.000;-16.00000
 880.54;  -76.000;  -86.733;    0.000;10.73333
 880.79;  -54.467;  -61.000;    0.000; 6.53333
 881.03;  -52.000;  -91.933;    0.000;39.93333
 881.28;  -43.133;  -36.267;    0.000;-6.86667
 881.52;  -72.133;  -78.000;    0.000; 5.86667
 881.76;  -50.400;  -62.867;    0.000;12.46666
 882.01;  -37.600;  -75.933;    0.000;38.33334
 882.25;  -64.800;  -60.600;    0.000;-4.20000
 882.50;  -76.800;  -77.067;    0.000; 0.26666
 882.74;  -67.467;  -38.600;    0.000;-28.86667
 882.98;  -52.867;  -72.800;    0.000;19.93334
 883.23;  -52.267;  -55.133;    0.000; 2.86667
 883.47;  -70.800;  -75.400;    0.000; 4.60000
 883.72;  -53.600;  -52.467;    0.000;-1.13333
 883.96;  -35.533;  -72.800;    0.000;37.26667
 884.20;  -60.000;  -52.400;    0.000;-7.60000
 884.45;  -57.533;  -66.200;    0.000; 8.66666
 884.69;  -21.533;  -50.533;    0.000;29.00000
 884.94;  -28.267;  -54.533;    0.000;26.26667
 885.18;  -27.467;  -44.400;    0.000;16.93333
 885.42;  -51.533;  -83.333;    0.000;31.80000
 885.67;  -52.000;  -44.200;    0.000;-7.80000
 885.91;  -60.467;  -75.467;    0.000;15.00000
 886.15;  -46.267;  -59.133;    0.000;12.86667
 886.40;  -54.800;  -52.800;    0.000;-2.00000
 886.64;  -49.600;  -47.667;    0.000;-1.93333
 886.88;  -44.200;  -53.333;    0.000; 9.13333
 887.13;  -35.800;  -38.400;    0.000; 2.60000
 887.37;  -69.400;  -81.600;    0.000;12.20000
 887.62;  -36.867;  -42.867;    0.000; 6.00000
 887.86;  -46.800;  -60.933;    0.000;14.13334
 888.10;  -32.467;  -46.000;    0.000;13.53333
 888.35;  -54.067;  -61.467;    0.000; 7.40000
 888.59;  -69.800;  -58.200;    0.000;-11.60000
 888.83;  -46.667;  -61.000;    0.000;14.33333
 889.07;  -41.733;  -49.133;    0.000; 7.40000
 889.32;  -44.600;  -78.133;    0.000;33.53333
 889.56;  -45.000;  -22.467;    0.000;-22.53333
 889.80;  -43.800;  -57.267;    0.000;13.46667
 890.05;  -56.867;  -65.600;    0.000; 8.73333
 890.29;  -50.133;  -52.200;    0.000; 2.06667
 890.53;  -31.733;  -46.200;    0.000;14.46667
 890.78;  -54.267;  -86.867;    0.000;32.60000
 891.02;  -50.467;  -39.000;    0.000;-11.46667
 891.26;  -51.267;  -72.600;    0.000;21.33333
 891.51;  -37.067;  -46.600;    0.000; 9.53333
 891.75;  -35.333;  -59.067;    0.000;23.73333
 891.99;  -42.533;  -36.467;    0.000;-6.06667
 892.23;  -44.333;  -54.133;    0.000; 9.80000
 892.48;  -13.200;  -42.267;    0.000;29.06667
 892.72;  -22.867;  -44.933;    0.000;22.06667
 892.96;  -19.133;  -28.333;    0.000; 9.20000
 893.20;  -37.133;  -37.533;    0.000; 0.40000
 893.45;  -59.133;  -40.933;    0.000;-18.20000
 893.69;  -50.000;  -60.133;    0.000;10.13334
 893.93;  -29.067;  -18.067;    0.000;-11.00000
 894.17;  -27.933;  -71.067;    0.000;43.13333
 894.42;  -48.400;  -30.067;    0.000;-18.33333
 894.66;  -33.333;  -54.267;    0.000;20.93333
 894.90;  -38.267;  -40.267;    0.000; 2.00000
 895.14;  -17.667;  -29.533;    0.000;11.86667
 895.39;  -13.533;  -48.267;    0.000;34.73333
 895.63;  -17.400;  -44.333;    0.000;26.93333
 895.87;  -25.333;  -42.000;    0.000;16.66667
 896.11;  -12.200;  -34.667;    0.000;22.46667
 896.36;  -21.600;  -26.000;    0.000; 4.40000
 896.60;  -55.000;  -37.800;    0.000;-17.20000
 896.84;  -11.933;  -17.333;    0.000; 5.40000
 897.08;  -27.400;  -43.867;    0.000;16.46667
 897.32;   -6.533;  -13.067;    0.000; 6.53333
 897.57;  -21.267;  -42.800;    0.000;21.53333
 897.81;  -19.667;  -30.000;    0.000;10.33333
 898.05;  -22.067;  -46.533;    0.000;24.46667
 898.29;   -8.467;  -11.667;    0.000; 3.20000
 898.53;  -11.000;  -24.000;    0.000;13.00000
 898.78;    8.867;   -1.333;    0.000;10.20000
 899.02;  -24.333;  -25.600;    0.000; 1.26667
 899.26;   -2.000;   -2.400;    0.000; 0.40000
 899.50;   17.867;   15.933;    0.000; 1.93333
 899.74;   -4.600;   13.400;    0.000;-18.00000
 899.99;   -4.000;  -20.400;    0.000;16.40000
 900.23;   31.600;   12.400;    0.000;19.20000
 900.47;   13.933;   -2.067;    0.000;16.00000
 900.71;   21.333;   37.067;    0.000;-15.73333
 900.95;   35.267;   21.200;    0.000;14.06667
 901.19;   61.867;   43.800;    0.000;18.06667
 901.44;   34.400;   44.733;    0.000;-10.33333
 901.68;   77.733;   90.733;    0.000;-13.00000
 901.92;   73.933;   66.133;    0.000; 7.80000
 902.16;   61.800;   85.867;    0.000;-24.06667
 902.40;  118.333;   91.933;    0.000;26.40000
 902.64;  138.667;  139.933;    0.000;-1.26666
 902.88;  158.133;  136.067;    0.000;22.06667
 903.13;  190.733;  183.600;    0.000; 7.13333

