point3
Integration time [ms]:  30.000
Averaging Nr. [scans]: 15
Smoothing Nr. [pixels]: 0
Data measured with spectrometer [name]: 1307077U2
Wave   ;Sample   ;Dark     ;Reference;Scope Corrected for Dark
[nm]   ;[counts] ;[counts] ;[counts] 

 350.80;    3.533;   10.133;    0.000;-6.60000
 351.10;  -13.800;  -15.000;    0.000; 1.20000
 351.39;   35.133;   32.600;    0.000; 2.53334
 351.69;  -22.800;  -19.200;    0.000;-3.60000
 351.99;    3.200;  -12.200;    0.000;15.40000
 352.28;  -19.400;  -30.667;    0.000;11.26667
 352.58;   -9.667;   -7.133;    0.000;-2.53333
 352.88;  -12.533;  -28.067;    0.000;15.53333
 353.17;   17.067;    3.600;    0.000;13.46667
 353.47;  -12.267;  -22.600;    0.000;10.33333
 353.76;    2.133;  -20.000;    0.000;22.13333
 354.06;   -0.867;   13.200;    0.000;-14.06667
 354.36;   16.067;    5.933;    0.000;10.13333
 354.65;   17.800;    6.667;    0.000;11.13333
 354.95;    4.267;   -7.667;    0.000;11.93333
 355.24;  -12.200;    5.400;    0.000;-17.60000
 355.54;    7.800;   -2.133;    0.000; 9.93333
 355.84;  -11.200;  -11.533;    0.000; 0.33333
 356.13;   34.867;   19.667;    0.000;15.20000
 356.43;  -31.600;  -18.400;    0.000;-13.20000
 356.72;  -16.400;  -15.000;    0.000;-1.40000
 357.02;   -6.333;   -8.933;    0.000; 2.60000
 357.31;    6.533;   11.867;    0.000;-5.33333
 357.61;   -2.067;  -12.667;    0.000;10.60000
 357.91;   -8.067;  -28.800;    0.000;20.73333
 358.20;   -4.600;  -10.067;    0.000; 5.46667
 358.50;    1.600;   -5.533;    0.000; 7.13333
 358.79;    6.533;   -7.867;    0.000;14.40000
 359.09;    4.667;   -3.200;    0.000; 7.86667
 359.38;  -23.600;    2.333;    0.000;-25.93333
 359.68;  -17.600;  -25.533;    0.000; 7.93333
 359.98;   -2.200;  -24.867;    0.000;22.66667
 360.27;   -1.000;   10.533;    0.000;-11.53333
 360.57;  -22.200;  -11.000;    0.000;-11.20000
 360.86;    0.133;    0.467;    0.000;-0.33333
 361.16;  -20.867;  -17.267;    0.000;-3.60000
 361.45;    9.067;  -12.133;    0.000;21.20000
 361.75;    0.267;  -13.133;    0.000;13.40000
 362.04;   47.667;   24.333;    0.000;23.33333
 362.34;    0.667;  -16.467;    0.000;17.13333
 362.64;    6.467;   -9.000;    0.000;15.46667
 362.93;   -6.467;   -3.133;    0.000;-3.33333
 363.23;  -14.733;  -18.333;    0.000; 3.60000
 363.52;  -11.733;   -8.400;    0.000;-3.33333
 363.82;    4.200;  -18.733;    0.000;22.93333
 364.11;    8.200;    1.067;    0.000; 7.13333
 364.41;  -20.467;  -12.867;    0.000;-7.60000
 364.70;  -13.800;   -7.333;    0.000;-6.46667
 365.00;   14.800;    8.667;    0.000; 6.13333
 365.29;  -14.867;   -7.533;    0.000;-7.33333
 365.59;  -18.533;  -25.600;    0.000; 7.06667
 365.88;  -19.867;  -30.867;    0.000;11.00000
 366.18;   -0.333;   -6.800;    0.000; 6.46667
 366.47;  -16.467;  -14.533;    0.000;-1.93333
 366.77;   -9.067;   -3.067;    0.000;-6.00000
 367.06;   -7.533;  -25.000;    0.000;17.46667
 367.36;   -8.000;   14.200;    0.000;-22.20000
 367.65;   18.800;   -8.800;    0.000;27.60000
 367.95;   -4.533;  -15.733;    0.000;11.20000
 368.24;   -9.467;  -12.867;    0.000; 3.40000
 368.54;   -7.267;  -14.200;    0.000; 6.93333
 368.83;    4.533;   -9.733;    0.000;14.26667
 369.13;   13.333;   -2.333;    0.000;15.66667
 369.42;  -13.200;   -4.467;    0.000;-8.73333
 369.72;  -14.800;  -15.000;    0.000; 0.20000
 370.01;    8.733;  -19.067;    0.000;27.80000
 370.31;   19.267;    3.267;    0.000;16.00000
 370.60;    7.733;  -10.000;    0.000;17.73333
 370.90;  -27.333;   -9.067;    0.000;-18.26667
 371.19;  -21.867;  -29.200;    0.000; 7.33333
 371.49;   -6.800;  -21.133;    0.000;14.33333
 371.78;  -12.800;  -20.867;    0.000; 8.06667
 372.08;    9.600;    1.400;    0.000; 8.20000
 372.37;   -6.533;  -23.467;    0.000;16.93333
 372.67;   12.733;   -1.600;    0.000;14.33333
 372.96;   -9.400;   -9.667;    0.000; 0.26667
 373.26;  -29.267;   -9.200;    0.000;-20.06667
 373.55;   -3.600;  -10.400;    0.000; 6.80000
 373.85;    2.000;  -28.400;    0.000;30.40000
 374.14;   11.067;   -8.467;    0.000;19.53333
 374.43;    5.333;  -16.267;    0.000;21.60000
 374.73;  -11.333;  -16.333;    0.000; 5.00000
 375.02;    6.133;   -0.533;    0.000; 6.66667
 375.32;  -22.133;  -28.733;    0.000; 6.60000
 375.61;   -0.867;   -5.267;    0.000; 4.40000
 375.91;   -5.800;  -13.000;    0.000; 7.20000
 376.20;   -5.933;  -40.533;    0.000;34.60000
 376.50;   -3.533;  -23.733;    0.000;20.20000
 376.79;   -2.400;  -28.200;    0.000;25.80000
 377.08;  -15.467;  -22.000;    0.000; 6.53333
 377.38;  -14.533;  -24.467;    0.000; 9.93333
 377.67;  -10.200;   -6.800;    0.000;-3.40000
 377.97;  -22.200;  -19.067;    0.000;-3.13333
 378.26;    1.867;  -27.733;    0.000;29.60000
 378.56;   -8.467;  -37.067;    0.000;28.60000
 378.85;   14.667;    8.000;    0.000; 6.66667
 379.14;  -14.267;  -13.733;    0.000;-0.53333
 379.44;  -15.400;  -12.733;    0.000;-2.66667
 379.73;   -1.200;  -25.000;    0.000;23.80000
 380.03;   -7.533;   -8.867;    0.000; 1.33333
 380.32;   10.933;    7.600;    0.000; 3.33333
 380.62;  -24.733;   -7.733;    0.000;-17.00000
 380.91;   15.667;  -11.533;    0.000;27.20000
 381.20;   -7.067;  -13.200;    0.000; 6.13333
 381.50;    3.533;  -11.333;    0.000;14.86667
 381.79;  -11.067;  -22.800;    0.000;11.73333
 382.09;   -9.333;  -31.667;    0.000;22.33333
 382.38;  -34.200;  -27.867;    0.000;-6.33333
 382.67;   -5.467;  -12.000;    0.000; 6.53333
 382.97;   -7.333;  -19.867;    0.000;12.53333
 383.26;    7.067;  -10.200;    0.000;17.26667
 383.56;  -13.000;    1.400;    0.000;-14.40000
 383.85;   -3.733;  -29.467;    0.000;25.73333
 384.14;   11.800;    2.267;    0.000; 9.53333
 384.44;  -11.467;  -15.933;    0.000; 4.46667
 384.73;  -13.733;  -18.667;    0.000; 4.93333
 385.02;  -11.933;  -11.400;    0.000;-0.53333
 385.32;  -14.600;   -1.133;    0.000;-13.46667
 385.61;  -20.067;  -40.067;    0.000;20.00000
 385.91;   -8.267;   -8.667;    0.000; 0.40000
 386.20;  -11.000;  -14.533;    0.000; 3.53333
 386.49;  -11.800;  -27.600;    0.000;15.80000
 386.79;    1.067;   -1.733;    0.000; 2.80000
 387.08;  -19.400;  -22.000;    0.000; 2.60000
 387.37;  -10.333;   -8.333;    0.000;-2.00000
 387.67;    3.067;  -18.333;    0.000;21.40000
 387.96;   -4.600;  -21.933;    0.000;17.33333
 388.25;   17.000;    7.733;    0.000; 9.26667
 388.55;  -11.400;   -9.867;    0.000;-1.53333
 388.84;  -35.333;  -15.400;    0.000;-19.93333
 389.14;   -6.200;   -9.000;    0.000; 2.80000
 389.43;   -7.600;  -21.867;    0.000;14.26667
 389.72;  -23.200;  -27.333;    0.000; 4.13333
 390.02;  -16.333;  -34.000;    0.000;17.66667
 390.31;   11.400;  -17.133;    0.000;28.53333
 390.60;  -12.600;  -17.200;    0.000; 4.60000
 390.90;  -11.467;  -24.467;    0.000;13.00000
 391.19;  -11.867;  -29.133;    0.000;17.26667
 391.48;   -9.000;  -33.467;    0.000;24.46667
 391.78;   16.600;  -28.333;    0.000;44.93333
 392.07;   44.800;   28.800;    0.000;16.00000
 392.36;   -1.667;    7.067;    0.000;-8.73333
 392.66;  -27.533;  -20.933;    0.000;-6.60000
 392.95;  -32.533;  -27.067;    0.000;-5.46667
 393.24;  -20.067;  -35.000;    0.000;14.93333
 393.53;   -6.400;  -29.133;    0.000;22.73333
 393.83;  -13.933;  -20.400;    0.000; 6.46667
 394.12;  -15.067;  -17.200;    0.000; 2.13333
 394.41;   -3.533;  -25.867;    0.000;22.33333
 394.71;   -7.200;  -21.600;    0.000;14.40000
 395.00;   -5.333;  -24.000;    0.000;18.66667
 395.29;  -14.467;   -0.733;    0.000;-13.73333
 395.59;  -37.800;  -19.067;    0.000;-18.73333
 395.88;  -12.067;  -11.533;    0.000;-0.53333
 396.17;  -11.933;  -37.600;    0.000;25.66667
 396.46;    4.400;  -22.000;    0.000;26.40000
 396.76;  -20.267;  -33.600;    0.000;13.33333
 397.05;   14.600;   11.933;    0.000; 2.66667
 397.34;  -27.067;  -18.800;    0.000;-8.26667
 397.64;  -18.867;  -13.533;    0.000;-5.33333
 397.93;  -29.000;  -17.667;    0.000;-11.33333
 398.22;  -14.200;  -34.467;    0.000;20.26667
 398.51;  -22.467;  -17.600;    0.000;-4.86667
 398.81;  -12.000;  -25.933;    0.000;13.93333
 399.10;    5.000;  -31.067;    0.000;36.06667
 399.39;  -19.600;  -10.867;    0.000;-8.73333
 399.69;    6.867;  -14.933;    0.000;21.80000
 399.98;    6.333;   -1.067;    0.000; 7.40000
 400.27;  -25.867;  -36.600;    0.000;10.73333
 400.56;   -7.133;  -21.067;    0.000;13.93333
 400.86;  -18.533;  -19.467;    0.000; 0.93333
 401.15;   21.400;  -13.133;    0.000;34.53333
 401.44;  -19.667;  -27.400;    0.000; 7.73333
 401.73;   15.333;   -7.733;    0.000;23.06667
 402.03;    1.867;   -2.200;    0.000; 4.06667
 402.32;  -20.200;  -26.133;    0.000; 5.93333
 402.61;   -1.533;  -10.400;    0.000; 8.86667
 402.90;  -23.667;  -44.200;    0.000;20.53333
 403.20;    4.800;  -17.067;    0.000;21.86667
 403.49;  -11.333;   -8.933;    0.000;-2.40000
 403.78;  -19.000;  -20.867;    0.000; 1.86667
 404.07;  -13.000;  -16.800;    0.000; 3.80000
 404.37;   11.133;  -10.867;    0.000;22.00000
 404.66;  -21.800;  -10.933;    0.000;-10.86667
 404.95;    5.933;  -18.400;    0.000;24.33333
 405.24;  -22.333;  -19.800;    0.000;-2.53333
 405.53;  -15.000;  -28.267;    0.000;13.26667
 405.83;    9.000;   -1.733;    0.000;10.73333
 406.12;  -19.467;  -31.867;    0.000;12.40000
 406.41;   16.000;   -8.600;    0.000;24.60000
 406.70;  -18.333;  -30.600;    0.000;12.26667
 407.00;  -30.933;   -5.267;    0.000;-25.66667
 407.29;   -9.200;  -19.133;    0.000; 9.93333
 407.58;  -21.800;  -31.533;    0.000; 9.73333
 407.87;  -13.933;  -32.933;    0.000;19.00000
 408.16;   -3.867;  -20.733;    0.000;16.86667
 408.46;  -11.867;  -28.467;    0.000;16.60000
 408.75;  -31.733;  -23.067;    0.000;-8.66667
 409.04;   -7.067;  -23.133;    0.000;16.06667
 409.33;   -7.933;  -14.333;    0.000; 6.40000
 409.62;   -0.667;  -16.467;    0.000;15.80000
 409.92;  -23.133;   -8.733;    0.000;-14.40000
 410.21;   -8.200;  -28.600;    0.000;20.40000
 410.50;  -19.400;  -19.933;    0.000; 0.53333
 410.79;   -1.867;    1.333;    0.000;-3.20000
 411.08;  -14.267;  -16.400;    0.000; 2.13333
 411.37;  -38.467;  -21.267;    0.000;-17.20000
 411.67;  -19.600;  -26.333;    0.000; 6.73333
 411.96;  -15.267;  -31.800;    0.000;16.53333
 412.25;  -15.067;  -20.467;    0.000; 5.40000
 412.54;  -25.467;  -19.867;    0.000;-5.60000
 412.83;  -22.067;  -36.267;    0.000;14.20000
 413.13;   -6.067;  -22.133;    0.000;16.06667
 413.42;  -23.733;  -20.933;    0.000;-2.80000
 413.71;   -7.133;  -12.467;    0.000; 5.33333
 414.00;  -30.400;  -20.467;    0.000;-9.93333
 414.29;  -18.800;  -12.400;    0.000;-6.40000
 414.58;  -22.800;  -31.000;    0.000; 8.20000
 414.87;  -16.267;  -38.067;    0.000;21.80000
 415.17;  -37.533;  -27.533;    0.000;-10.00000
 415.46;  -11.667;  -19.667;    0.000; 8.00000
 415.75;   -6.600;  -27.400;    0.000;20.80000
 416.04;  -12.867;  -23.867;    0.000;11.00000
 416.33;  -24.733;  -27.800;    0.000; 3.06667
 416.62;  -30.333;  -37.667;    0.000; 7.33333
 416.91;  -17.400;  -25.800;    0.000; 8.40000
 417.21;  -17.200;  -31.467;    0.000;14.26667
 417.50;  -32.600;  -31.867;    0.000;-0.73333
 417.79;  -26.333;  -23.933;    0.000;-2.40000
 418.08;  -20.800;  -26.267;    0.000; 5.46667
 418.37;   -1.600;  -38.400;    0.000;36.80000
 418.66;   -8.333;  -24.600;    0.000;16.26667
 418.95;   12.067;  -16.133;    0.000;28.20000
 419.24;  -21.733;  -28.667;    0.000; 6.93333
 419.54;   -4.267;  -23.467;    0.000;19.20000
 419.83;  -20.933;  -35.267;    0.000;14.33333
 420.12;  -23.533;  -34.933;    0.000;11.40000
 420.41;    7.533;    3.467;    0.000; 4.06667
 420.70;   -4.467;  -35.000;    0.000;30.53333
 420.99;  -18.600;   -0.333;    0.000;-18.26667
 421.28;  -12.733;  -16.867;    0.000; 4.13333
 421.57;    1.267;   -9.333;    0.000;10.60000
 421.86;    6.400;  -11.533;    0.000;17.93333
 422.16;    0.867;  -17.933;    0.000;18.80000
 422.45;    4.600;  -37.333;    0.000;41.93333
 422.74;  -19.600;  -36.600;    0.000;17.00000
 423.03;  -14.600;  -13.933;    0.000;-0.66667
 423.32;  -44.133;  -27.200;    0.000;-16.93333
 423.61;   13.067;  -25.467;    0.000;38.53333
 423.90;  -14.267;  -20.667;    0.000; 6.40000
 424.19;   33.400;   27.000;    0.000; 6.40000
 424.48;  -22.000;   -5.400;    0.000;-16.60000
 424.77;   -3.733;   -3.933;    0.000; 0.20000
 425.06;  -17.867;  -18.733;    0.000; 0.86667
 425.35;    9.467;  -13.400;    0.000;22.86667
 425.65;   -9.600;  -33.800;    0.000;24.20000
 425.94;  -21.467;  -19.867;    0.000;-1.60000
 426.23;  -37.667;  -39.467;    0.000; 1.80000
 426.52;  -28.667;  -38.067;    0.000; 9.40000
 426.81;    4.333;    3.933;    0.000; 0.40000
 427.10;  -22.133;  -33.400;    0.000;11.26667
 427.39;   -8.800;  -21.467;    0.000;12.66667
 427.68;  -20.600;  -17.733;    0.000;-2.86667
 427.97;    0.800;  -13.067;    0.000;13.86667
 428.26;  -20.267;  -24.600;    0.000; 4.33333
 428.55;    0.533;   -4.733;    0.000; 5.26667
 428.84;   11.000;  -15.800;    0.000;26.80000
 429.13;  -32.667;  -15.800;    0.000;-16.86667
 429.42;   -3.133;  -20.733;    0.000;17.60000
 429.71;   -1.267;  -10.200;    0.000; 8.93333
 430.00;   -0.867;  -38.667;    0.000;37.80000
 430.29;  -10.733;  -41.867;    0.000;31.13333
 430.58;  -20.267;  -23.867;    0.000; 3.60000
 430.87;  -26.400;  -24.267;    0.000;-2.13333
 431.16;  -34.200;  -40.533;    0.000; 6.33333
 431.46;  -21.267;  -15.133;    0.000;-6.13333
 431.75;  -22.867;  -16.067;    0.000;-6.80000
 432.04;    1.733;  -20.600;    0.000;22.33333
 432.33;   -6.867;  -28.133;    0.000;21.26667
 432.62;  -13.000;  -37.200;    0.000;24.20000
 432.91;  -22.600;  -35.933;    0.000;13.33333
 433.20;   -7.667;  -32.400;    0.000;24.73334
 433.49;  -23.600;  -30.400;    0.000; 6.80000
 433.78;  -24.400;  -43.733;    0.000;19.33333
 434.07;  -16.200;  -24.267;    0.000; 8.06667
 434.36;  -14.933;  -30.933;    0.000;16.00000
 434.65;  -12.067;  -27.867;    0.000;15.80000
 434.94;  -23.000;  -14.667;    0.000;-8.33333
 435.23;   -5.333;  -18.933;    0.000;13.60000
 435.52;  -11.600;  -22.067;    0.000;10.46667
 435.81;  -17.333;  -19.133;    0.000; 1.80000
 436.10;  -17.200;   -3.400;    0.000;-13.80000
 436.39;   11.467;   -6.000;    0.000;17.46667
 436.68;  -15.067;    2.533;    0.000;-17.60000
 436.97;  -21.867;  -29.067;    0.000; 7.20000
 437.26;  -24.733;    0.200;    0.000;-24.93333
 437.55;   -7.667;  -28.067;    0.000;20.40000
 437.83;  -25.533;  -38.800;    0.000;13.26667
 438.12;   -8.267;  -49.333;    0.000;41.06667
 438.41;  -19.133;   -8.933;    0.000;-10.20000
 438.70;   29.933;   12.267;    0.000;17.66667
 438.99;  -16.000;    3.200;    0.000;-19.20000
 439.28;  -17.867;  -13.800;    0.000;-4.06667
 439.57;  -22.400;  -28.600;    0.000; 6.20000
 439.86;   -2.400;  -32.067;    0.000;29.66667
 440.15;   -9.667;   -9.733;    0.000; 0.06667
 440.44;  -16.867;    5.267;    0.000;-22.13333
 440.73;  -15.600;  -30.467;    0.000;14.86667
 441.02;  -19.733;  -25.933;    0.000; 6.20000
 441.31;  -27.200;  -29.133;    0.000; 1.93333
 441.60;   -3.000;   -1.667;    0.000;-1.33333
 441.89;  -19.000;  -36.400;    0.000;17.40000
 442.18;    3.867;  -27.200;    0.000;31.06667
 442.47;  -21.867;  -22.533;    0.000; 0.66667
 442.76;  -24.733;  -18.667;    0.000;-6.06667
 443.05;   10.000;   -5.600;    0.000;15.60000
 443.34;  -25.667;   -4.400;    0.000;-21.26667
 443.63;   -9.400;  -30.000;    0.000;20.60000
 443.91;  -11.333;  -25.333;    0.000;14.00000
 444.20;  -28.733;  -15.000;    0.000;-13.73333
 444.49;  -29.333;  -34.667;    0.000; 5.33333
 444.78;    1.600;  -20.267;    0.000;21.86667
 445.07;    9.533;  -24.333;    0.000;33.86667
 445.36;  -16.800;  -23.267;    0.000; 6.46667
 445.65;   -4.400;  -21.067;    0.000;16.66667
 445.94;  -19.533;  -21.467;    0.000; 1.93333
 446.23;   -1.400;  -22.933;    0.000;21.53333
 446.52;  -22.600;  -25.200;    0.000; 2.60000
 446.81;  -24.533;  -17.800;    0.000;-6.73333
 447.10;  -15.867;  -19.133;    0.000; 3.26667
 447.38;  -36.667;  -61.067;    0.000;24.40000
 447.67;  -39.800;  -25.000;    0.000;-14.80000
 447.96;  -24.800;  -50.333;    0.000;25.53333
 448.25;  -25.133;  -28.933;    0.000; 3.80000
 448.54;   93.400;   82.533;    0.000;10.86667
 448.83;   -3.533;  -23.200;    0.000;19.66667
 449.12;  -32.733;  -51.000;    0.000;18.26667
 449.41;  -19.867;  -14.333;    0.000;-5.53333
 449.70;  -16.267;  -20.867;    0.000; 4.60000
 449.98;  -34.000;  -25.533;    0.000;-8.46667
 450.27;  -10.467;  -24.867;    0.000;14.40000
 450.56;  -11.733;  -29.067;    0.000;17.33333
 450.85;   -2.400;  -35.400;    0.000;33.00000
 451.14;  -42.533;  -40.733;    0.000;-1.80000
 451.43;  -20.200;  -22.333;    0.000; 2.13333
 451.72;  -12.667;  -27.333;    0.000;14.66667
 452.01;    0.067;  -26.333;    0.000;26.40000
 452.29;  -16.400;  -38.533;    0.000;22.13333
 452.58;  -35.200;  -30.000;    0.000;-5.20000
 452.87;  -29.667;  -11.933;    0.000;-17.73333
 453.16;   -6.667;  -29.067;    0.000;22.40000
 453.45;    3.533;   -9.600;    0.000;13.13333
 453.74;   -8.133;  -24.200;    0.000;16.06667
 454.03;   -6.200;  -32.867;    0.000;26.66667
 454.31;  -27.933;  -31.133;    0.000; 3.20000
 454.60;  -24.200;  -29.667;    0.000; 5.46667
 454.89;  -17.667;  -14.400;    0.000;-3.26667
 455.18;   -6.200;  -48.000;    0.000;41.80000
 455.47;  -21.667;  -46.800;    0.000;25.13333
 455.76;  -26.733;  -28.400;    0.000; 1.66667
 456.04;  -10.400;  -26.800;    0.000;16.40000
 456.33;  -15.267;  -20.733;    0.000; 5.46667
 456.62;  -14.533;  -25.533;    0.000;11.00000
 456.91;  -26.533;  -43.067;    0.000;16.53333
 457.20;    4.467;  -20.200;    0.000;24.66667
 457.49;  -16.867;  -20.067;    0.000; 3.20000
 457.77;  -21.867;  -47.200;    0.000;25.33333
 458.06;  -15.867;  -33.200;    0.000;17.33333
 458.35;  -22.400;  -37.667;    0.000;15.26667
 458.64;  -30.333;  -26.800;    0.000;-3.53333
 458.93;  -22.467;  -27.933;    0.000; 5.46667
 459.21;  -21.333;  -24.600;    0.000; 3.26667
 459.50;  -14.467;  -25.533;    0.000;11.06667
 459.79;  -13.800;  -44.867;    0.000;31.06666
 460.08;   -1.600;  -28.067;    0.000;26.46667
 460.37;  -17.800;  -33.467;    0.000;15.66667
 460.65;   -6.067;  -35.467;    0.000;29.40000
 460.94;  -17.133;  -32.467;    0.000;15.33333
 461.23;   -8.733;  -46.400;    0.000;37.66667
 461.52;    0.667;  -24.933;    0.000;25.60000
 461.81;   -5.000;  -32.267;    0.000;27.26667
 462.09;  -16.533;  -39.800;    0.000;23.26667
 462.38;  -30.000;  -48.200;    0.000;18.20000
 462.67;  -22.000;  -44.533;    0.000;22.53333
 462.96;   -5.200;  -34.400;    0.000;29.20000
 463.24;   -8.800;  -31.400;    0.000;22.60000
 463.53;   -9.000;  -17.933;    0.000; 8.93333
 463.82;  -29.000;  -38.067;    0.000; 9.06667
 464.11;  -18.467;  -44.600;    0.000;26.13333
 464.40;  -29.800;  -28.533;    0.000;-1.26667
 464.68;  -29.333;  -43.667;    0.000;14.33333
 464.97;  -27.800;  -30.733;    0.000; 2.93333
 465.26;  -10.400;  -23.600;    0.000;13.20000
 465.55;  -17.867;  -26.867;    0.000; 9.00000
 465.83;  -10.867;  -36.533;    0.000;25.66667
 466.12;  -29.333;  -25.400;    0.000;-3.93333
 466.41;   -5.933;  -25.800;    0.000;19.86667
 466.70;  -23.067;  -17.067;    0.000;-6.00000
 466.98;  -18.733;  -45.067;    0.000;26.33333
 467.27;   -9.267;  -33.133;    0.000;23.86667
 467.56;    0.333;  -12.733;    0.000;13.06667
 467.85;  -10.600;  -22.200;    0.000;11.60000
 468.13;  -23.400;  -36.400;    0.000;13.00000
 468.42;    2.467;  -27.333;    0.000;29.80000
 468.71;  -28.333;  -27.600;    0.000;-0.73333
 468.99;  -17.400;  -23.533;    0.000; 6.13333
 469.28;  -24.467;  -26.267;    0.000; 1.80000
 469.57;  -30.533;  -30.067;    0.000;-0.46667
 469.86;  -22.800;  -24.000;    0.000; 1.20000
 470.14;  -25.933;  -55.067;    0.000;29.13333
 470.43;    7.467;  -37.267;    0.000;44.73333
 470.72;  -19.467;  -43.200;    0.000;23.73333
 471.00;  -18.267;  -47.267;    0.000;29.00000
 471.29;  -10.533;    6.733;    0.000;-17.26667
 471.58;   13.067;  -21.800;    0.000;34.86667
 471.87;    0.267;  -18.467;    0.000;18.73333
 472.15;  -24.067;  -29.200;    0.000; 5.13333
 472.44;    6.667;   -4.933;    0.000;11.60000
 472.73;  -24.667;  -40.467;    0.000;15.80000
 473.01;  -10.600;  -44.733;    0.000;34.13333
 473.30;  -16.000;  -32.800;    0.000;16.80000
 473.59;   -8.667;  -49.667;    0.000;41.00000
 473.87;    4.533;  -26.133;    0.000;30.66667
 474.16;  -23.333;  -40.133;    0.000;16.80000
 474.45;  -33.000;  -34.933;    0.000; 1.93333
 474.74;  -25.467;  -51.200;    0.000;25.73333
 475.02;   -2.733;  -40.000;    0.000;37.26667
 475.31;  -10.800;  -19.600;    0.000; 8.80000
 475.60;    1.933;  -20.467;    0.000;22.40000
 475.88;  -22.200;   -9.600;    0.000;-12.60000
 476.17;   -9.200;  -17.333;    0.000; 8.13333
 476.46;  -27.867;  -36.067;    0.000; 8.20000
 476.74;  -24.467;  -37.400;    0.000;12.93333
 477.03;  -35.600;  -50.200;    0.000;14.60000
 477.32;  -14.133;  -22.667;    0.000; 8.53333
 477.60;  -26.800;  -24.867;    0.000;-1.93333
 477.89;   -3.800;  -12.267;    0.000; 8.46667
 478.18;   -5.733;  -28.733;    0.000;23.00000
 478.46;   11.867;  -38.933;    0.000;50.80000
 478.75;  -24.533;  -35.333;    0.000;10.80000
 479.03;  -30.867;  -31.000;    0.000; 0.13333
 479.32;  -11.333;  -24.933;    0.000;13.60000
 479.61;  -43.400;  -35.800;    0.000;-7.60000
 479.89;  -21.067;  -24.467;    0.000; 3.40000
 480.18;  -13.467;  -41.600;    0.000;28.13333
 480.47;  -16.533;  -44.600;    0.000;28.06667
 480.75;  -24.133;  -37.467;    0.000;13.33333
 481.04;  -12.000;  -20.600;    0.000; 8.60000
 481.33;  -16.800;  -20.467;    0.000; 3.66667
 481.61;  -14.867;  -20.867;    0.000; 6.00000
 481.90;  -27.600;  -49.200;    0.000;21.60000
 482.18;  -17.467;  -24.467;    0.000; 7.00000
 482.47;  -20.467;  -17.133;    0.000;-3.33333
 482.76;  -23.533;  -34.867;    0.000;11.33333
 483.04;  -17.667;  -37.733;    0.000;20.06667
 483.33;  -17.867;  -41.200;    0.000;23.33333
 483.61;  -13.800;  -30.667;    0.000;16.86667
 483.90;  -29.267;  -13.133;    0.000;-16.13333
 484.19;  -31.467;  -46.667;    0.000;15.20000
 484.47;   -5.600;  -27.600;    0.000;22.00000
 484.76;  -19.933;  -50.000;    0.000;30.06667
 485.05;    0.067;  -25.133;    0.000;25.20000
 485.33;   -8.267;  -23.133;    0.000;14.86667
 485.62;  -23.333;  -36.200;    0.000;12.86667
 485.90;   -2.400;  -29.467;    0.000;27.06667
 486.19;  -21.933;  -48.067;    0.000;26.13333
 486.47;   36.867;   -8.467;    0.000;45.33333
 486.76;  -11.400;  -12.867;    0.000; 1.46667
 487.05;   12.733;  -10.533;    0.000;23.26667
 487.33;   13.200;  -28.133;    0.000;41.33333
 487.62;    6.200;  -38.600;    0.000;44.80000
 487.90;    7.933;  -26.000;    0.000;33.93333
 488.19;   23.667;  -22.000;    0.000;45.66667
 488.47;   33.467;  -30.067;    0.000;63.53333
 488.76;   23.933;  -23.933;    0.000;47.86666
 489.05;   45.400;  -30.933;    0.000;76.33333
 489.33;   24.667;  -29.600;    0.000;54.26667
 489.62;   42.600;  -13.600;    0.000;56.20000
 489.90;   33.533;  -62.933;    0.000;96.46667
 490.19;   58.800;  -33.333;    0.000;92.13333
 490.47;   70.600;  -27.400;    0.000;98.00000
 490.76;   79.133;  -38.067;    0.000;117.20000
 491.05;   92.867;  -18.533;    0.000;111.40000
 491.33;   91.400;  -30.133;    0.000;121.53333
 491.62;   82.867;  -42.267;    0.000;125.13334
 491.90;  114.200;  -43.600;    0.000;157.80000
 492.19;  122.533;  -41.200;    0.000;163.73333
 492.47;  152.467;  -40.200;    0.000;192.66666
 492.76;  162.400;  -43.800;    0.000;206.19999
 493.04;  181.800;  -19.733;    0.000;201.53334
 493.33;  193.000;  -50.800;    0.000;243.80000
 493.61;  227.133;  -34.933;    0.000;262.06667
 493.90;  250.867;  -25.667;    0.000;276.53333
 494.18;  269.867;  -17.133;    0.000;287.00000
 494.47;  269.200;  -25.800;    0.000;295.00001
 494.75;  312.467;  -54.467;    0.000;366.93334
 495.04;  344.867;  -33.867;    0.000;378.73333
 495.32;  366.133;  -31.133;    0.000;397.26666
 495.61;  402.600;  -24.800;    0.000;427.40001
 495.89;  409.067;  -18.000;    0.000;427.06668
 496.18;  443.000;  -23.000;    0.000;466.00000
 496.46;  494.000;  -35.133;    0.000;529.13334
 496.75;  540.200;  -19.600;    0.000;559.80001
 497.03;  541.733;  -40.267;    0.000;582.00000
 497.32;  570.000;  -36.200;    0.000;606.20000
 497.60;  611.200;  -44.267;    0.000;655.46668
 497.89;  691.133;  -23.733;    0.000;714.86670
 498.17;  713.067;  -31.400;    0.000;744.46665
 498.46;  760.000;  -47.000;    0.000;807.00000
 498.74;  820.933;  -27.067;    0.000;848.00002
 499.03;  859.867;  -32.533;    0.000;892.39997
 499.31;  888.200;  -44.867;    0.000;933.06668
 499.60;  946.867;  -23.067;    0.000;969.93331
 499.88; 1006.067;  -20.667;    0.000;1026.73332
 500.17; 1050.467;  -51.067;    0.000;1101.53334
 500.45; 1138.600;  -29.733;    0.000;1168.33331
 500.74; 1177.333;  -30.800;    0.000;1208.13337
 501.02; 1196.533;  -25.933;    0.000;1222.46666
 501.31; 1297.333;  -39.333;    0.000;1336.66671
 501.59; 1348.267;  -36.867;    0.000;1385.13339
 501.88; 1410.467;  -34.667;    0.000;1445.13334
 502.16; 1447.667;  -35.000;    0.000;1482.66663
 502.45; 1553.867;  -40.867;    0.000;1594.73336
 502.73; 1598.600;  -39.067;    0.000;1637.66664
 503.01; 1644.533;  -44.467;    0.000;1688.99999
 503.30; 1713.267;  -59.600;    0.000;1772.86672
 503.58; 1803.667;  -49.400;    0.000;1853.06663
 503.87; 1854.200;  -34.067;    0.000;1888.26662
 504.15; 1944.000;  -41.800;    0.000;1985.80000
 504.44; 2020.800;  -18.467;    0.000;2039.26672
 504.72; 2080.867;  -21.733;    0.000;2102.60003
 505.00; 2168.600;  -35.133;    0.000;2203.73343
 505.29; 2240.733;  -14.533;    0.000;2255.26673
 505.57; 2343.933;  -49.933;    0.000;2393.86668
 505.86; 2401.333;  -44.600;    0.000;2445.93325
 506.14; 2463.267;  -40.200;    0.000;2503.46660
 506.43; 2555.667;  -35.333;    0.000;2591.00008
 506.71; 2634.933;  -43.133;    0.000;2678.06668
 506.99; 2685.467;  -42.333;    0.000;2727.79988
 507.28; 2754.333;  -26.133;    0.000;2780.46659
 507.56; 2849.867;  -49.667;    0.000;2899.53337
 507.85; 2957.200;  -50.800;    0.000;3007.99995
 508.13; 3072.400;  -22.267;    0.000;3094.66657
 508.41; 3165.933;  -12.267;    0.000;3178.20002
 508.70; 3244.733;  -50.600;    0.000;3295.33340
 508.98; 3284.800;  -39.800;    0.000;3324.60005
 509.27; 3381.200;  -45.133;    0.000;3426.33329
 509.55; 3408.467;  -30.800;    0.000;3439.26655
 509.83; 3507.800;  -58.933;    0.000;3566.73338
 510.12; 3577.267;  -33.400;    0.000;3610.66660
 510.40; 3705.200;  -29.067;    0.000;3734.26662
 510.69; 3774.467;  -52.733;    0.000;3827.19989
 510.97; 3834.200;  -30.667;    0.000;3864.86662
 511.25; 3979.533;  -52.733;    0.000;4032.26678
 511.54; 3987.200;  -27.200;    0.000;4014.39995
 511.82; 4093.467;  -22.933;    0.000;4116.39989
 512.11; 4184.800;  -27.267;    0.000;4212.06647
 512.39; 4246.267;  -34.667;    0.000;4280.93327
 512.67; 4363.267;  -39.467;    0.000;4402.73327
 512.96; 4415.733;  -42.467;    0.000;4458.20007
 513.24; 4487.867;  -19.667;    0.000;4507.53337
 513.52; 4547.200;  -25.000;    0.000;4572.20020
 513.81; 4690.067;  -16.333;    0.000;4706.40023
 514.09; 4730.267;  -49.200;    0.000;4779.46660
 514.37; 4815.333;  -48.600;    0.000;4863.93349
 514.66; 4869.533;  -24.933;    0.000;4894.46654
 514.94; 4931.333;  -41.200;    0.000;4972.53350
 515.22; 5113.200;  -49.467;    0.000;5162.66686
 515.51; 5158.800;  -42.133;    0.000;5200.93314
 515.79; 5218.000;  -32.133;    0.000;5250.13334
 516.07; 5307.600;  -47.067;    0.000;5354.66676
 516.36; 5335.000;  -47.133;    0.000;5382.13334
 516.64; 5426.933;  -31.267;    0.000;5458.19977
 516.92; 5511.067;  -49.200;    0.000;5560.26690
 517.21; 5586.333;  -51.733;    0.000;5638.06683
 517.49; 5712.600;  -44.400;    0.000;5757.00010
 517.77; 5805.333;  -31.467;    0.000;5836.80016
 518.06; 5854.467;  -55.133;    0.000;5909.60013
 518.34; 5980.133;  -33.400;    0.000;6013.53330
 518.62; 5969.867;  -27.667;    0.000;5997.53337
 518.91; 6139.733;  133.400;    0.000;6006.33340
 519.19; 6109.600;  -33.800;    0.000;6143.40010
 519.47; 6256.200;  -37.467;    0.000;6293.66686
 519.76; 6319.267;  -26.400;    0.000;6345.66660
 520.04; 6462.933;  -33.667;    0.000;6496.59977
 520.32; 6472.933;  -25.733;    0.000;6498.66644
 520.61; 6510.200;   -7.133;    0.000;6517.33353
 520.89; 6535.733;  -61.200;    0.000;6596.93340
 521.17; 6601.933;  -36.600;    0.000;6638.53310
 521.45; 6711.733;  -31.600;    0.000;6743.33340
 521.74; 6828.400;  -36.467;    0.000;6864.86657
 522.02; 6811.067;  -27.533;    0.000;6838.60023
 522.30; 6894.200;  -39.133;    0.000;6933.33353
 522.59; 6962.467;  -28.133;    0.000;6990.60013
 522.87; 7049.400;  -28.400;    0.000;7077.79990
 523.15; 7138.800;  -29.667;    0.000;7168.46647
 523.43; 7136.067;  -45.733;    0.000;7181.80023
 523.72; 7166.467;  -41.600;    0.000;7208.06680
 524.00; 7282.600;  -31.400;    0.000;7314.00010
 524.28; 7303.467;  -31.600;    0.000;7335.06680
 524.57; 7423.867;  -36.933;    0.000;7460.80003
 524.85; 7390.400;  -43.067;    0.000;7433.46657
 525.13; 7418.133;  -30.600;    0.000;7448.73330
 525.41; 7561.333;  -38.067;    0.000;7599.40016
 525.70; 7613.200;  -50.533;    0.000;7663.73353
 525.98; 7540.867;  -41.467;    0.000;7582.33337
 526.26; 7700.867;  -49.400;    0.000;7750.26670
 526.54; 7722.200;  -33.533;    0.000;7755.73353
 526.83; 7746.733;  -51.067;    0.000;7797.80006
 527.11; 7849.200;  -16.933;    0.000;7866.13353
 527.39; 7850.267;  -44.933;    0.000;7895.19994
 527.67; 7945.667;  -25.333;    0.000;7970.99984
 527.96; 7979.933;  -69.067;    0.000;8048.99977
 528.24; 8047.133;  -43.133;    0.000;8090.26664
 528.52; 8141.333;  -54.933;    0.000;8196.26683
 528.80; 8183.933;  -11.867;    0.000;8195.79977
 529.08; 8155.867;  -60.400;    0.000;8216.26670
 529.37; 8182.733;  -49.400;    0.000;8232.13340
 529.65; 8395.533;  -36.200;    0.000;8431.73320
 529.93; 8444.134;  -39.000;    0.000;8483.13379
 530.21; 8417.200;  -46.200;    0.000;8463.40020
 530.50; 8474.866;  -26.733;    0.000;8501.59954
 530.78; 8516.667;  -24.200;    0.000;8540.86699
 531.06; 8495.934;  -30.133;    0.000;8526.06693
 531.34; 8567.934;  -46.800;    0.000;8614.73359
 531.62; 8539.866;  -52.800;    0.000;8592.66621
 531.91; 8702.600;  -58.200;    0.000;8760.79961
 532.19; 8762.733;  -44.400;    0.000;8807.13340
 532.47; 8781.333;  -45.000;    0.000;8826.33301
 532.75; 8804.333;  -15.600;    0.000;8819.93301
 533.03; 8827.267;   -3.000;    0.000;8830.26660
 533.32; 8901.000;  -58.533;    0.000;8959.53333
 533.60; 8875.467;  -32.133;    0.000;8907.60013
 533.88; 8978.533;  -22.333;    0.000;9000.86654
 534.16; 8962.667;  -56.200;    0.000;9018.86699
 534.44; 9072.333;  -27.333;    0.000;9099.66634
 534.72; 9082.400;  -50.733;    0.000;9133.13372
 535.01; 9137.733;  -48.200;    0.000;9185.93340
 535.29; 9193.733;  -54.267;    0.000;9248.00006
 535.57; 9146.066;  -39.200;    0.000;9185.26641
 535.85; 9208.733;  -47.467;    0.000;9256.20007
 536.13; 9234.667;  -47.733;    0.000;9282.40033
 536.42; 9325.333;  -49.800;    0.000;9375.13301
 536.70; 9287.733;  -43.133;    0.000;9330.86673
 536.98; 9389.667;  -33.400;    0.000;9423.06699
 537.26; 9398.600;  -38.267;    0.000;9436.86628
 537.54; 9483.134;  -44.133;    0.000;9527.26712
 537.82; 9494.533;  -15.067;    0.000;9509.59987
 538.10; 9600.600;  -58.400;    0.000;9658.99961
 538.39; 9618.533;  -35.933;    0.000;9654.46654
 538.67; 9558.866;  -62.267;    0.000;9621.13288
 538.95; 9666.800;  -45.600;    0.000;9712.39980
 539.23; 9714.333;  -34.933;    0.000;9749.26634
 539.51; 9735.267;  -33.867;    0.000;9769.13327
 539.79; 9675.200;  -47.133;    0.000;9722.33353
 540.07; 9762.600;  -70.867;    0.000;9833.46628
 540.36; 9852.800;  -47.867;    0.000;9900.66647
 540.64; 9831.800;  -47.933;    0.000;9879.73314
 540.92; 9794.467;  -53.667;    0.000;9848.13346
 541.20; 9857.866;  -43.933;    0.000;9901.79955
 541.48; 9967.866;  -28.600;    0.000;9996.46621
 541.76; 9971.400;  -50.267;    0.000;10021.66706
 542.04; 9980.267;  -47.067;    0.000;10027.33327
 542.32; 9939.066;  -43.800;    0.000;9982.86641
 542.61;10078.800;  -39.733;    0.000;10118.53314
 542.89;10025.000;  -25.600;    0.000;10050.60000
 543.17;10053.866;  -46.400;    0.000;10100.26621
 543.45;10075.000;  -40.533;    0.000;10115.53333
 543.73;10197.333;  -38.933;    0.000;10236.26634
 544.01;10180.467;  -42.533;    0.000;10223.00013
 544.29;10116.733;  -22.333;    0.000;10139.06673
 544.57;10082.200;  -49.467;    0.000;10131.66686
 544.85;10161.333;  -34.467;    0.000;10195.79967
 545.13;10208.600;  -33.133;    0.000;10241.73294
 545.42;10241.467;  -44.400;    0.000;10285.86680
 545.70;10352.400;  -41.400;    0.000;10393.80039
 545.98;10311.267;  -42.400;    0.000;10353.66660
 546.26;10282.533;  -39.733;    0.000;10322.26654
 546.54;10270.400;  -69.933;    0.000;10340.33372
 546.82;10446.866;  -29.933;    0.000;10476.79954
 547.10;10386.866;  -18.200;    0.000;10405.06621
 547.38;10419.866;  -51.067;    0.000;10470.93288
 547.66;10347.467;  -39.933;    0.000;10387.40013
 547.94;10422.000;  -43.067;    0.000;10465.06667
 548.22;10420.200;  -49.733;    0.000;10469.93353
 548.50;10387.467;  -64.867;    0.000;10452.33347
 548.78;10441.066;  -52.200;    0.000;10493.26641
 549.06;10442.333;  -33.933;    0.000;10476.26634
 549.34;10521.533;  -51.333;    0.000;10572.86654
 549.63;10424.600;   -1.400;    0.000;10425.99961
 549.91;10412.533;  -31.133;    0.000;10443.66654
 550.19;10550.600;  -46.067;    0.000;10596.66628
 550.47;10498.600;  -48.800;    0.000;10547.39961
 550.75;10549.934;  -57.000;    0.000;10606.93359
 551.03;10473.200;  -62.667;    0.000;10535.86686
 551.31;10558.533;  -48.467;    0.000;10606.99987
 551.59;10522.267;  -48.467;    0.000;10570.73327
 551.87;10692.800;  -33.267;    0.000;10726.06647
 552.15;10568.467;  -41.867;    0.000;10610.33346
 552.43;10635.600;  -26.733;    0.000;10662.33294
 552.71;10593.134;  -38.733;    0.000;10631.86712
 552.99;10581.866;  -46.133;    0.000;10627.99955
 553.27;10571.600;  -58.933;    0.000;10630.53294
 553.55;10712.533;  -44.667;    0.000;10757.19987
 553.83;10586.400;  -47.267;    0.000;10633.66706
 554.11;10777.267;  -27.600;    0.000;10804.86660
 554.39;10701.600;  -43.667;    0.000;10745.26628
 554.67;10657.333;  -51.133;    0.000;10708.46634
 554.95;10616.200;  -18.400;    0.000;10634.60019
 555.23;10638.267;  -22.667;    0.000;10660.93327
 555.51;10675.600;  -50.933;    0.000;10726.53294
 555.79;10657.134;  -52.467;    0.000;10709.60046
 556.07;10617.733;  -46.467;    0.000;10664.20007
 556.35;10661.333;  -48.000;    0.000;10709.33301
 556.63;10773.934;  -47.600;    0.000;10821.53359
 556.91;10667.267;  -20.067;    0.000;10687.33327
 557.19;10645.467;  -47.867;    0.000;10693.33346
 557.47;10610.600;  -46.000;    0.000;10656.59961
 557.75;10620.134;  -37.400;    0.000;10657.53379
 558.03;10705.600;  -32.000;    0.000;10737.59961
 558.31;10672.134;  -64.933;    0.000;10737.06712
 558.59;10577.467;  -41.000;    0.000;10618.46680
 558.87;10713.467;  -30.867;    0.000;10744.33346
 559.15;10642.600;  -41.267;    0.000;10683.86628
 559.43;10496.733;  -37.733;    0.000;10534.46673
 559.71;10707.000;  -31.333;    0.000;10738.33333
 559.99;10669.000;  -56.400;    0.000;10725.40000
 560.27;10760.333;  -28.600;    0.000;10788.93301
 560.55;10641.267;  -36.933;    0.000;10678.19994
 560.82;10715.733;  -45.533;    0.000;10761.26673
 561.10;10633.000;  -30.467;    0.000;10663.46667
 561.38;10562.267;  -24.133;    0.000;10586.39993
 561.66;10660.333;   -8.267;    0.000;10668.59967
 561.94;10607.733;  -53.200;    0.000;10660.93340
 562.22;10512.066;  -45.467;    0.000;10557.53307
 562.50;10605.733;  -32.200;    0.000;10637.93340
 562.78;10607.267;  -41.333;    0.000;10648.59993
 563.06;10507.134;  -30.467;    0.000;10537.60046
 563.34;10541.800;  -41.667;    0.000;10583.46647
 563.62;10521.866;  -47.800;    0.000;10569.66621
 563.90;10498.400;  -54.600;    0.000;10553.00039
 564.18;10531.200;  -47.667;    0.000;10578.86686
 564.46;10556.800;  -52.467;    0.000;10609.26647
 564.74;10461.866;  -35.667;    0.000;10497.53288
 565.01;10515.134;  -36.667;    0.000;10551.80046
 565.29;10485.934;  -46.400;    0.000;10532.33360
 565.57;10349.733;  -50.533;    0.000;10400.26673
 565.85;10467.400;  -30.133;    0.000;10497.53372
 566.13;10358.866;  -59.733;    0.000;10418.59954
 566.41;10375.333;  -23.467;    0.000;10398.79967
 566.69;10358.600;  -55.267;    0.000;10413.86628
 566.97;10383.667;  -40.400;    0.000;10424.06699
 567.25;10334.467;  -30.600;    0.000;10365.06680
 567.53;10327.800;  -44.467;    0.000;10372.26647
 567.80;10179.333;  -35.733;    0.000;10215.06634
 568.08;10353.400;  -55.067;    0.000;10408.46706
 568.36;10250.667;  -41.000;    0.000;10291.66699
 568.64;10159.800;  -62.133;    0.000;10221.93314
 568.92;10238.934;  -45.667;    0.000;10284.60026
 569.20;10170.400;  -59.867;    0.000;10230.26706
 569.48;10156.400;  -47.400;    0.000;10203.80039
 569.76;10162.066;  -53.467;    0.000;10215.53307
 570.03;10081.333;  -36.067;    0.000;10117.39967
 570.31;10047.934;  -40.467;    0.000;10088.40026
 570.59;10035.934;  -59.000;    0.000;10094.93359
 570.87;10026.667;  -32.200;    0.000;10058.86699
 571.15; 9981.600;  -43.200;    0.000;10024.79961
 571.43; 9954.600;  -43.600;    0.000;9998.19961
 571.71; 9992.733;  -53.333;    0.000;10046.06673
 571.98; 9846.667;  -40.733;    0.000;9887.40033
 572.26; 9855.533;  -40.200;    0.000;9895.73320
 572.54; 9931.066;  -45.133;    0.000;9976.19974
 572.82; 9803.533;  -56.000;    0.000;9859.53320
 573.10; 9844.000;  -50.333;    0.000;9894.33333
 573.38; 9782.667;  -58.133;    0.000;9840.80033
 573.66; 9719.733;  -55.667;    0.000;9775.40007
 573.93; 9739.066;  -48.200;    0.000;9787.26641
 574.21; 9694.400;  -64.400;    0.000;9758.80039
 574.49; 9662.934;  -34.467;    0.000;9697.40026
 574.77; 9625.800;  -52.200;    0.000;9677.99981
 575.05; 9762.667;  -46.000;    0.000;9808.66699
 575.33; 9605.333;  -49.867;    0.000;9655.19967
 575.60; 9606.800;  -36.933;    0.000;9643.73314
 575.88; 9483.000;  -40.533;    0.000;9523.53333
 576.16; 9497.134;  -41.600;    0.000;9538.73379
 576.44; 9520.200;  -46.467;    0.000;9566.66686
 576.72; 9414.866;  -54.000;    0.000;9468.86621
 576.99; 9437.333;  -56.467;    0.000;9493.79967
 577.27; 9285.733;  -38.400;    0.000;9324.13340
 577.55; 9361.200;  -17.733;    0.000;9378.93353
 577.83; 9228.134;  -50.533;    0.000;9278.66712
 578.11; 9303.467;  -46.400;    0.000;9349.86680
 578.38; 9306.333;  -27.333;    0.000;9333.66634
 578.66; 9229.400;  -54.000;    0.000;9283.40039
 578.94; 9100.533;  -55.333;    0.000;9155.86654
 579.22; 9197.533;  -63.933;    0.000;9261.46654
 579.50; 9112.333;  -42.933;    0.000;9155.26634
 579.77; 9021.400;  -51.867;    0.000;9073.26706
 580.05; 9129.667;  -58.333;    0.000;9188.00032
 580.33; 9002.000;  -51.667;    0.000;9053.66667
 580.61; 8970.333;  -33.533;    0.000;9003.86634
 580.88; 8965.000;  -45.400;    0.000;9010.40000
 581.16; 8871.934;  -49.267;    0.000;8921.20026
 581.44; 8908.934;  -42.933;    0.000;8951.86693
 581.72; 8810.800;  -44.000;    0.000;8854.79980
 581.99; 8765.267;  -30.733;    0.000;8795.99994
 582.27; 8665.733;  -58.600;    0.000;8724.33340
 582.55; 8652.467;  -53.867;    0.000;8706.33346
 582.83; 8728.733;  -47.667;    0.000;8776.40007
 583.10; 8600.733;  -43.867;    0.000;8644.60006
 583.38; 8642.533;  -44.133;    0.000;8686.66654
 583.66; 8546.200;  -44.333;    0.000;8590.53353
 583.94; 8486.733;  -57.467;    0.000;8544.20007
 584.21; 8484.934;  -49.533;    0.000;8534.46693
 584.49; 8435.600;  -43.933;    0.000;8479.53294
 584.77; 8265.533;  -68.467;    0.000;8333.99987
 585.05; 8310.600;  -60.467;    0.000;8371.06628
 585.32; 8251.866;  -40.000;    0.000;8291.86621
 585.60; 8308.733;  -60.867;    0.000;8369.60006
 585.88; 8117.800;  -49.667;    0.000;8167.46647
 586.16; 8204.600;  -27.000;    0.000;8231.59961
 586.43; 8096.067;  -29.867;    0.000;8125.93356
 586.71; 8067.400;  -38.533;    0.000;8105.93324
 586.99; 7949.867;  -59.400;    0.000;8009.26670
 587.26; 7940.933;  -46.200;    0.000;7987.13311
 587.54; 7902.867;  -30.133;    0.000;7933.00003
 587.82; 7920.133;  -41.333;    0.000;7961.46663
 588.10; 7893.600;  -44.600;    0.000;7938.20010
 588.37; 7770.200;  -53.467;    0.000;7823.66686
 588.65; 7759.133;  -61.533;    0.000;7820.66663
 588.93; 7670.067;  -36.067;    0.000;7706.13356
 589.20; 7700.200;  -50.267;    0.000;7750.46686
 589.48; 7655.467;  -35.533;    0.000;7691.00013
 589.76; 7551.067;   -4.467;    0.000;7555.53356
 590.03; 7582.200;  -52.733;    0.000;7634.93353
 590.31; 7492.533;  -28.667;    0.000;7521.19987
 590.59; 7416.933;  -41.133;    0.000;7458.06644
 590.86; 7390.933;  -29.067;    0.000;7419.99977
 591.14; 7283.333;  -45.933;    0.000;7329.26683
 591.42; 7340.800;  -52.133;    0.000;7392.93314
 591.70; 7271.000;  -44.600;    0.000;7315.60000
 591.97; 7206.933;  -44.600;    0.000;7251.53310
 592.25; 7153.067;  -45.200;    0.000;7198.26690
 592.53; 7120.800;  -60.933;    0.000;7181.73314
 592.80; 7028.333;  -41.200;    0.000;7069.53350
 593.08; 7088.733;  -44.333;    0.000;7133.06673
 593.36; 7008.933;  -20.267;    0.000;7029.19977
 593.63; 6974.133;  -32.467;    0.000;7006.59997
 593.91; 6915.933;  -52.000;    0.000;6967.93311
 594.18; 6896.400;  -35.933;    0.000;6932.33324
 594.46; 6761.267;  -57.000;    0.000;6818.26660
 594.74; 6854.333;  -52.533;    0.000;6906.86683
 595.01; 6680.133;  -54.200;    0.000;6734.33330
 595.29; 6652.400;  -67.800;    0.000;6720.19991
 595.57; 6668.800;  -28.333;    0.000;6697.13314
 595.84; 6553.800;  -52.200;    0.000;6605.99981
 596.12; 6529.267;  -52.133;    0.000;6581.39994
 596.40; 6470.267;  -60.533;    0.000;6530.79993
 596.67; 6442.867;  -62.067;    0.000;6504.93336
 596.95; 6341.933;  -44.533;    0.000;6386.46644
 597.22; 6475.400;  -66.667;    0.000;6542.06657
 597.50; 6344.800;  -37.333;    0.000;6382.13314
 597.78; 6300.267;  -55.333;    0.000;6355.59993
 598.05; 6199.733;  -61.667;    0.000;6261.40007
 598.33; 6252.733;  -57.667;    0.000;6310.40007
 598.61; 6183.533;  -50.400;    0.000;6233.93320
 598.88; 6048.800;  -57.200;    0.000;6105.99981
 599.16; 6097.000;  -46.267;    0.000;6143.26667
 599.43; 5943.400;  -60.200;    0.000;6003.59990
 599.71; 5978.067;  -32.400;    0.000;6010.46690
 599.99; 5884.200;  -57.067;    0.000;5941.26686
 600.26; 5906.800;  -44.667;    0.000;5951.46647
 600.54; 5808.000;  -39.533;    0.000;5847.53333
 600.81; 5769.733;  -36.067;    0.000;5805.80006
 601.09; 5784.733;  -54.600;    0.000;5839.33340
 601.36; 5687.800;  -47.667;    0.000;5735.46647
 601.64; 5718.133;  -56.933;    0.000;5775.06664
 601.92; 5675.267;  -45.133;    0.000;5720.39994
 602.19; 5547.733;  -61.600;    0.000;5609.33340
 602.47; 5556.933;  -68.800;    0.000;5625.73311
 602.74; 5490.467;  -45.267;    0.000;5535.73346
 603.02; 5494.800;  -46.200;    0.000;5540.99981
 603.29; 5417.467;  -53.800;    0.000;5471.26680
 603.57; 5355.133;  -52.000;    0.000;5407.13330
 603.85; 5347.600;  -45.133;    0.000;5392.73343
 604.12; 5378.867;  -16.800;    0.000;5395.66670
 604.40; 5284.267;  -63.733;    0.000;5347.99994
 604.67; 5258.867;  -38.200;    0.000;5297.06670
 604.95; 5189.400;  -66.400;    0.000;5255.79990
 605.22; 5178.000;  -51.200;    0.000;5229.20000
 605.50; 5174.067;  -50.800;    0.000;5224.86689
 605.77; 5119.267;  -56.467;    0.000;5175.73327
 606.05; 5043.533;  -48.867;    0.000;5092.39987
 606.33; 5053.133;  -41.200;    0.000;5094.33330
 606.60; 4996.267;  -58.800;    0.000;5055.06660
 606.88; 4997.400;  -28.000;    0.000;5025.39990
 607.15; 4950.933;  -54.267;    0.000;5005.19977
 607.43; 4843.400;  -55.000;    0.000;4898.39990
 607.70; 4894.467;  -46.533;    0.000;4941.00013
 607.98; 4860.133;  -42.733;    0.000;4902.86663
 608.25; 4746.800;  -61.467;    0.000;4808.26647
 608.53; 4746.800;  -62.467;    0.000;4809.26647
 608.80; 4799.667;  -40.600;    0.000;4840.26650
 609.08; 4743.067;  -51.867;    0.000;4794.93356
 609.35; 4767.533;  -55.867;    0.000;4823.39987
 609.63; 4660.667;  -57.867;    0.000;4718.53317
 609.90; 4648.067;  -50.733;    0.000;4698.80023
 610.18; 4642.467;  -21.733;    0.000;4664.20013
 610.45; 4569.600;  -67.667;    0.000;4637.26676
 610.73; 4517.667;  -59.267;    0.000;4576.93317
 611.00; 4613.533;  -33.400;    0.000;4646.93320
 611.28; 4534.533;  -66.333;    0.000;4600.86654
 611.55; 4478.867;  -73.333;    0.000;4552.20004
 611.83; 4486.000;  -48.933;    0.000;4534.93333
 612.10; 4443.333;  -56.133;    0.000;4499.46683
 612.38; 4446.133;  -43.933;    0.000;4490.06664
 612.65; 4448.133;  -47.200;    0.000;4495.33330
 612.93; 4326.267;  -68.533;    0.000;4394.79993
 613.20; 4374.267;  -42.467;    0.000;4416.73327
 613.48; 4269.800;  -47.333;    0.000;4317.13314
 613.75; 4295.133;  -68.333;    0.000;4363.46664
 614.03; 4261.867;  -38.000;    0.000;4299.86670
 614.30; 4191.067;  -69.600;    0.000;4260.66689
 614.57; 4187.133;  -66.133;    0.000;4253.26663
 614.85; 4195.867;  -49.667;    0.000;4245.53337
 615.12; 4182.933;  -45.133;    0.000;4228.06644
 615.40; 4099.467;  -61.067;    0.000;4160.53346
 615.67; 4165.133;  -53.733;    0.000;4218.86663
 615.95; 4161.733;  -57.467;    0.000;4219.20007
 616.22; 4106.933;  -71.000;    0.000;4177.93311
 616.50; 4092.067;  -35.600;    0.000;4127.66665
 616.77; 3999.200;  -52.200;    0.000;4051.39995
 617.05; 3985.400;  -34.267;    0.000;4019.66657
 617.32; 4005.867;  -61.267;    0.000;4067.13337
 617.59; 3952.467;  -49.067;    0.000;4001.53322
 617.87; 3871.267;  -41.067;    0.000;3912.33327
 618.14; 3812.067;  -66.933;    0.000;3878.99998
 618.42; 3846.867;  -60.933;    0.000;3907.80003
 618.69; 3799.400;  -61.667;    0.000;3861.06657
 618.97; 3740.667;  -61.133;    0.000;3801.80008
 619.24; 3694.200;  -53.133;    0.000;3747.33329
 619.51; 3657.400;  -44.333;    0.000;3701.73323
 619.79; 3642.267;  -50.000;    0.000;3692.26660
 620.06; 3564.933;  -48.400;    0.000;3613.33335
 620.34; 3488.933;  -53.133;    0.000;3542.06668
 620.61; 3514.800;  -32.667;    0.000;3547.46672
 620.88; 3417.000;  -44.667;    0.000;3461.66667
 621.16; 3501.600;  -53.467;    0.000;3555.06676
 621.43; 3533.600;  -57.133;    0.000;3590.73343
 621.71; 3515.933;  -48.933;    0.000;3564.86668
 621.98; 3437.400;  -49.467;    0.000;3486.86657
 622.25; 3350.133;  -64.133;    0.000;3414.26663
 622.53; 3329.133;  -65.800;    0.000;3394.93330
 622.80; 3339.200;  -55.600;    0.000;3394.79995
 623.08; 3296.000;  -65.867;    0.000;3361.86667
 623.35; 3270.333;  -56.267;    0.000;3326.59992
 623.62; 3318.667;  -62.133;    0.000;3380.80008
 623.90; 3310.133;  -55.400;    0.000;3365.53330
 624.17; 3229.200;  -43.733;    0.000;3272.93328
 624.44; 3213.333;  -58.867;    0.000;3272.19992
 624.72; 3205.133;  -69.467;    0.000;3274.59997
 624.99; 3202.867;  -61.333;    0.000;3264.20003
 625.26; 3207.800;  -67.067;    0.000;3274.86671
 625.54; 3266.533;  -29.267;    0.000;3295.80011
 625.81; 3207.000;  -64.000;    0.000;3271.00000
 626.09; 3197.667;  -62.933;    0.000;3260.60008
 626.36; 3142.800;  -70.600;    0.000;3213.40005
 626.63; 3187.067;  -53.000;    0.000;3240.06665
 626.91; 3155.867;  -52.067;    0.000;3207.93336
 627.18; 3117.200;  -59.067;    0.000;3176.26662
 627.45; 3132.200;  -46.800;    0.000;3178.99995
 627.73; 3115.067;  -47.400;    0.000;3162.46665
 628.00; 3110.267;  -66.067;    0.000;3176.33327
 628.27; 3126.400;  -39.600;    0.000;3165.99990
 628.55; 3132.333;  -52.800;    0.000;3185.13325
 628.82; 3058.067;  -58.067;    0.000;3116.13332
 629.09; 3051.533;  -48.733;    0.000;3100.26678
 629.37; 3070.267;  -68.800;    0.000;3139.06660
 629.64; 2990.867;  -37.267;    0.000;3028.13337
 629.91; 3050.533;  -65.733;    0.000;3116.26678
 630.18; 2962.400;  -57.933;    0.000;3020.33324
 630.46; 2968.400;  -53.867;    0.000;3022.26657
 630.73; 2975.733;  -46.667;    0.000;3022.40007
 631.00; 2982.467;  -66.467;    0.000;3048.93322
 631.28; 2973.867;  -48.667;    0.000;3022.53337
 631.55; 2906.200;  -51.733;    0.000;2957.93328
 631.82; 2986.067;  -45.400;    0.000;3031.46665
 632.10; 2929.733;  -42.867;    0.000;2972.60006
 632.37; 2828.600;  -63.133;    0.000;2891.73343
 632.64; 2860.333;  -28.933;    0.000;2889.26658
 632.91; 2876.133;  -36.267;    0.000;2912.39997
 633.19; 2894.400;  -55.333;    0.000;2949.73323
 633.46; 2858.133;  -58.533;    0.000;2916.66663
 633.73; 2887.200;  -28.733;    0.000;2915.93328
 634.01; 2838.333;  -40.533;    0.000;2878.86658
 634.28; 2869.800;  -38.333;    0.000;2908.13338
 634.55; 2896.800;  -20.267;    0.000;2917.06672
 634.82; 2867.533;  -45.800;    0.000;2913.33345
 635.10; 2863.867;  -47.867;    0.000;2911.73336
 635.37; 2880.733;  -51.533;    0.000;2932.26673
 635.64; 2870.867;  -44.733;    0.000;2915.60003
 635.91; 2838.867;  -60.533;    0.000;2899.40003
 636.19; 2866.200;  -63.600;    0.000;2929.79995
 636.46; 2842.067;  -56.267;    0.000;2898.33332
 636.73; 2922.733;  -37.133;    0.000;2959.86673
 637.00; 2943.800;  -78.067;    0.000;3021.86671
 637.28; 2885.133;  -66.067;    0.000;2951.19997
 637.55; 2949.800;  -37.133;    0.000;2986.93338
 637.82; 2853.933;  -42.200;    0.000;2896.13335
 638.09; 2840.133;  -55.867;    0.000;2895.99997
 638.37; 2676.867;  -75.600;    0.000;2752.46670
 638.64; 2703.467;  -72.800;    0.000;2776.26656
 638.91; 2707.533;  -53.333;    0.000;2760.86678
 639.18; 2685.133;  -51.467;    0.000;2736.59997
 639.46; 2722.533;  -58.067;    0.000;2780.60011
 639.73; 2703.200;  -59.867;    0.000;2763.06662
 640.00; 2648.533;  -62.733;    0.000;2711.26678
 640.27; 2640.600;  -56.000;    0.000;2696.60010
 640.54; 2678.200;  -49.067;    0.000;2727.26662
 640.82; 2608.267;  -56.000;    0.000;2664.26660
 641.09; 2604.267;  -57.867;    0.000;2662.13327
 641.36; 2532.867;  -75.733;    0.000;2608.60003
 641.63; 2533.933;  -50.467;    0.000;2584.40002
 641.91; 2514.467;  -50.333;    0.000;2564.79988
 642.18; 2503.133;  -58.400;    0.000;2561.53330
 642.45; 2415.467;  -77.067;    0.000;2492.53322
 642.72; 2369.000;  -62.400;    0.000;2431.40000
 642.99; 2410.533;  -44.667;    0.000;2455.20012
 643.26; 2389.933;  -60.533;    0.000;2450.46668
 643.54; 2354.533;  -52.333;    0.000;2406.86678
 643.81; 2310.733;  -69.000;    0.000;2379.73340
 644.08; 2270.733;  -41.200;    0.000;2311.93340
 644.35; 2314.600;  -44.800;    0.000;2359.40010
 644.62; 2304.200;  -59.067;    0.000;2363.26662
 644.90; 2292.933;  -51.933;    0.000;2344.86668
 645.17; 2240.533;  -54.867;    0.000;2295.40011
 645.44; 2292.200;  -60.667;    0.000;2352.86662
 645.71; 2251.267;  -55.000;    0.000;2306.26660
 645.98; 2204.133;  -64.400;    0.000;2268.53330
 646.25; 2167.667;  -56.400;    0.000;2224.06675
 646.53; 2151.200;  -65.800;    0.000;2216.99995
 646.80; 2171.467;  -47.200;    0.000;2218.66655
 647.07; 2163.467;  -49.933;    0.000;2213.39989
 647.34; 2116.400;  -61.133;    0.000;2177.53324
 647.61; 2143.467;  -36.267;    0.000;2179.73322
 647.88; 2095.933;  -25.867;    0.000;2121.80002
 648.15; 2149.533;  -65.933;    0.000;2215.46678
 648.43; 2101.667;  -36.400;    0.000;2138.06675
 648.70; 2071.267;  -69.467;    0.000;2140.73327
 648.97; 2024.867;  -66.067;    0.000;2090.93336
 649.24; 2063.333;  -48.600;    0.000;2111.93325
 649.51; 2031.133;  -72.400;    0.000;2103.53330
 649.78; 1999.867;  -82.267;    0.000;2082.13337
 650.05; 2012.400;  -36.867;    0.000;2049.26669
 650.32; 2084.133;   17.333;    0.000;2066.79997
 650.60; 2014.267;  -55.467;    0.000;2069.73339
 650.87; 1981.867;  -53.067;    0.000;2034.93336
 651.14; 1976.467;  -80.400;    0.000;2056.86668
 651.41; 1947.267;  -69.400;    0.000;2016.66673
 651.68; 1917.000;  -56.467;    0.000;1973.46667
 651.95; 1949.400;  -60.800;    0.000;2010.20002
 652.22; 1887.733;  -53.667;    0.000;1941.39994
 652.49; 1888.800;  -71.533;    0.000;1960.33338
 652.76; 1861.867;  -61.133;    0.000;1923.00003
 653.03; 1890.933;  -62.000;    0.000;1952.93335
 653.31; 1828.000;  -44.333;    0.000;1872.33333
 653.58; 1850.867;  -65.533;    0.000;1916.40003
 653.85; 1828.200;  -64.933;    0.000;1893.13329
 654.12; 1826.533;  -41.667;    0.000;1868.19999
 654.39; 1862.467;  -49.667;    0.000;1912.13334
 654.66; 1815.667;  -22.733;    0.000;1838.39996
 654.93; 1800.800;  -36.600;    0.000;1837.40005
 655.20; 1789.467;  -84.133;    0.000;1873.60001
 655.47; 1712.133;  -63.667;    0.000;1775.79997
 655.74; 1810.933;  -41.867;    0.000;1852.80001
 656.01; 1714.533;  -72.333;    0.000;1786.86666
 656.28; 1750.267;  -70.200;    0.000;1820.46672
 656.55; 1665.467;  -43.133;    0.000;1708.60001
 656.83; 1666.600;  -66.933;    0.000;1733.53331
 657.10; 1676.867;  -77.133;    0.000;1754.00003
 657.37; 1677.867;  -37.067;    0.000;1714.93336
 657.64; 1642.867;  -56.800;    0.000;1699.66670
 657.91; 1645.133;  -44.467;    0.000;1689.59997
 658.18; 1653.933;  -47.133;    0.000;1701.06668
 658.45; 1628.533;  -62.733;    0.000;1691.26666
 658.72; 1601.800;  -64.933;    0.000;1666.73338
 658.99; 1631.267;  -64.400;    0.000;1695.66673
 659.26; 1617.600;  -63.400;    0.000;1680.99998
 659.53; 1552.533;  -67.000;    0.000;1619.53333
 659.80; 1589.267;  -63.667;    0.000;1652.93339
 660.07; 1573.000;  -69.800;    0.000;1642.80000
 660.34; 1545.867;  -56.067;    0.000;1601.93336
 660.61; 1528.867;  -68.000;    0.000;1596.86670
 660.88; 1521.333;  -59.533;    0.000;1580.86671
 661.15; 1538.267;  -65.067;    0.000;1603.33339
 661.42; 1547.800;  -48.067;    0.000;1595.86671
 661.69; 1510.333;  -76.933;    0.000;1587.26671
 661.96; 1471.733;  -77.467;    0.000;1549.19994
 662.23; 1504.467;  -69.800;    0.000;1574.26668
 662.50; 1464.133;  -65.200;    0.000;1529.33330
 662.77; 1447.600;  -53.867;    0.000;1501.46664
 663.04; 1403.000;  -63.933;    0.000;1466.93333
 663.31; 1445.667;  -75.467;    0.000;1521.13329
 663.58; 1410.933;  -55.000;    0.000;1465.93335
 663.85; 1417.800;  -66.467;    0.000;1484.26672
 664.12; 1387.533;  -62.400;    0.000;1449.93333
 664.39; 1387.067;  -53.600;    0.000;1440.66665
 664.66; 1408.267;  -59.200;    0.000;1467.46672
 664.93; 1324.733;  -75.733;    0.000;1400.46661
 665.20; 1376.667;  -72.200;    0.000;1448.86662
 665.47; 1373.467;  -55.467;    0.000;1428.93334
 665.74; 1322.533;  -69.067;    0.000;1391.59999
 666.01; 1359.867;  -49.533;    0.000;1409.40003
 666.28; 1309.733;  -66.867;    0.000;1376.59995
 666.55; 1298.333;  -65.067;    0.000;1363.40004
 666.82; 1267.933;  -68.600;    0.000;1336.53335
 667.09; 1300.333;  -70.933;    0.000;1371.26671
 667.36; 1262.800;  -48.400;    0.000;1311.20005
 667.63; 1285.067;  -56.400;    0.000;1341.46665
 667.90; 1235.200;  -75.000;    0.000;1310.19995
 668.16; 1247.800;  -63.000;    0.000;1310.80005
 668.43; 1288.333;  -61.400;    0.000;1349.73338
 668.70; 1220.200;  -41.533;    0.000;1261.73328
 668.97; 1215.067;  -53.667;    0.000;1268.73332
 669.24; 1225.067;  -45.667;    0.000;1270.73332
 669.51; 1206.800;  -64.800;    0.000;1271.60005
 669.78; 1206.333;  -60.067;    0.000;1266.40004
 670.05; 1163.200;  -78.600;    0.000;1241.79995
 670.32; 1157.933;  -67.333;    0.000;1225.26669
 670.59; 1153.267;  -61.067;    0.000;1214.33339
 670.86; 1161.800;  -48.200;    0.000;1210.00005
 671.13; 1184.800;  -62.133;    0.000;1246.93338
 671.40; 1138.067;  -57.800;    0.000;1195.86665
 671.67; 1145.267;  -38.333;    0.000;1183.60006
 671.93; 1137.667;  -57.400;    0.000;1195.06663
 672.20; 1104.400;  -67.733;    0.000;1172.13335
 672.47; 1140.533;  -67.267;    0.000;1207.80000
 672.74; 1103.933;  -77.267;    0.000;1181.20002
 673.01; 1130.533;  -77.333;    0.000;1207.86666
 673.28; 1094.733;  -48.600;    0.000;1143.33327
 673.55; 1095.600;  -81.067;    0.000;1176.66664
 673.82; 1065.933;  -65.867;    0.000;1131.80002
 674.09; 1073.200;  -58.667;    0.000;1131.86662
 674.35; 1076.733;  -76.000;    0.000;1152.73328
 674.62; 1066.400;  -72.600;    0.000;1139.00002
 674.89; 1021.933;  -56.733;    0.000;1078.66668
 675.16; 1018.933;  -73.133;    0.000;1092.06668
 675.43; 1014.200;  -63.600;    0.000;1077.80001
 675.70; 1042.000;  -25.000;    0.000;1067.00000
 675.97; 1002.267;  -61.000;    0.000;1063.26666
 676.24; 1006.800;  -64.733;    0.000;1071.53332
 676.50;  996.800;  -82.133;    0.000;1078.93332
 676.77;  993.867;  -70.467;    0.000;1064.33331
 677.04;  964.333;  -53.933;    0.000;1018.26665
 677.31;  970.200;  -83.200;    0.000;1053.40001
 677.58;  971.067;  -79.667;    0.000;1050.73331
 677.85;  968.800;  -58.267;    0.000;1027.06665
 678.12;  933.267;  -63.733;    0.000;997.00000
 678.38;  954.933;  -62.067;    0.000;1017.00002
 678.65;  914.800;  -82.867;    0.000;997.66666
 678.92;  894.733;  -63.000;    0.000;957.73334
 679.19;  940.600;  -31.533;    0.000;972.13331
 679.46;  913.200;  -68.000;    0.000;981.20001
 679.73;  888.600;  -63.933;    0.000;952.53331
 679.99;  873.067;  -72.133;    0.000;945.19998
 680.26;  878.600;  -77.400;    0.000;955.99998
 680.53;  858.800;  -71.067;    0.000;929.86665
 680.80;  865.000;  -66.533;    0.000;931.53333
 681.07;  860.933;  -61.333;    0.000;922.26668
 681.33;  867.400;  -54.667;    0.000;922.06669
 681.60;  855.600;  -39.933;    0.000;895.53331
 681.87;  854.533;  -63.800;    0.000;918.33332
 682.14;  850.667;  -58.800;    0.000;909.46669
 682.41;  814.533;  -67.333;    0.000;881.86666
 682.67;  816.867;  -64.600;    0.000;881.46664
 682.94;  789.933;  -79.267;    0.000;869.20002
 683.21;  827.733;  -74.600;    0.000;902.33334
 683.48;  802.933;  -63.133;    0.000;866.06668
 683.75;  801.600;  -59.600;    0.000;861.19997
 684.01;  799.733;  -61.400;    0.000;861.13334
 684.28;  753.267;  -82.733;    0.000;835.99999
 684.55;  779.600;  -53.867;    0.000;833.46664
 684.82;  751.000;  -77.467;    0.000;828.46667
 685.09;  761.933;  -46.333;    0.000;808.26668
 685.35;  747.933;  -64.000;    0.000;811.93335
 685.62;  716.800;  -53.267;    0.000;770.06665
 685.89;  740.400;  -64.667;    0.000;805.06669
 686.16;  707.667;  -67.067;    0.000;774.73335
 686.42;  715.067;  -55.600;    0.000;770.66665
 686.69;  738.467;  -52.467;    0.000;790.93334
 686.96;  705.067;  -67.467;    0.000;772.53332
 687.23;  727.133;  -45.400;    0.000;772.53336
 687.49;  735.733;  -41.600;    0.000;777.33334
 687.76;  685.467;  -85.733;    0.000;771.20000
 688.03;  695.600;  -64.867;    0.000;760.46664
 688.30;  655.600;  -72.000;    0.000;727.59998
 688.56;  678.667;  -80.333;    0.000;759.00002
 688.83;  667.000;  -85.467;    0.000;752.46667
 689.10;  669.267;  -83.200;    0.000;752.46666
 689.37;  605.400;  -82.867;    0.000;688.26669
 689.63;  667.600;  -68.400;    0.000;735.99998
 689.90;  661.867;  -56.467;    0.000;718.33331
 690.17;  632.400;  -67.400;    0.000;699.80003
 690.44;  629.600;  -69.000;    0.000;698.59998
 690.70;  597.600;  -71.200;    0.000;668.79997
 690.97;  608.667;  -57.000;    0.000;665.66669
 691.24;  592.000;  -55.000;    0.000;647.00000
 691.50;  592.467;  -71.733;    0.000;664.20000
 691.77;  607.333;  -91.467;    0.000;698.79998
 692.04;  564.800;  -56.867;    0.000;621.66665
 692.30;  584.467;  -84.400;    0.000;668.86668
 692.57;  572.200;  -62.533;    0.000;634.73335
 692.84;  556.800;  -83.933;    0.000;640.73332
 693.11;  572.200;  -59.200;    0.000;631.40001
 693.37;  568.800;  -59.867;    0.000;628.66665
 693.64;  550.667;  -82.600;    0.000;633.26669
 693.91;  545.067;  -77.667;    0.000;622.73331
 694.17;  557.467;  -63.000;    0.000;620.46667
 694.44;  562.333;  -58.400;    0.000;620.73331
 694.71;  542.200;  -71.067;    0.000;613.26668
 694.97;  551.867;  -54.067;    0.000;605.93330
 695.24;  496.200;  -83.133;    0.000;579.33334
 695.51;  521.067;  -72.467;    0.000;593.53332
 695.77;  505.133;  -73.733;    0.000;578.86666
 696.04;  488.267;  -66.200;    0.000;554.46666
 696.31;  479.467;  -62.800;    0.000;542.26667
 696.57;  491.533;  -50.133;    0.000;541.66666
 696.84;  486.000;  -46.333;    0.000;532.33333
 697.11;  494.067;  -67.533;    0.000;561.60001
 697.37;  467.933;  -60.467;    0.000;528.39999
 697.64;  490.333;  -73.333;    0.000;563.66668
 697.91;  427.067;  -60.067;    0.000;487.13335
 698.17;  419.533;  -77.133;    0.000;496.66666
 698.44;  443.533;  -76.733;    0.000;520.26665
 698.71;  448.333;  -61.667;    0.000;510.00001
 698.97;  426.000;  -59.267;    0.000;485.26667
 699.24;  432.800;  -38.600;    0.000;471.39999
 699.50;  421.067;  -66.333;    0.000;487.40002
 699.77;  459.333;  -43.467;    0.000;502.80001
 700.04;  412.267;  -55.600;    0.000;467.86666
 700.30;  417.333;  -69.200;    0.000;486.53334
 700.57;  380.200;  -70.133;    0.000;450.33334
 700.84;  393.267;  -56.333;    0.000;449.59999
 701.10;  365.600;  -79.733;    0.000;445.33334
 701.37;  385.600;  -63.733;    0.000;449.33334
 701.63;  383.000;  -65.733;    0.000;448.73333
 701.90;  399.600;  -51.667;    0.000;451.26667
 702.17;  370.933;  -24.400;    0.000;395.33332
 702.43;  361.533;  -70.333;    0.000;431.86666
 702.70;  384.133;  -48.733;    0.000;432.86666
 702.96;  331.333;  -76.800;    0.000;408.13335
 703.23;  329.067;  -79.733;    0.000;408.80001
 703.50;  314.267;  -72.933;    0.000;387.20000
 703.76;  334.200;  -60.200;    0.000;394.40001
 704.03;  316.733;  -64.867;    0.000;381.60001
 704.29;  328.400;  -57.733;    0.000;386.13333
 704.56;  314.933;  -77.667;    0.000;392.59998
 704.82;  289.800;  -63.000;    0.000;352.79999
 705.09;  317.733;  -59.533;    0.000;377.26667
 705.36;  281.533;  -78.067;    0.000;359.59999
 705.62;  313.533;  -31.333;    0.000;344.86666
 705.89;  276.800;  -68.533;    0.000;345.33332
 706.15;  286.333;  -57.200;    0.000;343.53334
 706.42;  267.800;  -56.333;    0.000;324.13332
 706.68;  252.400;  -66.800;    0.000;319.20000
 706.95;  268.800;  -80.867;    0.000;349.66666
 707.21;  249.867;  -75.667;    0.000;325.53333
 707.48;  261.733;  -58.533;    0.000;320.26667
 707.75;  238.600;  -85.600;    0.000;324.20000
 708.01;  244.533;  -70.067;    0.000;314.60001
 708.28;  242.867;  -80.000;    0.000;322.86667
 708.54;  224.933;  -60.600;    0.000;285.53333
 708.81;  240.733;  -49.267;    0.000;290.00000
 709.07;  234.467;  -71.333;    0.000;305.80000
 709.34;  217.667;  -73.733;    0.000;291.40000
 709.60;  201.133;  -88.000;    0.000;289.13333
 709.87;  238.133;  -61.867;    0.000;300.00000
 710.13;  191.200;  -59.667;    0.000;250.86666
 710.40;  205.467;  -79.800;    0.000;285.26666
 710.66;  195.867;  -71.267;    0.000;267.13334
 710.93;  182.200;  -65.733;    0.000;247.93333
 711.19;  190.467;  -75.000;    0.000;265.46666
 711.46;  211.000;  -58.000;    0.000;269.00000
 711.72;  187.867;  -66.667;    0.000;254.53333
 711.99;  183.000;  -76.133;    0.000;259.13333
 712.25;  196.933;  -59.867;    0.000;256.80000
 712.52;  220.600;  -51.400;    0.000;272.00001
 712.78;  194.867;  -65.200;    0.000;260.06667
 713.05;  173.067;  -65.533;    0.000;238.60000
 713.31;  170.267;  -59.267;    0.000;229.53333
 713.58;  175.600;  -67.200;    0.000;242.80000
 713.84;  160.267;  -64.067;    0.000;224.33333
 714.11;  185.200;  -76.333;    0.000;261.53333
 714.37;  189.400;  -51.867;    0.000;241.26666
 714.64;  169.200;  -80.200;    0.000;249.39999
 714.90;  168.533;  -71.267;    0.000;239.80001
 715.17;  161.067;  -76.667;    0.000;237.73333
 715.43;  162.533;  -75.600;    0.000;238.13334
 715.70;  169.733;  -68.867;    0.000;238.60001
 715.96;  143.133;  -67.067;    0.000;210.20000
 716.22;  142.400;  -70.667;    0.000;213.06666
 716.49;  142.133;  -71.733;    0.000;213.86666
 716.75;  140.533;  -96.000;    0.000;236.53334
 717.02;  169.133;  -50.200;    0.000;219.33333
 717.28;  149.333;  -76.267;    0.000;225.60000
 717.55;  155.000;  -82.067;    0.000;237.06667
 717.81;  145.133;  -69.067;    0.000;214.20000
 718.08;  139.400;  -62.333;    0.000;201.73333
 718.34;  121.333;  -86.133;    0.000;207.46667
 718.60;  164.533;  -54.867;    0.000;219.40001
 718.87;  128.067;  -63.600;    0.000;191.66666
 719.13;  140.067;  -72.733;    0.000;212.80000
 719.40;  153.467;  -58.067;    0.000;211.53333
 719.66;  154.000;  -75.533;    0.000;229.53333
 719.93;  151.800;  -74.467;    0.000;226.26667
 720.19;  125.133;  -85.533;    0.000;210.66666
 720.45;  142.600;  -60.867;    0.000;203.46667
 720.72;  146.667;  -68.600;    0.000;215.26667
 720.98;  161.733;  -55.800;    0.000;217.53334
 721.25;  144.667;  -85.067;    0.000;229.73334
 721.51;  139.000;  -82.467;    0.000;221.46667
 721.77;  125.133;  -66.333;    0.000;191.46667
 722.04;  157.267;  -42.067;    0.000;199.33333
 722.30;  134.400;  -50.533;    0.000;184.93333
 722.57;  145.867;  -60.067;    0.000;205.93333
 722.83;  142.867;  -77.200;    0.000;220.06667
 723.09;  144.067;  -92.733;    0.000;236.80000
 723.36;  130.867;  -93.867;    0.000;224.73334
 723.62;  130.733;  -64.933;    0.000;195.66667
 723.88;  134.600;  -69.600;    0.000;204.20000
 724.15;  134.000;  -62.400;    0.000;196.40000
 724.41;  101.533;  -77.067;    0.000;178.60000
 724.68;  133.800;  -70.400;    0.000;204.20000
 724.94;  156.600;  -47.867;    0.000;204.46667
 725.20;  135.000;  -71.800;    0.000;206.80000
 725.47;  125.000;  -78.800;    0.000;203.80000
 725.73;  134.200;  -74.600;    0.000;208.80000
 725.99;  119.267;  -61.800;    0.000;181.06667
 726.26;  142.533;  -67.933;    0.000;210.46667
 726.52;  131.400;  -67.133;    0.000;198.53333
 726.78;  125.200;  -66.067;    0.000;191.26666
 727.05;  131.933;  -63.867;    0.000;195.80000
 727.31;  113.600;  -76.067;    0.000;189.66666
 727.57;  105.667;  -74.467;    0.000;180.13333
 727.84;  130.000;  -55.333;    0.000;185.33333
 728.10;  119.400;  -75.467;    0.000;194.86667
 728.36;  130.667;  -40.467;    0.000;171.13334
 728.63;  116.000;  -54.800;    0.000;170.80000
 728.89;  125.067;  -69.200;    0.000;194.26666
 729.15;   98.467;  -65.067;    0.000;163.53333
 729.42;  118.867;  -79.800;    0.000;198.66667
 729.68;  109.600;  -69.333;    0.000;178.93333
 729.94;   99.333;  -79.400;    0.000;178.73334
 730.21;  123.333;  -69.667;    0.000;193.00000
 730.47;  112.867;  -78.867;    0.000;191.73334
 730.73;  105.667;  -63.133;    0.000;168.80000
 731.00;  103.133;  -51.333;    0.000;154.46666
 731.26;  100.400;  -65.667;    0.000;166.06667
 731.52;  109.400;  -62.267;    0.000;171.66667
 731.78;   88.533;  -85.133;    0.000;173.66666
 732.05;   91.733;  -67.333;    0.000;159.06667
 732.31;  117.467;  -73.133;    0.000;190.60000
 732.57;   81.067;  -73.133;    0.000;154.20000
 732.84;  109.400;  -82.000;    0.000;191.40000
 733.10;  104.133;  -78.600;    0.000;182.73333
 733.36;  110.333;  -76.333;    0.000;186.66667
 733.62;  101.733;  -71.000;    0.000;172.73333
 733.89;   72.733;  -74.667;    0.000;147.39999
 734.15;   88.000;  -77.133;    0.000;165.13333
 734.41;   94.933;  -62.467;    0.000;157.40000
 734.67;  105.867;  -74.467;    0.000;180.33334
 734.94;  104.867;  -74.933;    0.000;179.80000
 735.20;  104.133;  -71.733;    0.000;175.86666
 735.46;   78.400;  -60.200;    0.000;138.60000
 735.73;  109.867;  -64.533;    0.000;174.40000
 735.99;   70.333;  -61.000;    0.000;131.33334
 736.25;   66.133;  -48.267;    0.000;114.40000
 736.51;   95.400;  -91.133;    0.000;186.53333
 736.77;   88.267;  -73.333;    0.000;161.60001
 737.04;   92.467;  -65.267;    0.000;157.73334
 737.30;   95.800;  -72.400;    0.000;168.20000
 737.56;  104.067;  -67.733;    0.000;171.80000
 737.82;   65.933;  -76.533;    0.000;142.46667
 738.09;   65.533;  -74.800;    0.000;140.33334
 738.35;   72.067;  -88.733;    0.000;160.80000
 738.61;   75.267;  -56.467;    0.000;131.73334
 738.87;   77.000;  -71.533;    0.000;148.53333
 739.14;   79.533;  -69.533;    0.000;149.06667
 739.40;   55.733;  -77.467;    0.000;133.20000
 739.66;   87.533;  -80.267;    0.000;167.80000
 739.92;   72.800;  -80.333;    0.000;153.13334
 740.18;   82.800;  -61.267;    0.000;144.06667
 740.45;   67.733;  -83.333;    0.000;151.06667
 740.71;   65.000;  -37.467;    0.000;102.46667
 740.97;   84.867;  -61.200;    0.000;146.06667
 741.23;   55.733;  -68.600;    0.000;124.33333
 741.49;   57.333;  -75.933;    0.000;133.26667
 741.76;   26.200;  -96.400;    0.000;122.60000
 742.02;   56.333;  -73.867;    0.000;130.20000
 742.28;   65.000;  -50.400;    0.000;115.40000
 742.54;   68.267;  -64.133;    0.000;132.40000
 742.80;   51.800;  -78.400;    0.000;130.20000
 743.06;   67.267;  -70.000;    0.000;137.26667
 743.33;   54.467;  -60.067;    0.000;114.53333
 743.59;   57.667;  -92.000;    0.000;149.66667
 743.85;   62.133;  -63.667;    0.000;125.80000
 744.11;   56.067;  -75.600;    0.000;131.66666
 744.37;   62.000;  -62.000;    0.000;124.00000
 744.63;   61.800;  -66.933;    0.000;128.73333
 744.90;   33.333;  -88.333;    0.000;121.66667
 745.16;   42.400;  -76.933;    0.000;119.33334
 745.42;   30.000;  -72.133;    0.000;102.13333
 745.68;   57.467;  -85.000;    0.000;142.46667
 745.94;   80.000;  -47.333;    0.000;127.33333
 746.20;   31.867;  -68.867;    0.000;100.73334
 746.46;   55.667;  -67.467;    0.000;123.13334
 746.72;   55.600;  -56.533;    0.000;112.13333
 746.99;   42.267;  -66.400;    0.000;108.66667
 747.25;   73.733;  -62.267;    0.000;136.00000
 747.51;   34.400;  -77.667;    0.000;112.06667
 747.77;   35.333;  -81.200;    0.000;116.53333
 748.03;   31.000;  -82.667;    0.000;113.66666
 748.29;   58.800;  -66.200;    0.000;125.00000
 748.55;   22.933;  -79.267;    0.000;102.20000
 748.81;   25.667;  -77.400;    0.000;103.06667
 749.08;   31.533;  -67.600;    0.000;99.13333
 749.34;   21.400;  -57.133;    0.000;78.53333
 749.60;   23.000;  -73.333;    0.000;96.33334
 749.86;   40.200;  -73.333;    0.000;113.53334
 750.12;   25.533;  -63.933;    0.000;89.46667
 750.38;   37.867;  -77.600;    0.000;115.46666
 750.64;    3.133;  -70.800;    0.000;73.93334
 750.90;   53.667;  -70.733;    0.000;124.40000
 751.16;   26.333;  -87.133;    0.000;113.46667
 751.42;   14.867;  -86.467;    0.000;101.33333
 751.68;   32.133;  -49.933;    0.000;82.06667
 751.95;   14.733;  -94.933;    0.000;109.66667
 752.21;   18.067;  -76.800;    0.000;94.86667
 752.47;   10.333;  -97.533;    0.000;107.86667
 752.73;    4.533;  -76.800;    0.000;81.33334
 752.99;   22.533;  -69.267;    0.000;91.80000
 753.25;   15.467;  -80.933;    0.000;96.40000
 753.51;   26.467;  -87.267;    0.000;113.73334
 753.77;   23.400;  -74.600;    0.000;98.00000
 754.03;    7.533;  -88.467;    0.000;96.00000
 754.29;   13.733;  -64.667;    0.000;78.40000
 754.55;   24.867;  -72.267;    0.000;97.13334
 754.81;    3.400;  -64.667;    0.000;68.06666
 755.07;    4.400;  -77.400;    0.000;81.80000
 755.33;   12.000;  -65.067;    0.000;77.06667
 755.59;   -0.733;  -79.267;    0.000;78.53334
 755.85;  -15.200;  -68.333;    0.000;53.13334
 756.11;   21.333;  -89.667;    0.000;111.00000
 756.37;    8.267;  -85.800;    0.000;94.06667
 756.63;   23.133;  -52.067;    0.000;75.20000
 756.89;    0.200;  -76.133;    0.000;76.33333
 757.15;   -5.933;  -63.600;    0.000;57.66667
 757.41;   37.400;  -38.467;    0.000;75.86667
 757.68;   -3.800;  -72.000;    0.000;68.20000
 757.94;   12.000;  -64.667;    0.000;76.66666
 758.20;   11.600;  -62.867;    0.000;74.46667
 758.46;  -18.733;  -88.600;    0.000;69.86666
 758.72;   -5.067;  -81.600;    0.000;76.53333
 758.98;  -13.400;  -52.267;    0.000;38.86667
 759.24;   -6.533;  -69.867;    0.000;63.33334
 759.50;   -2.733;  -75.400;    0.000;72.66667
 759.76;   -2.267;  -59.600;    0.000;57.33333
 760.02;  -14.733;  -73.200;    0.000;58.46666
 760.27;   12.200;  -78.400;    0.000;90.60000
 760.53;   -9.467;  -59.600;    0.000;50.13333
 760.79;   -5.000;  -66.267;    0.000;61.26667
 761.05;   -0.867;  -56.200;    0.000;55.33333
 761.31;   21.667;  -63.067;    0.000;84.73333
 761.57;   20.667;  -47.533;    0.000;68.20000
 761.83;  -22.333;  -75.333;    0.000;53.00000
 762.09;  -17.267;  -75.933;    0.000;58.66667
 762.35;  -14.400;  -82.733;    0.000;68.33333
 762.61;   -7.800;  -61.867;    0.000;54.06666
 762.87;   -1.733;  -52.933;    0.000;51.20000
 763.13;  -31.467;  -84.867;    0.000;53.40000
 763.39;   30.733;  -63.000;    0.000;93.73333
 763.65;  -25.133;  -80.733;    0.000;55.60000
 763.91;  -10.667;  -69.933;    0.000;59.26667
 764.17;   -6.000;  -58.667;    0.000;52.66667
 764.43;   -1.000;  -63.933;    0.000;62.93333
 764.69;   -3.533;  -78.933;    0.000;75.40000
 764.95;   -0.800;  -62.533;    0.000;61.73333
 765.21;  -26.333;  -80.533;    0.000;54.20000
 765.47;  -10.133;  -93.000;    0.000;82.86667
 765.73;   -6.200;  -71.267;    0.000;65.06667
 765.98;   -2.867;  -70.267;    0.000;67.40000
 766.24;  -12.933;  -89.800;    0.000;76.86667
 766.50;  -10.867;  -65.000;    0.000;54.13333
 766.76;    6.800;  -68.933;    0.000;75.73333
 767.02;  -10.267;  -76.067;    0.000;65.80000
 767.28;   -5.133;  -72.000;    0.000;66.86667
 767.54;  -15.000;  -70.800;    0.000;55.80000
 767.80;   -5.733;  -74.267;    0.000;68.53334
 768.06;   -0.467;  -69.800;    0.000;69.33334
 768.32;   -8.533;  -56.467;    0.000;47.93333
 768.58;  -28.667;  -68.267;    0.000;39.60000
 768.83;   -9.467;  -79.667;    0.000;70.20000
 769.09;   -6.867;  -80.133;    0.000;73.26666
 769.35;  -12.200;  -67.200;    0.000;55.00000
 769.61;  -23.667;  -68.600;    0.000;44.93333
 769.87;  -13.667;  -67.200;    0.000;53.53333
 770.13;  -11.133;  -60.200;    0.000;49.06667
 770.39;  -43.933;  -88.000;    0.000;44.06667
 770.65;   -3.533;  -68.600;    0.000;65.06667
 770.90;  -25.067;  -92.800;    0.000;67.73334
 771.16;  -31.067;  -65.067;    0.000;34.00000
 771.42;  -27.000;  -86.800;    0.000;59.80000
 771.68;  -40.333;  -91.400;    0.000;51.06667
 771.94;   -8.667;  -76.600;    0.000;67.93333
 772.20;  -24.867;  -72.600;    0.000;47.73333
 772.46;  -45.400;  -95.133;    0.000;49.73333
 772.71;  -44.200;  -74.200;    0.000;30.00000
 772.97;  -26.800;  -61.467;    0.000;34.66667
 773.23;  -33.467;  -80.467;    0.000;47.00000
 773.49;   -6.933;  -60.800;    0.000;53.86667
 773.75;  -34.067;  -93.467;    0.000;59.40000
 774.01;  -48.333;  -80.000;    0.000;31.66667
 774.26;  -24.600;  -82.733;    0.000;58.13333
 774.52;  -24.067;  -55.933;    0.000;31.86667
 774.78;  -29.200;  -68.533;    0.000;39.33333
 775.04;   -3.000;  -39.267;    0.000;36.26667
 775.30;   13.067;  -28.600;    0.000;41.66667
 775.56;  -34.400;  -76.867;    0.000;42.46667
 775.81;  -23.133;  -63.867;    0.000;40.73333
 776.07;  -51.600;  -79.867;    0.000;28.26667
 776.33;  -32.600;  -74.533;    0.000;41.93333
 776.59;  -49.400;  -83.467;    0.000;34.06667
 776.85;  -45.867;  -79.800;    0.000;33.93334
 777.10;  -23.467;  -76.933;    0.000;53.46667
 777.36;  -46.400;  -86.933;    0.000;40.53333
 777.62;  -32.400;  -74.800;    0.000;42.40000
 777.88;  -41.133;  -89.067;    0.000;47.93333
 778.14;  -39.733;  -67.933;    0.000;28.20000
 778.39;  -40.533;  -75.267;    0.000;34.73334
 778.65;  -33.000;  -63.733;    0.000;30.73333
 778.91;  -39.200;  -76.067;    0.000;36.86666
 779.17;  -35.533;  -74.800;    0.000;39.26667
 779.42;  -38.267;  -70.600;    0.000;32.33333
 779.68;  -61.800;  -82.400;    0.000;20.60000
 779.94;  -26.933;  -84.667;    0.000;57.73333
 780.20;  -49.467;  -74.667;    0.000;25.20000
 780.46;  -53.200;  -77.133;    0.000;23.93333
 780.71;  -43.600;  -67.000;    0.000;23.40000
 780.97;  -40.933;  -75.533;    0.000;34.60000
 781.23;  -51.200;  -83.733;    0.000;32.53333
 781.49;  -36.067;  -60.267;    0.000;24.20000
 781.74;  -46.667;  -75.333;    0.000;28.66667
 782.00;  -35.867;  -75.867;    0.000;40.00000
 782.26;  -37.600;  -64.067;    0.000;26.46667
 782.52;  -26.200;  -60.800;    0.000;34.60000
 782.77;  -33.267;  -66.733;    0.000;33.46666
 783.03;  -45.067;  -86.467;    0.000;41.40000
 783.29;  -39.733;  -83.333;    0.000;43.60000
 783.54;  -42.800;  -64.067;    0.000;21.26667
 783.80;  -31.867;  -76.000;    0.000;44.13333
 784.06;  -22.333;  -80.800;    0.000;58.46667
 784.32;  -38.400;  -76.467;    0.000;38.06667
 784.57;   -3.133;  -61.667;    0.000;58.53333
 784.83;  -55.800;  -81.467;    0.000;25.66667
 785.09;  -65.867;  -92.533;    0.000;26.66666
 785.34;  -59.000;  -95.200;    0.000;36.20000
 785.60;  -39.467;  -66.200;    0.000;26.73333
 785.86;  -60.133;  -83.333;    0.000;23.20000
 786.12;  -20.533;  -77.867;    0.000;57.33334
 786.37;  -24.267;  -48.133;    0.000;23.86667
 786.63;  -53.267;  -76.400;    0.000;23.13334
 786.89;  -49.733;  -63.600;    0.000;13.86666
 787.14;  -29.067;  -70.000;    0.000;40.93333
 787.40;  -42.400;  -71.733;    0.000;29.33333
 787.66;  -35.533;  -63.533;    0.000;28.00000
 787.91;  -16.867;  -40.667;    0.000;23.80000
 788.17;  -42.133;  -78.067;    0.000;35.93333
 788.43;  -41.800;  -81.333;    0.000;39.53334
 788.68;  -53.533;  -95.000;    0.000;41.46667
 788.94;  -45.267;  -56.867;    0.000;11.60000
 789.20;  -34.267;  -71.667;    0.000;37.40000
 789.45;  -53.067;  -84.400;    0.000;31.33334
 789.71;  -63.600;  -70.733;    0.000; 7.13333
 789.97;  -21.067;  -61.533;    0.000;40.46667
 790.22;  -51.733;  -68.933;    0.000;17.20000
 790.48;  -32.400;  -93.267;    0.000;60.86667
 790.74;  -31.133;  -78.400;    0.000;47.26667
 790.99;  -40.400;  -80.933;    0.000;40.53333
 791.25;  -52.800;  -80.000;    0.000;27.20000
 791.51;  -70.000;  -74.467;    0.000; 4.46667
 791.76;  -25.733;  -52.200;    0.000;26.46667
 792.02;  -41.200;  -75.467;    0.000;34.26667
 792.27;  -30.800;  -57.533;    0.000;26.73333
 792.53;  -50.133;  -59.000;    0.000; 8.86666
 792.79;  -36.600;  -66.200;    0.000;29.60000
 793.04;  -27.400;  -83.667;    0.000;56.26666
 793.30;  -56.133;  -89.200;    0.000;33.06666
 793.56;  -51.933;  -65.800;    0.000;13.86667
 793.81;  -40.333;  -59.600;    0.000;19.26667
 794.07;  -54.267;  -84.933;    0.000;30.66667
 794.32;  -36.600;  -78.667;    0.000;42.06667
 794.58;  -54.733;  -96.467;    0.000;41.73333
 794.84;  -53.600;  -84.933;    0.000;31.33334
 795.09;  -37.667;  -54.133;    0.000;16.46667
 795.35;  -35.067;  -69.667;    0.000;34.60000
 795.60;  -35.467;  -49.933;    0.000;14.46667
 795.86;  -15.267;  -53.000;    0.000;37.73333
 796.12;  -62.933;  -85.400;    0.000;22.46667
 796.37;  -43.200;  -89.867;    0.000;46.66667
 796.63;  -34.133;  -61.667;    0.000;27.53333
 796.88;  -49.933;  -68.533;    0.000;18.60000
 797.14;  -50.200;  -71.733;    0.000;21.53333
 797.39;  -47.800;  -56.133;    0.000; 8.33334
 797.65;  -41.067;  -79.133;    0.000;38.06667
 797.91;  -46.067;  -80.467;    0.000;34.40000
 798.16;  -53.067;  -66.867;    0.000;13.80000
 798.42;  -41.867;  -83.600;    0.000;41.73333
 798.67;  -54.333;  -85.267;    0.000;30.93334
 798.93;  -50.867;  -90.800;    0.000;39.93334
 799.18;  -46.667;  -79.800;    0.000;33.13334
 799.44;  -54.733;  -88.267;    0.000;33.53334
 799.69;  -71.733;  -76.867;    0.000; 5.13334
 799.95;  -74.867;  -97.867;    0.000;23.00000
 800.21;  -70.800;  -72.533;    0.000; 1.73333
 800.46;  -39.133;  -67.533;    0.000;28.40000
 800.72;  -64.800;  -78.733;    0.000;13.93333
 800.97;  -53.067;  -74.867;    0.000;21.80000
 801.23;  -47.600;  -66.933;    0.000;19.33334
 801.48;  -63.000;  -89.733;    0.000;26.73333
 801.74;  -51.867;  -81.000;    0.000;29.13334
 801.99;  -50.867;  -76.800;    0.000;25.93334
 802.25;  -65.800;  -71.133;    0.000; 5.33333
 802.50;  -58.533;  -78.400;    0.000;19.86667
 802.76;  -53.133;  -66.067;    0.000;12.93333
 803.01;  -64.533;  -74.400;    0.000; 9.86667
 803.27;  -56.067;  -78.667;    0.000;22.60000
 803.52;  -53.667;  -79.333;    0.000;25.66667
 803.78;  -29.800;  -58.133;    0.000;28.33334
 804.03;  -53.000;  -69.067;    0.000;16.06667
 804.29;  -65.067;  -77.667;    0.000;12.60000
 804.54;  -34.933;  -56.267;    0.000;21.33333
 804.80;  -67.467;  -71.867;    0.000; 4.40000
 805.05;  -67.933;  -73.067;    0.000; 5.13333
 805.31;  -51.400;  -54.133;    0.000; 2.73333
 805.56;  -33.867;  -57.200;    0.000;23.33334
 805.82;  -67.267;  -90.733;    0.000;23.46666
 806.07;  -47.200;  -63.400;    0.000;16.20000
 806.33;  -58.467;  -77.600;    0.000;19.13333
 806.58;  -86.467;  -86.533;    0.000; 0.06667
 806.84;  -53.667;  -69.333;    0.000;15.66667
 807.09;  -50.400;  -76.667;    0.000;26.26666
 807.34;  -54.133;  -72.733;    0.000;18.59999
 807.60;  -37.333;  -74.067;    0.000;36.73333
 807.85;  -51.733;  -62.800;    0.000;11.06667
 808.11;  -72.733;  -92.933;    0.000;20.20000
 808.36;  -35.600;  -65.600;    0.000;30.00000
 808.62;  -57.600;  -86.667;    0.000;29.06667
 808.87;  -60.067;  -78.733;    0.000;18.66666
 809.13;  -64.733;  -71.467;    0.000; 6.73334
 809.38;  -56.867;  -48.200;    0.000;-8.66666
 809.63;  -70.200;  -98.067;    0.000;27.86667
 809.89;  -33.400;  -58.667;    0.000;25.26667
 810.14;  -67.067;  -74.333;    0.000; 7.26667
 810.40;  -71.000;  -51.267;    0.000;-19.73333
 810.65;  -43.333;  -64.133;    0.000;20.80000
 810.91;  -77.267;  -85.533;    0.000; 8.26666
 811.16;  -35.800;  -56.333;    0.000;20.53333
 811.41;  -62.400;  -55.067;    0.000;-7.33334
 811.67;  -66.667;  -71.333;    0.000; 4.66667
 811.92;  -50.867;  -82.333;    0.000;31.46667
 812.18;  -51.400;  -70.667;    0.000;19.26666
 812.43;  -57.533;  -60.533;    0.000; 3.00000
 812.68;  -65.467;  -80.333;    0.000;14.86667
 812.94;  -42.867;  -76.933;    0.000;34.06667
 813.19;  -55.067;  -99.867;    0.000;44.80000
 813.45;  -13.333;  -33.933;    0.000;20.60000
 813.70;  -60.933;  -74.533;    0.000;13.60000
 813.95;  -50.800;  -70.667;    0.000;19.86666
 814.21;  -43.800;  -75.933;    0.000;32.13334
 814.46;  -76.400;  -88.000;    0.000;11.60000
 814.71;  -57.333;  -81.933;    0.000;24.60000
 814.97;  -47.800;  -77.867;    0.000;30.06667
 815.22;  -64.733;  -88.867;    0.000;24.13334
 815.48;  -62.267;  -85.133;    0.000;22.86666
 815.73;  -11.333;  -20.867;    0.000; 9.53333
 815.98;  -67.867;  -74.867;    0.000; 7.00000
 816.24;  -49.333;  -79.000;    0.000;29.66667
 816.49;  -40.733;  -72.067;    0.000;31.33333
 816.74;  -62.600;  -74.600;    0.000;12.00000
 817.00;  -43.733;  -43.400;    0.000;-0.33333
 817.25;  -58.267;  -58.000;    0.000;-0.26667
 817.50;  -46.800;  -71.000;    0.000;24.20000
 817.76;  -54.933;  -91.000;    0.000;36.06667
 818.01;  -70.333;  -93.533;    0.000;23.20000
 818.26;  -68.267;  -97.133;    0.000;28.86666
 818.52;  -72.667;  -85.400;    0.000;12.73334
 818.77;  -69.200;  -78.200;    0.000; 9.00000
 819.02;  141.867;  116.467;    0.000;25.40000
 819.28;  -72.667;  -76.867;    0.000; 4.20000
 819.53;  -85.867;  -90.467;    0.000; 4.60000
 819.78;  -60.533;  -78.600;    0.000;18.06667
 820.04;  -70.667;  -70.333;    0.000;-0.33333
 820.29;  -72.200;  -72.533;    0.000; 0.33334
 820.54;  -55.067;  -66.800;    0.000;11.73334
 820.79;  -51.733;  -63.600;    0.000;11.86666
 821.05;  -80.800;  -89.800;    0.000; 9.00000
 821.30;  -21.333;  -35.467;    0.000;14.13333
 821.55;  -43.933;  -59.133;    0.000;15.20000
 821.81;  -46.867;  -84.067;    0.000;37.20000
 822.06;  -57.533;  -87.800;    0.000;30.26667
 822.31;  -26.133;  -52.200;    0.000;26.06667
 822.56;  -88.267;  -59.533;    0.000;-28.73334
 822.82;  -67.733;  -75.867;    0.000; 8.13334
 823.07;  -37.267;  -72.200;    0.000;34.93333
 823.32;  -86.600;  -88.867;    0.000; 2.26667
 823.58;  -56.200;  -47.600;    0.000;-8.60000
 823.83;  -57.133;  -82.200;    0.000;25.06666
 824.08;  -64.667;  -80.867;    0.000;16.20000
 824.33;  -68.400;  -84.067;    0.000;15.66666
 824.59;  -74.800;  -97.667;    0.000;22.86666
 824.84;  -68.600;  -92.067;    0.000;23.46667
 825.09;  -56.933;  -83.667;    0.000;26.73333
 825.34;  -80.733;  -79.933;    0.000;-0.80000
 825.60;  -62.667;  -83.667;    0.000;21.00000
 825.85;  -61.333;  -92.800;    0.000;31.46667
 826.10;  -84.667;  -94.133;    0.000; 9.46667
 826.35;  -55.133;  -72.000;    0.000;16.86666
 826.61;  -69.400;  -81.067;    0.000;11.66666
 826.86;  -85.000;  -91.400;    0.000; 6.40000
 827.11;  -82.467;  -62.267;    0.000;-20.20000
 827.36;  -69.067;  -81.667;    0.000;12.60000
 827.61;  -87.133;  -75.600;    0.000;-11.53333
 827.87;  -50.400;  -79.933;    0.000;29.53333
 828.12;  -84.733;  -76.733;    0.000;-8.00000
 828.37;  -52.533;  -74.133;    0.000;21.60000
 828.62;  -62.200;  -73.133;    0.000;10.93333
 828.88;  -56.000;  -69.133;    0.000;13.13333
 829.13;  -51.400;  -52.733;    0.000; 1.33333
 829.38;  -78.733;  -79.000;    0.000; 0.26667
 829.63;  -79.533;  -94.333;    0.000;14.80000
 829.88;  -54.000;  -86.267;    0.000;32.26667
 830.14;  -59.800;  -94.733;    0.000;34.93333
 830.39;  -50.533;  -70.200;    0.000;19.66666
 830.64;  -74.000;  -89.933;    0.000;15.93333
 830.89;  -37.333;  -50.200;    0.000;12.86667
 831.14;  -60.733;  -68.067;    0.000; 7.33333
 831.39;  -84.067;  -93.333;    0.000; 9.26667
 831.65;  -76.067;  -92.933;    0.000;16.86667
 831.90;  -67.333;  -88.400;    0.000;21.06667
 832.15;  -56.333;  -77.933;    0.000;21.60000
 832.40;  -57.733;  -75.067;    0.000;17.33333
 832.65;  -64.267;  -79.667;    0.000;15.39999
 832.90;  -69.200;  -83.067;    0.000;13.86667
 833.16;  -59.067;  -79.467;    0.000;20.40000
 833.41;  -75.600;  -72.933;    0.000;-2.66666
 833.66;  -85.800;  -84.200;    0.000;-1.60001
 833.91;  -49.733;  -63.133;    0.000;13.40000
 834.16;  -76.867;  -82.600;    0.000; 5.73333
 834.41;  -70.667;  -66.333;    0.000;-4.33333
 834.66;  -60.467;  -72.400;    0.000;11.93333
 834.92;  -60.467;  -69.933;    0.000; 9.46667
 835.17;  -66.333;  -88.200;    0.000;21.86666
 835.42;  -65.600;  -80.800;    0.000;15.20000
 835.67;  -72.000;  -81.800;    0.000; 9.80000
 835.92;  -57.067;  -79.667;    0.000;22.60000
 836.17;  -65.067;  -92.933;    0.000;27.86667
 836.42;  -71.467;  -96.067;    0.000;24.60000
 836.67;  -63.000;  -85.667;    0.000;22.66666
 836.93;  -65.733;  -83.733;    0.000;18.00000
 837.18;  -49.667;  -69.867;    0.000;20.20000
 837.43;  -56.267;  -60.667;    0.000; 4.40000
 837.68;  -58.933;  -68.000;    0.000; 9.06667
 837.93;  -86.667;  -96.467;    0.000; 9.80000
 838.18;  -72.133;  -71.733;    0.000;-0.40000
 838.43;  -76.933;  -85.600;    0.000; 8.66666
 838.68;  -67.867;  -64.067;    0.000;-3.80000
 838.93;  -83.933;  -82.933;    0.000;-1.00000
 839.18;  -57.933;  -88.400;    0.000;30.46667
 839.43;  -68.467;  -77.333;    0.000; 8.86667
 839.69;  -96.600;  -80.667;    0.000;-15.93333
 839.94;  -83.333;  -98.200;    0.000;14.86666
 840.19;  -67.933;  -69.067;    0.000; 1.13333
 840.44;  -59.933;  -73.933;    0.000;14.00000
 840.69;  -69.800;  -59.533;    0.000;-10.26667
 840.94;  -59.467;  -68.733;    0.000; 9.26666
 841.19;  -63.533;  -72.733;    0.000; 9.20000
 841.44;  -61.733;  -90.333;    0.000;28.60000
 841.69;  -44.133;  -51.800;    0.000; 7.66666
 841.94;  -77.267;  -89.667;    0.000;12.39999
 842.19;  -73.533;  -76.467;    0.000; 2.93333
 842.44;  -70.200;  -83.933;    0.000;13.73334
 842.69;  -87.133;  -70.800;    0.000;-16.33333
 842.94;  -61.200;  -86.000;    0.000;24.80000
 843.19;  -83.333;  -90.733;    0.000; 7.39999
 843.44;  -70.267;  -81.733;    0.000;11.46666
 843.69;  -94.000;  -81.533;    0.000;-12.46667
 843.94;  -11.267;  -27.133;    0.000;15.86667
 844.19;  -70.667;  -87.800;    0.000;17.13334
 844.44;  -50.267;  -64.733;    0.000;14.46666
 844.69;  -76.200;  -81.800;    0.000; 5.60001
 844.95;  -72.667;  -88.000;    0.000;15.33334
 845.20;  -88.800;  -96.200;    0.000; 7.39999
 845.45;  -43.867;  -57.067;    0.000;13.20000
 845.70;  -49.333;  -69.933;    0.000;20.60000
 845.95;  -78.733;  -84.267;    0.000; 5.53334
 846.20;  -67.400;  -81.133;    0.000;13.73333
 846.45;  -85.467;  -76.267;    0.000;-9.20000
 846.70;  -63.067;  -90.333;    0.000;27.26667
 846.95;  -71.333;  -88.867;    0.000;17.53333
 847.20;  -77.333;  -77.933;    0.000; 0.60000
 847.44;  -42.467;  -40.467;    0.000;-2.00000
 847.69;  -76.467;  -90.467;    0.000;14.00000
 847.94;  -54.400;  -73.400;    0.000;19.00000
 848.19;  -80.533;  -75.467;    0.000;-5.06667
 848.44;  -30.000;  -61.867;    0.000;31.86666
 848.69;  -75.267;  -89.533;    0.000;14.26666
 848.94;  -58.533;  -63.000;    0.000; 4.46667
 849.19;  -68.533;  -85.333;    0.000;16.80000
 849.44;  -70.667;  -88.333;    0.000;17.66667
 849.69;  -72.267;  -82.667;    0.000;10.39999
 849.94;  -73.667;  -87.933;    0.000;14.26667
 850.19;  -68.933;  -79.267;    0.000;10.33334
 850.44;  -71.533;  -49.733;    0.000;-21.80000
 850.69;  -83.467;  -80.067;    0.000;-3.40000
 850.94;  -74.933;  -80.800;    0.000; 5.86667
 851.19;  -88.533;  -80.667;    0.000;-7.86667
 851.44;  -90.000;  -70.933;    0.000;-19.06667
 851.69;  -71.800;  -51.467;    0.000;-20.33334
 851.94;  -88.733;  -55.733;    0.000;-33.00000
 852.19;  -58.600;  -63.333;    0.000; 4.73333
 852.44;  -72.267;  -76.333;    0.000; 4.06667
 852.68;  -58.533;  -80.800;    0.000;22.26667
 852.93;  -67.333;  -63.133;    0.000;-4.20000
 853.18;  -75.133;  -86.467;    0.000;11.33334
 853.43;  -64.600;  -72.067;    0.000; 7.46667
 853.68;  -68.600;  -79.733;    0.000;11.13333
 853.93;  -68.533;  -74.267;    0.000; 5.73334
 854.18;  -72.733;  -83.800;    0.000;11.06667
 854.43;  -67.533;  -51.733;    0.000;-15.80000
 854.68;  -71.333;  -58.067;    0.000;-13.26667
 854.93;  -59.867;  -67.667;    0.000; 7.80000
 855.18;  -77.467;  -75.067;    0.000;-2.40000
 855.42;  -53.200;  -65.200;    0.000;12.00000
 855.67;  -86.133;  -78.733;    0.000;-7.40000
 855.92;  -84.800;  -84.067;    0.000;-0.73334
 856.17;  -58.600;  -70.067;    0.000;11.46667
 856.42;  -79.400;  -83.333;    0.000; 3.93333
 856.67;  -62.600;  -78.067;    0.000;15.46667
 856.92;  -70.200;  -57.200;    0.000;-13.00000
 857.17;  -86.067;  -77.533;    0.000;-8.53333
 857.41;  -72.133;  -63.267;    0.000;-8.86666
 857.66;  -72.733;  -79.400;    0.000; 6.66667
 857.91;  -63.067;  -71.467;    0.000; 8.40000
 858.16;  -75.400;  -77.667;    0.000; 2.26666
 858.41;  -50.800;  -70.933;    0.000;20.13334
 858.66;  -60.200;  -74.733;    0.000;14.53333
 858.91;  -61.733;  -69.200;    0.000; 7.46666
 859.15;  -83.533;  -71.333;    0.000;-12.20000
 859.40;  -53.733;  -66.400;    0.000;12.66667
 859.65;  -75.200;  -94.733;    0.000;19.53333
 859.90;  -82.200;  -90.867;    0.000; 8.66667
 860.15;  -80.533;  -80.400;    0.000;-0.13333
 860.40;  -58.400;  -54.200;    0.000;-4.20000
 860.64;  -71.533;  -66.733;    0.000;-4.80000
 860.89;  -73.000;  -67.067;    0.000;-5.93333
 861.14;  -71.067;  -72.067;    0.000; 1.00000
 861.39;  -70.067;  -49.200;    0.000;-20.86666
 861.64;  -73.933;  -72.533;    0.000;-1.40000
 861.88;  -66.133;  -59.333;    0.000;-6.80000
 862.13;  -72.600;  -70.733;    0.000;-1.86667
 862.38;  -79.533;  -91.467;    0.000;11.93333
 862.63;  -94.000;  -62.533;    0.000;-31.46667
 862.88;  -62.000;  -64.333;    0.000; 2.33334
 863.12;  -58.267;  -64.267;    0.000; 6.00000
 863.37;  -72.800;  -82.400;    0.000; 9.60000
 863.62;  -77.133;  -57.933;    0.000;-19.20000
 863.87;  -83.200;  -82.133;    0.000;-1.06667
 864.12;  -67.667;  -63.733;    0.000;-3.93333
 864.36;  -66.933;  -79.067;    0.000;12.13333
 864.61;  -72.200;  -86.467;    0.000;14.26667
 864.86;  -77.333;  -56.000;    0.000;-21.33334
 865.11;  -65.733;  -72.800;    0.000; 7.06667
 865.35;  -83.133;  -53.067;    0.000;-30.06667
 865.60;  -45.467;  -72.200;    0.000;26.73333
 865.85;  -43.800;  -60.067;    0.000;16.26667
 866.10;  -79.200;  -57.400;    0.000;-21.80000
 866.34;  -50.267;  -75.667;    0.000;25.40000
 866.59;  -74.133;  -65.933;    0.000;-8.20000
 866.84;  -65.000;  -67.067;    0.000; 2.06667
 867.09;  -68.267;  -69.800;    0.000; 1.53333
 867.33;  -63.400;  -77.067;    0.000;13.66666
 867.58;  -53.867;  -76.667;    0.000;22.80000
 867.83;  -58.333;  -80.067;    0.000;21.73333
 868.08;  -68.933;  -68.600;    0.000;-0.33334
 868.32;  -65.467;  -56.600;    0.000;-8.86667
 868.57;  -87.267;  -70.333;    0.000;-16.93333
 868.82;  -68.467;  -69.800;    0.000; 1.33334
 869.07;  -95.267;  -81.400;    0.000;-13.86667
 869.31;  -66.467;  -51.267;    0.000;-15.20000
 869.56;  -76.067;  -78.867;    0.000; 2.80000
 869.81;  -61.600;  -79.467;    0.000;17.86667
 870.05;  -76.867; -100.400;    0.000;23.53333
 870.30;  -47.867;  -63.800;    0.000;15.93333
 870.55;  -56.800;  -43.133;    0.000;-13.66666
 870.80;  -50.467;  -54.933;    0.000; 4.46667
 871.04;  -73.733;  -60.133;    0.000;-13.59999
 871.29;  -73.200;  -73.333;    0.000; 0.13334
 871.54;  -76.867;  -73.467;    0.000;-3.40000
 871.78;  -85.400;  -87.800;    0.000; 2.40000
 872.03;  -62.200;  -74.467;    0.000;12.26667
 872.28;  -64.933;  -67.733;    0.000; 2.80000
 872.52;  -72.400;  -69.133;    0.000;-3.26667
 872.77;  -62.000;  -90.133;    0.000;28.13333
 873.02;  -77.800;  -83.000;    0.000; 5.20000
 873.26;  -78.800;  -74.200;    0.000;-4.60001
 873.51;  -67.400;  -51.200;    0.000;-16.20000
 873.76;  -55.533;  -79.600;    0.000;24.06667
 874.00;  -54.400;  -52.467;    0.000;-1.93333
 874.25;  -66.667;  -77.800;    0.000;11.13334
 874.50;  -70.600;  -72.200;    0.000; 1.60000
 874.74;  -65.933;  -75.933;    0.000;10.00000
 874.99;  -66.533;  -64.733;    0.000;-1.80000
 875.24;  -30.400;  -31.867;    0.000; 1.46667
 875.48;  -68.133;  -58.667;    0.000;-9.46666
 875.73;  -60.533;  -79.400;    0.000;18.86667
 875.98;  -74.000;  -60.000;    0.000;-14.00000
 876.22;  -44.467;  -54.333;    0.000; 9.86666
 876.47;  -69.467;  -67.867;    0.000;-1.60000
 876.71;  -53.800;  -64.667;    0.000;10.86666
 876.96;  -44.800;  -53.800;    0.000; 9.00000
 877.21;  -69.600;  -65.067;    0.000;-4.53333
 877.45;  -76.333;  -62.133;    0.000;-14.20000
 877.70;  -52.533;  -58.467;    0.000; 5.93333
 877.95;  -61.933;  -52.333;    0.000;-9.60000
 878.19;  -45.467;  -46.933;    0.000; 1.46667
 878.44;  -48.733;  -64.667;    0.000;15.93333
 878.68;  -17.933;  -31.267;    0.000;13.33333
 878.93;  -53.000;  -42.467;    0.000;-10.53333
 879.18;  -58.200;  -62.267;    0.000; 4.06667
 879.42;  -55.067;  -50.200;    0.000;-4.86666
 879.67;  -67.200;  -94.267;    0.000;27.06667
 879.91;  -52.667;  -61.467;    0.000; 8.80000
 880.16;  -57.733;  -52.867;    0.000;-4.86667
 880.40;  -56.400;  -74.333;    0.000;17.93333
 880.65;  -55.067;  -66.000;    0.000;10.93333
 880.90;  -53.133;  -51.600;    0.000;-1.53334
 881.14;  -30.333;  -42.867;    0.000;12.53333
 881.39;  -72.667;  -67.533;    0.000;-5.13333
 881.63;  -61.067;  -57.200;    0.000;-3.86666
 881.88;  -39.600;  -49.200;    0.000; 9.60000
 882.12;  -44.667;  -65.933;    0.000;21.26667
 882.37;  -55.400;  -41.133;    0.000;-14.26667
 882.62;  -49.133;  -60.467;    0.000;11.33333
 882.86;  -68.133;  -76.867;    0.000; 8.73334
 883.11;  -45.400;  -53.667;    0.000; 8.26667
 883.35;  -58.333;  -57.867;    0.000;-0.46667
 883.60;  -23.600;  -33.000;    0.000; 9.40000
 883.84;  -37.400;  -66.400;    0.000;29.00000
 884.09;  -40.867;  -54.200;    0.000;13.33334
 884.33;  -48.600;  -55.733;    0.000; 7.13334
 884.58;  -49.000;  -54.333;    0.000; 5.33333
 884.82;  -60.867;  -53.667;    0.000;-7.20000
 885.07;  -59.333;  -45.333;    0.000;-14.00000
 885.31;  -48.867;  -65.933;    0.000;17.06667
 885.56;  -23.800;  -37.133;    0.000;13.33334
 885.80;  -50.800;  -53.733;    0.000; 2.93333
 886.05;  -64.600;  -78.867;    0.000;14.26667
 886.29;  -23.667;  -48.400;    0.000;24.73334
 886.54;  -55.733;  -59.800;    0.000; 4.06667
 886.78;  -40.267;  -52.133;    0.000;11.86667
 887.03;  -35.333;  -42.867;    0.000; 7.53333
 887.27;  -31.667;  -29.067;    0.000;-2.60000
 887.52;  -34.467;  -80.600;    0.000;46.13333
 887.76;  -45.933;  -53.333;    0.000; 7.40000
 888.01;  -61.467;  -54.533;    0.000;-6.93333
 888.25;  -64.133;  -61.400;    0.000;-2.73333
 888.50;  -41.000;  -41.000;    0.000; 0.00000
 888.74;  -45.733;  -36.133;    0.000;-9.60000
 888.99;  -17.267;  -53.800;    0.000;36.53333
 889.23;  -41.200;  -45.867;    0.000; 4.66666
 889.48;  -52.467;  -61.600;    0.000; 9.13333
 889.72;  -23.267;  -33.600;    0.000;10.33333
 889.97;  -26.600;  -54.000;    0.000;27.40000
 890.21;  -41.200;  -15.533;    0.000;-25.66667
 890.46;  -15.733;  -26.333;    0.000;10.60000
 890.70;  -37.600;  -35.267;    0.000;-2.33333
 890.94;  -35.000;  -38.333;    0.000; 3.33333
 891.19;  -28.133;  -42.733;    0.000;14.60000
 891.43;  -41.533;  -27.400;    0.000;-14.13333
 891.68;  -23.333;  -24.933;    0.000; 1.60000
 891.92;  -52.200;  -50.667;    0.000;-1.53333
 892.17;  -28.467;  -22.533;    0.000;-5.93333
 892.41;  -24.667;  -34.800;    0.000;10.13333
 892.66;  -31.267;  -40.933;    0.000; 9.66667
 892.90;    5.067;  -22.800;    0.000;27.86667
 893.14;  -32.067;  -46.800;    0.000;14.73333
 893.39;  -18.800;  -31.400;    0.000;12.60000
 893.63;  -37.400;  -46.733;    0.000; 9.33333
 893.88;  -31.667;  -52.000;    0.000;20.33333
 894.12;  -38.800;  -34.333;    0.000;-4.46667
 894.36;  -22.533;  -45.533;    0.000;23.00000
 894.61;   -4.467;  -27.067;    0.000;22.60000
 894.85;  -20.000;  -26.333;    0.000; 6.33333
 895.10;  -26.533;  -23.067;    0.000;-3.46667
 895.34;  -27.733;  -28.467;    0.000; 0.73333
 895.58;  -17.267;  -24.667;    0.000; 7.40000
 895.83;   -5.200;  -29.067;    0.000;23.86667
 896.07;  -21.667;  -29.067;    0.000; 7.40000
 896.32;   -8.533;  -11.267;    0.000; 2.73333
 896.56;   -6.400;  -10.333;    0.000; 3.93333
 896.80;   -4.667;  -32.867;    0.000;28.20000
 897.05;    1.533;  -32.933;    0.000;34.46667
 897.29;   15.600;   -2.400;    0.000;18.00000
 897.53;  -13.600;  -26.400;    0.000;12.80000
 897.78;   -0.333;   -9.000;    0.000; 8.66667
 898.02;    8.933;    2.333;    0.000; 6.60000
 898.26;  -10.400;  -12.600;    0.000; 2.20000
 898.51;  -20.600;  -15.400;    0.000;-5.20000
 898.75;   -7.333;   -4.667;    0.000;-2.66667
 898.99;    3.800;   -7.333;    0.000;11.13333
 899.24;   -2.333;  -23.533;    0.000;21.20000
 899.48;    9.200;   15.533;    0.000;-6.33333
 899.73;   16.267;   -6.867;    0.000;23.13333
 899.97;   31.733;   36.867;    0.000;-5.13333
 900.21;   53.400;   19.400;    0.000;34.00000
 900.46;   36.933;   21.067;    0.000;15.86667
 900.70;   39.733;   41.467;    0.000;-1.73333
 900.94;   41.400;   35.333;    0.000; 6.06667
 901.18;   43.133;   44.600;    0.000;-1.46666
 901.43;   43.933;   26.000;    0.000;17.93333
 901.67;   37.733;   30.000;    0.000; 7.73333
 901.91;   58.400;   49.200;    0.000; 9.20000
 902.16;   51.867;   39.733;    0.000;12.13333
 902.40;   81.000;   84.800;    0.000;-3.80000
 902.64;   71.000;   67.467;    0.000; 3.53333
 902.89;   61.067;   79.867;    0.000;-18.80000
 903.13;  122.200;   84.000;    0.000;38.20000
 903.37;  118.267;  107.200;    0.000;11.06667
 903.61;  162.600;  139.600;    0.000;23.00000
 903.86;  141.467;  108.733;    0.000;32.73333
 904.10;  157.800;  158.133;    0.000;-0.33333
 904.34;  162.333;  176.000;    0.000;-13.66667
 904.59;  210.867;  180.733;    0.000;30.13333
 904.83;  225.067;  248.267;    0.000;-23.20000
 905.07;  270.800;  258.267;    0.000;12.53333
 905.31;  284.200;  288.067;    0.000;-3.86667
 905.56;  328.267;  317.000;    0.000;11.26666
 905.80;  412.133;  381.067;    0.000;31.06665

