point4
Integration time [ms]:  15.000
Averaging Nr. [scans]: 15
Smoothing Nr. [pixels]: 0
Data measured with spectrometer [name]: 1307078U2
Wave   ;Sample   ;Dark     ;Reference;Scope Corrected for Dark
[nm]   ;[counts] ;[counts] ;[counts] 

 351.07;   13.533;  -29.133;    0.000;42.66667
 351.37;   13.600;    1.067;    0.000;12.53333
 351.66;   17.933;    0.600;    0.000;17.33333
 351.95;    3.133;   -9.067;    0.000;12.20000
 352.24;  -17.933;  -24.533;    0.000; 6.60000
 352.54;    4.800;    3.533;    0.000; 1.26667
 352.83;   -4.733;  -17.533;    0.000;12.80000
 353.12;  -10.533;    2.067;    0.000;-12.60000
 353.42;  -14.733;  -14.733;    0.000; 0.00000
 353.71;   -9.133;  -14.600;    0.000; 5.46667
 354.00;   20.067;  -14.667;    0.000;34.73333
 354.30;  -10.867;   -3.533;    0.000;-7.33333
 354.59;   -7.267;  -31.933;    0.000;24.66667
 354.88;   13.600;  -11.267;    0.000;24.86667
 355.17;    3.067;  -30.667;    0.000;33.73333
 355.47;  -13.800;   -7.667;    0.000;-6.13333
 355.76;    6.667;   -6.800;    0.000;13.46667
 356.05;    8.533;    8.733;    0.000;-0.20000
 356.35;   -8.800;  -20.467;    0.000;11.66667
 356.64;   18.867;   18.200;    0.000; 0.66667
 356.93;    4.867;  -14.200;    0.000;19.06667
 357.22;    3.533;   14.600;    0.000;-11.06667
 357.52;   -6.133;  -25.533;    0.000;19.40000
 357.81;   -9.133;   19.667;    0.000;-28.80000
 358.10;  -12.667;  -13.467;    0.000; 0.80000
 358.39;   15.733;    2.600;    0.000;13.13333
 358.69;  -12.867;    0.200;    0.000;-13.06667
 358.98;  -16.467;   -2.267;    0.000;-14.20000
 359.27;   14.400;  -23.733;    0.000;38.13333
 359.57;    0.733;    9.133;    0.000;-8.40000
 359.86;   -6.067;    0.200;    0.000;-6.26667
 360.15;   12.533;   13.867;    0.000;-1.33333
 360.44;  -11.933;  -12.000;    0.000; 0.06667
 360.74;   18.267;   -1.733;    0.000;20.00000
 361.03;  -10.667;  -25.667;    0.000;15.00000
 361.32;   21.400;    3.800;    0.000;17.60000
 361.61;    7.800;  -37.733;    0.000;45.53333
 361.91;   10.800;   17.600;    0.000;-6.80000
 362.20;  -15.333;  -21.600;    0.000; 6.26667
 362.49;    6.267;    3.800;    0.000; 2.46667
 362.78;    8.333;   -3.933;    0.000;12.26667
 363.08;    2.067;    8.067;    0.000;-6.00000
 363.37;    9.267;  -13.667;    0.000;22.93333
 363.66;    5.667;   27.333;    0.000;-21.66667
 363.95;  -26.600;  -36.733;    0.000;10.13333
 364.24;    1.067;    6.000;    0.000;-4.93333
 364.54;    6.467;  -14.400;    0.000;20.86667
 364.83;   10.267;   11.867;    0.000;-1.60000
 365.12;    9.467;  -19.000;    0.000;28.46667
 365.41;    4.733;   29.200;    0.000;-24.46667
 365.71;   -2.667;  -17.333;    0.000;14.66667
 366.00;   -2.000;   -8.267;    0.000; 6.26667
 366.29;  -11.733;  -24.133;    0.000;12.40000
 366.58;    1.067;   -8.533;    0.000; 9.60000
 366.87;   13.600;   -6.267;    0.000;19.86667
 367.17;   22.333;    1.133;    0.000;21.20000
 367.46;  -11.600;  -21.333;    0.000; 9.73333
 367.75;    6.000;    6.333;    0.000;-0.33333
 368.04;   -6.200;  -16.200;    0.000;10.00000
 368.34;   10.400;    3.000;    0.000; 7.40000
 368.63;   -0.200;  -20.667;    0.000;20.46667
 368.92;   15.533;    2.067;    0.000;13.46667
 369.21;  -29.800;    3.067;    0.000;-32.86667
 369.50;   10.067;    7.933;    0.000; 2.13333
 369.80;  -18.467;  -15.400;    0.000;-3.06667
 370.09;   22.933;    5.533;    0.000;17.40000
 370.38;   -0.400;  -22.867;    0.000;22.46667
 370.67;   -0.867;   -5.000;    0.000; 4.13333
 370.96;   -3.600;  -14.067;    0.000;10.46667
 371.26;   -3.667;   -6.867;    0.000; 3.20000
 371.55;    0.267;  -33.467;    0.000;33.73333
 371.84;    0.533;   -8.267;    0.000; 8.80000
 372.13;   -7.733;   -8.733;    0.000; 1.00000
 372.42;    7.067;   -8.733;    0.000;15.80000
 372.71;  -16.600;   -1.800;    0.000;-14.80000
 373.01;   -5.867;   -5.733;    0.000;-0.13333
 373.30;  -16.800;  -22.067;    0.000; 5.26667
 373.59;   -5.933;   -5.400;    0.000;-0.53333
 373.88;    7.600;  -15.667;    0.000;23.26667
 374.17;    8.267;   23.400;    0.000;-15.13333
 374.46;   16.400;  -22.067;    0.000;38.46667
 374.76;   10.267;  -10.733;    0.000;21.00000
 375.05;   27.000;   -3.067;    0.000;30.06667
 375.34;    4.400;  -14.933;    0.000;19.33333
 375.63;    1.400;  -17.200;    0.000;18.60000
 375.92;   -9.467;   -1.800;    0.000;-7.66667
 376.21;   -8.400;  -28.200;    0.000;19.80000
 376.51;    5.533;  -18.867;    0.000;24.40000
 376.80;  -12.200;  -29.133;    0.000;16.93333
 377.09;  -28.933;   11.733;    0.000;-40.66667
 377.38;  -11.333;  -10.067;    0.000;-1.26667
 377.67;   10.733;   -1.600;    0.000;12.33333
 377.96;   -8.867;  -24.000;    0.000;15.13333
 378.25;   29.867;   11.667;    0.000;18.20000
 378.55;  -23.000;  -23.133;    0.000; 0.13333
 378.84;   -7.200;   -4.067;    0.000;-3.13333
 379.13;   -6.733;  -22.667;    0.000;15.93333
 379.42;    1.333;   -7.267;    0.000; 8.60000
 379.71;    9.200;  -18.733;    0.000;27.93333
 380.00;    4.000;   23.467;    0.000;-19.46667
 380.29;   -8.133;  -15.733;    0.000; 7.60000
 380.59;  -28.133;    2.133;    0.000;-30.26667
 380.88;    2.733;  -13.667;    0.000;16.40000
 381.17;   -0.133;   -5.333;    0.000; 5.20000
 381.46;  -23.000;   -2.133;    0.000;-20.86667
 381.75;   13.467;   -5.133;    0.000;18.60000
 382.04;   -1.400;  -12.533;    0.000;11.13333
 382.33;  -10.867;   14.600;    0.000;-25.46667
 382.62;  -12.667;  -32.133;    0.000;19.46667
 382.91;   19.467;    5.533;    0.000;13.93333
 383.21;   -4.067;  -28.600;    0.000;24.53333
 383.50;   -1.733;  -18.067;    0.000;16.33333
 383.79;   -6.467;  -37.533;    0.000;31.06667
 384.08;  -17.733;    0.200;    0.000;-17.93333
 384.37;  -11.933;  -32.467;    0.000;20.53333
 384.66;    7.733;   -4.933;    0.000;12.66667
 384.95;  -35.467;  -25.867;    0.000;-9.60000
 385.24;  -10.067;  -17.400;    0.000; 7.33333
 385.53;  -13.133;   -4.800;    0.000;-8.33333
 385.83;  -11.133;  -14.267;    0.000; 3.13333
 386.12;    4.267;  -13.133;    0.000;17.40000
 386.41;   13.267;   -7.067;    0.000;20.33333
 386.70;  -10.267;  -28.267;    0.000;18.00000
 386.99;    9.733;    9.667;    0.000; 0.06667
 387.28;   10.200;  -11.200;    0.000;21.40000
 387.57;    4.667;   -1.200;    0.000; 5.86667
 387.86;  -12.467;  -29.667;    0.000;17.20000
 388.15;   -0.200;   10.667;    0.000;-10.86667
 388.44;  -13.267;  -33.933;    0.000;20.66667
 388.73;   -9.867;   -3.800;    0.000;-6.06667
 389.02;    8.000;  -29.867;    0.000;37.86667
 389.31;   13.800;   -3.400;    0.000;17.20000
 389.61;  -15.467;  -22.600;    0.000; 7.13333
 389.90;    0.800;    3.400;    0.000;-2.60000
 390.19;   -1.933;  -35.000;    0.000;33.06667
 390.48;    5.133;   -6.267;    0.000;11.40000
 390.77;    4.733;  -17.533;    0.000;22.26667
 391.06;    3.800;  -17.667;    0.000;21.46667
 391.35;  -25.600;  -27.867;    0.000; 2.26667
 391.64;    9.333;   13.733;    0.000;-4.40000
 391.93;   -5.667;  -24.467;    0.000;18.80000
 392.22;   -2.733;    0.933;    0.000;-3.66667
 392.51;   26.067;  -20.600;    0.000;46.66667
 392.80;   13.600;   10.667;    0.000; 2.93333
 393.09;  -26.333;  -39.000;    0.000;12.66667
 393.38;   12.533;    2.133;    0.000;10.40000
 393.67;    2.400;  -34.333;    0.000;36.73333
 393.96;   13.600;    4.000;    0.000; 9.60000
 394.25;   -6.867;  -19.800;    0.000;12.93333
 394.54;   -3.600;  -12.933;    0.000; 9.33333
 394.83;  -23.400;  -25.867;    0.000; 2.46667
 395.13;    2.867;  -10.267;    0.000;13.13333
 395.42;  -25.533;  -30.600;    0.000; 5.06667
 395.71;   19.333;   -1.467;    0.000;20.80000
 396.00;    3.333;  -35.267;    0.000;38.60000
 396.29;    4.267;   -3.133;    0.000; 7.40000
 396.58;  -16.667;  -35.533;    0.000;18.86667
 396.87;   19.000;   -0.733;    0.000;19.73333
 397.16;   -6.067;  -18.733;    0.000;12.66667
 397.45;   -0.667;   -3.067;    0.000; 2.40000
 397.74;   -2.867;  -38.600;    0.000;35.73333
 398.03;   11.000;  -15.000;    0.000;26.00000
 398.32;  -33.333;  -30.333;    0.000;-3.00000
 398.61;    0.467;   -2.000;    0.000; 2.46667
 398.90;   -9.800;  -14.800;    0.000; 5.00000
 399.19;   12.467;    7.667;    0.000; 4.80000
 399.48;  -17.200;  -27.867;    0.000;10.66667
 399.77;    5.933;    8.600;    0.000;-2.66667
 400.06;   -6.800;  -19.867;    0.000;13.06667
 400.35;  -10.467;   -2.067;    0.000;-8.40000
 400.64;   -4.600;  -49.067;    0.000;44.46667
 400.93;    0.000;    5.800;    0.000;-5.80000
 401.22;  -13.267;  -34.600;    0.000;21.33333
 401.51;   -3.067;    3.267;    0.000;-6.33333
 401.80;   -5.533;  -19.067;    0.000;13.53333
 402.09;  -21.000;  -19.067;    0.000;-1.93333
 402.38;   -1.000;  -10.800;    0.000; 9.80000
 402.67;  -15.800;   -3.333;    0.000;-12.46667
 402.96;    6.800;  -16.533;    0.000;23.33333
 403.25;    1.267;    7.200;    0.000;-5.93333
 403.54;   -9.267;  -19.133;    0.000; 9.86667
 403.83;   -5.600;    2.200;    0.000;-7.80000
 404.12;   -9.200;  -28.600;    0.000;19.40000
 404.41;    2.667;    0.400;    0.000; 2.26667
 404.70;  -10.400;  -39.333;    0.000;28.93333
 404.98;  -16.800;    3.400;    0.000;-20.20000
 405.27;  -21.600;  -12.533;    0.000;-9.06667
 405.56;   13.000;    4.667;    0.000; 8.33333
 405.85;  -17.000;  -31.267;    0.000;14.26667
 406.14;   -0.400;   -6.467;    0.000; 6.06667
 406.43;   -7.800;   -8.000;    0.000; 0.20000
 406.72;    9.933;   -2.600;    0.000;12.53333
 407.01;  -17.067;  -38.133;    0.000;21.06667
 407.30;  -10.400;  -13.133;    0.000; 2.73333
 407.59;   -9.333;  -12.467;    0.000; 3.13333
 407.88;    3.267;   -3.800;    0.000; 7.06667
 408.17;   -5.667;  -12.267;    0.000; 6.60000
 408.46;    7.600;  -19.533;    0.000;27.13333
 408.75;   15.533;  -28.133;    0.000;43.66667
 409.04;    2.133;    0.800;    0.000; 1.33333
 409.33;  -13.133;  -27.933;    0.000;14.80000
 409.62;   -7.200;   11.733;    0.000;-18.93333
 409.91;  -18.133;  -25.467;    0.000; 7.33333
 410.20;   17.333;  -17.933;    0.000;35.26667
 410.48;  -32.067;  -15.333;    0.000;-16.73333
 410.77;  -14.867;  -21.533;    0.000; 6.66667
 411.06;  -19.600;   -5.600;    0.000;-14.00000
 411.35;   14.000;    8.667;    0.000; 5.33333
 411.64;   -8.933;  -21.933;    0.000;13.00000
 411.93;    9.667;   -8.133;    0.000;17.80000
 412.22;   -9.667;  -27.267;    0.000;17.60000
 412.51;  -22.000;   -9.133;    0.000;-12.86667
 412.80;  -16.000;  -15.533;    0.000;-0.46667
 413.09;    6.400;   -8.000;    0.000;14.40000
 413.38;    0.933;  -26.400;    0.000;27.33333
 413.67;   -0.867;   -9.533;    0.000; 8.66667
 413.96;  -16.200;  -33.000;    0.000;16.80000
 414.24;    4.733;   11.133;    0.000;-6.40000
 414.53;   -1.267;   -7.867;    0.000; 6.60000
 414.82;    8.400;  -10.400;    0.000;18.80000
 415.11;  -11.733;  -13.333;    0.000; 1.60000
 415.40;   13.267;   -9.867;    0.000;23.13333
 415.69;   -7.533;  -31.933;    0.000;24.40000
 415.98;    5.933;   -4.667;    0.000;10.60000
 416.27;  -28.533;  -43.133;    0.000;14.60000
 416.56;   -2.333;   -9.200;    0.000; 6.86667
 416.84;  -26.200;   -8.467;    0.000;-17.73333
 417.13;   -7.800;   -9.800;    0.000; 2.00000
 417.42;  -12.133;  -14.133;    0.000; 2.00000
 417.71;   -6.333;    2.667;    0.000;-9.00000
 418.00;  -18.067;  -34.200;    0.000;16.13333
 418.29;   -4.333;  -18.667;    0.000;14.33333
 418.58;    3.933;  -45.200;    0.000;49.13333
 418.87;   18.667;  -16.000;    0.000;34.66667
 419.15;   -5.133;  -22.800;    0.000;17.66667
 419.44;    6.467;    8.867;    0.000;-2.40000
 419.73;   -9.600;  -14.267;    0.000; 4.66667
 420.02;  -14.733;   -5.867;    0.000;-8.86667
 420.31;  -15.133;  -38.000;    0.000;22.86667
 420.60;   -3.400;  -26.067;    0.000;22.66667
 420.89;  -14.667;  -36.400;    0.000;21.73333
 421.18;    6.600;    6.067;    0.000; 0.53333
 421.46;  -12.467;    0.000;    0.000;-12.46667
 421.75;  -12.800;    3.867;    0.000;-16.66667
 422.04;  -20.867;  -33.600;    0.000;12.73333
 422.33;    9.133;   -1.200;    0.000;10.33333
 422.62;  -25.133;  -26.933;    0.000; 1.80000
 422.91;   11.867;    0.733;    0.000;11.13333
 423.19;   -8.533;  -30.133;    0.000;21.60000
 423.48;    3.000;   16.667;    0.000;-13.66667
 423.77;  -24.333;  -31.933;    0.000; 7.60000
 424.06;   -5.200;  -14.200;    0.000; 9.00000
 424.35;  -10.133;  -41.267;    0.000;31.13333
 424.64;    5.133;    9.200;    0.000;-4.06667
 424.93;  -15.067;  -30.733;    0.000;15.66667
 425.21;   -9.000;   -9.000;    0.000; 0.00000
 425.50;  -12.267;  -35.667;    0.000;23.40000
 425.79;   -8.667;  -13.133;    0.000; 4.46667
 426.08;  -15.867;  -21.400;    0.000; 5.53333
 426.37;    5.333;    6.933;    0.000;-1.60000
 426.65;  -16.133;  -43.467;    0.000;27.33333
 426.94;  -13.267;  -15.533;    0.000; 2.26667
 427.23;    2.867;  -31.400;    0.000;34.26667
 427.52;    1.600;  -20.733;    0.000;22.33333
 427.81;  -19.867;  -27.333;    0.000; 7.46667
 428.10;    5.200;  -21.467;    0.000;26.66667
 428.38;   -9.867;  -49.067;    0.000;39.20000
 428.67;    4.933;   -3.200;    0.000; 8.13333
 428.96;  -19.000;  -40.733;    0.000;21.73333
 429.25;  -11.267;   -4.867;    0.000;-6.40000
 429.54;    4.067;  -35.133;    0.000;39.20000
 429.82;   -7.867;    9.067;    0.000;-16.93333
 430.11;    2.200;  -15.400;    0.000;17.60000
 430.40;  -17.600;  -13.667;    0.000;-3.93333
 430.69;   -3.667;  -31.467;    0.000;27.80000
 430.98;  -11.200;   -4.067;    0.000;-7.13333
 431.26;  -10.800;  -21.933;    0.000;11.13333
 431.55;   -9.267;   -2.133;    0.000;-7.13333
 431.84;   -5.133;  -38.400;    0.000;33.26667
 432.13;   -2.133;  -14.667;    0.000;12.53333
 432.41;  -11.000;  -19.000;    0.000; 8.00000
 432.70;   14.000;   -2.200;    0.000;16.20000
 432.99;    0.133;  -10.533;    0.000;10.66667
 433.28;   -5.800;  -12.267;    0.000; 6.46667
 433.57;    3.667;  -16.933;    0.000;20.60000
 433.85;   13.600;  -11.933;    0.000;25.53333
 434.14;  -20.067;  -49.200;    0.000;29.13333
 434.43;   -3.400;    5.933;    0.000;-9.33333
 434.72;  -25.733;   -8.533;    0.000;-17.20000
 435.00;  -20.667;  -30.667;    0.000;10.00000
 435.29;  -10.733;  -29.733;    0.000;19.00000
 435.58;    1.267;  -17.267;    0.000;18.53333
 435.87;   -3.800;  -31.200;    0.000;27.40000
 436.15;   -4.333;  -13.267;    0.000; 8.93333
 436.44;  -12.933;  -35.267;    0.000;22.33333
 436.73;   13.400;  -11.867;    0.000;25.26667
 437.02;  -13.400;  -26.600;    0.000;13.20000
 437.30;  -21.533;  -12.933;    0.000;-8.60000
 437.59;  -11.867;  -34.200;    0.000;22.33333
 437.88;   -8.667;  -14.800;    0.000; 6.13333
 438.17;  -31.933;  -34.800;    0.000; 2.86667
 438.45;    3.600;  -25.533;    0.000;29.13333
 438.74;   -5.867;  -37.333;    0.000;31.46667
 439.03;    5.533;   -9.000;    0.000;14.53333
 439.32;  -18.133;  -40.200;    0.000;22.06667
 439.60;   -6.000;    0.600;    0.000;-6.60000
 439.89;  -20.867;  -30.400;    0.000; 9.53333
 440.18;   -8.267;  -15.133;    0.000; 6.86667
 440.46;  -16.933;  -37.133;    0.000;20.20000
 440.75;   -6.400;  -18.200;    0.000;11.80000
 441.04;   -7.733;  -47.333;    0.000;39.60000
 441.33;   -7.533;   -1.600;    0.000;-5.93333
 441.61;  -18.533;  -30.800;    0.000;12.26667
 441.90;   14.067;    0.333;    0.000;13.73333
 442.19;  -17.133;  -26.067;    0.000; 8.93333
 442.47;   14.267;  -19.800;    0.000;34.06667
 442.76;  -10.467;  -40.067;    0.000;29.60000
 443.05;  -12.933;  -11.600;    0.000;-1.33333
 443.34;  -13.467;  -25.800;    0.000;12.33333
 443.62;    1.933;  -20.733;    0.000;22.66667
 443.91;  -21.800;  -45.600;    0.000;23.80000
 444.20;    9.267;   28.600;    0.000;-19.33333
 444.48;  -22.267;  -50.467;    0.000;28.20000
 444.77;   11.467;    9.067;    0.000; 2.40000
 445.06;  -16.267;  -16.600;    0.000; 0.33333
 445.34;   -6.533;  -20.467;    0.000;13.93333
 445.63;  -15.333;  -28.467;    0.000;13.13333
 445.92;   31.600;   21.933;    0.000; 9.66667
 446.21;  -14.800;  -36.000;    0.000;21.20000
 446.49;   -6.400;  -10.133;    0.000; 3.73333
 446.78;   -5.600;  -23.533;    0.000;17.93333
 447.07;  -18.467;   -4.600;    0.000;-13.86667
 447.35;  -25.733;  -38.933;    0.000;13.20000
 447.64;   -1.933;   -6.467;    0.000; 4.53333
 447.93;    0.400;  -31.867;    0.000;32.26667
 448.21;  -10.733;  -11.800;    0.000; 1.06667
 448.50;   -8.400;  -16.133;    0.000; 7.73333
 448.79;  -14.400;  -11.400;    0.000;-3.00000
 449.07;   -6.533;  -51.800;    0.000;45.26667
 449.36;  -15.933;   -0.067;    0.000;-15.86667
 449.65;   -4.533;  -49.800;    0.000;45.26667
 449.93;   -3.467;   -6.133;    0.000; 2.66667
 450.22;  -23.133;  -22.867;    0.000;-0.26667
 450.51;  -11.667;  -22.133;    0.000;10.46667
 450.79;  -27.000;  -24.067;    0.000;-2.93333
 451.08;  -10.200;  -11.333;    0.000; 1.13333
 451.36;  -10.867;  -27.000;    0.000;16.13333
 451.65;    5.867;   -0.133;    0.000; 6.00000
 451.94;   -0.933;  -21.467;    0.000;20.53333
 452.22;   -3.467;   -5.333;    0.000; 1.86667
 452.51;   -3.600;  -38.133;    0.000;34.53334
 452.80;  -34.800;  -20.200;    0.000;-14.60000
 453.08;  -10.667;  -54.067;    0.000;43.40000
 453.37;    8.600;   -1.533;    0.000;10.13333
 453.66;    1.467;  -67.267;    0.000;68.73334
 453.94;  -18.867;  -21.067;    0.000; 2.20000
 454.23;  -14.600;  -33.467;    0.000;18.86667
 454.51;   24.467;    8.600;    0.000;15.86667
 454.80;   -8.600;  -50.133;    0.000;41.53333
 455.09;    3.600;   15.533;    0.000;-11.93333
 455.37;   -5.133;   -7.933;    0.000; 2.80000
 455.66;   -9.667;   -8.600;    0.000;-1.06667
 455.95;   -6.267;  -15.533;    0.000; 9.26667
 456.23;    7.733;   10.200;    0.000;-2.46667
 456.52;  -32.133;  -37.800;    0.000; 5.66666
 456.80;   -3.533;  -12.200;    0.000; 8.66667
 457.09;  -19.133;  -37.600;    0.000;18.46667
 457.38;    3.333;    0.867;    0.000; 2.46667
 457.66;  -15.733;  -18.533;    0.000; 2.80000
 457.95;    1.800;  -27.000;    0.000;28.80000
 458.23;  -27.667;  -14.467;    0.000;-13.20000
 458.52;   18.200;   -5.533;    0.000;23.73333
 458.81;    4.400;  -48.600;    0.000;53.00000
 459.09;  -16.933;  -25.133;    0.000; 8.20000
 459.38;  -20.000;  -52.800;    0.000;32.80000
 459.66;  -19.133;  -11.000;    0.000;-8.13333
 459.95;  -11.200;  -29.667;    0.000;18.46667
 460.23;    3.800;  -21.533;    0.000;25.33333
 460.52;  -14.933;  -24.267;    0.000; 9.33333
 460.81;   -6.467;  -10.933;    0.000; 4.46667
 461.09;  -18.400;  -37.400;    0.000;19.00000
 461.38;   -4.200;   -1.000;    0.000;-3.20000
 461.66;  -24.533;  -58.200;    0.000;33.66667
 461.95;    2.267;  -16.600;    0.000;18.86667
 462.23;  -22.400;  -34.200;    0.000;11.80000
 462.52;  -15.667;  -23.733;    0.000; 8.06667
 462.81;  -23.533;  -35.667;    0.000;12.13334
 463.09;    2.067;  -16.800;    0.000;18.86667
 463.38;  -18.867;  -35.467;    0.000;16.60000
 463.66;  -19.200;  -15.867;    0.000;-3.33333
 463.95;  -10.600;  -25.867;    0.000;15.26667
 464.23;   17.067;  -15.133;    0.000;32.20000
 464.52;  -32.200;  -41.800;    0.000; 9.60000
 464.80;    7.800;  -23.533;    0.000;31.33333
 465.09;    3.533;  -14.600;    0.000;18.13333
 465.38;   -7.933;   -2.000;    0.000;-5.93333
 465.66;  -22.467;  -27.867;    0.000; 5.40000
 465.95;    6.600;  -12.000;    0.000;18.60000
 466.23;   -8.000;  -42.333;    0.000;34.33333
 466.52;  -10.067;  -17.533;    0.000; 7.46667
 466.80;   19.933;  -23.333;    0.000;43.26667
 467.09;   -2.200;   -3.533;    0.000; 1.33333
 467.37;  -17.267;  -23.133;    0.000; 5.86667
 467.66;   11.400;    7.667;    0.000; 3.73333
 467.94;  -11.667;  -44.267;    0.000;32.60000
 468.23;   -4.000;   -7.067;    0.000; 3.06667
 468.51;    2.867;  -33.800;    0.000;36.66667
 468.80;  -23.933;  -24.067;    0.000; 0.13334
 469.08;  -29.400;  -10.333;    0.000;-19.06667
 469.37;  -25.800;    5.667;    0.000;-31.46667
 469.66;   -8.000;  -22.067;    0.000;14.06667
 469.94;   -4.200;  -14.600;    0.000;10.40000
 470.23;   -4.533;  -33.000;    0.000;28.46667
 470.51;   -8.067;  -16.467;    0.000; 8.40000
 470.80;    1.400;  -18.667;    0.000;20.06667
 471.08;   18.533;  -21.800;    0.000;40.33333
 471.37;    0.733;  -29.533;    0.000;30.26667
 471.65;   -0.533;   -6.467;    0.000; 5.93333
 471.94;  -10.133;  -39.867;    0.000;29.73333
 472.22;   16.133;  -11.800;    0.000;27.93333
 472.51;  -16.333;  -34.800;    0.000;18.46667
 472.79;    1.733;   -6.467;    0.000; 8.20000
 473.08;  -18.800;  -17.400;    0.000;-1.40000
 473.36;   -9.133;   -0.533;    0.000;-8.60000
 473.64;   -6.000;  -38.467;    0.000;32.46667
 473.93;    6.933;  -20.333;    0.000;27.26667
 474.21;  -13.733;  -18.533;    0.000; 4.80000
 474.50;   -9.133;  -18.067;    0.000; 8.93333
 474.78;   35.467;  -17.533;    0.000;53.00000
 475.07;   -1.333;  -25.133;    0.000;23.80000
 475.35;  -14.733;  -41.067;    0.000;26.33333
 475.64;    5.600;  -20.400;    0.000;26.00000
 475.92;  -14.733;  -35.400;    0.000;20.66667
 476.21;   -5.867;    2.000;    0.000;-7.86667
 476.49;  -16.600;  -26.867;    0.000;10.26667
 476.78;    7.133;  -28.933;    0.000;36.06667
 477.06;  -13.467;  -32.667;    0.000;19.20000
 477.35;   17.600;   -5.733;    0.000;23.33333
 477.63;   -5.600;  -30.200;    0.000;24.60000
 477.91;   -8.733;  -15.400;    0.000; 6.66667
 478.20;    0.133;  -38.667;    0.000;38.80000
 478.48;   32.600;   18.533;    0.000;14.06667
 478.77;  -22.333;  -20.667;    0.000;-1.66667
 479.05;    4.933;  -27.000;    0.000;31.93333
 479.34;    6.400;  -30.333;    0.000;36.73333
 479.62;  -13.200;  -23.867;    0.000;10.66667
 479.91;   -7.600;  -36.733;    0.000;29.13333
 480.19;   24.667;   -6.800;    0.000;31.46667
 480.47;   -8.067;  -44.333;    0.000;36.26667
 480.76;    2.600;  -15.067;    0.000;17.66667
 481.04;   -0.133;  -25.267;    0.000;25.13333
 481.33;    5.200;  -12.600;    0.000;17.80000
 481.61;   10.267;  -30.133;    0.000;40.40000
 481.90;   35.867;  -34.733;    0.000;70.60000
 482.18;   22.467;  -37.800;    0.000;60.26667
 482.46;   29.933;   -4.533;    0.000;34.46667
 482.75;    0.733;  -51.333;    0.000;52.06667
 483.03;   33.733;   -4.867;    0.000;38.60000
 483.32;   50.000;  -40.467;    0.000;90.46667
 483.60;   39.533;  -12.733;    0.000;52.26667
 483.88;   51.800;  -46.133;    0.000;97.93333
 484.17;   83.533;  -14.600;    0.000;98.13333
 484.45;   54.000;  -25.800;    0.000;79.80000
 484.74;   89.667;  -28.467;    0.000;118.13333
 485.02;   81.867;  -37.200;    0.000;119.06667
 485.30;  112.133;  -33.267;    0.000;145.40000
 485.59;  112.733;  -37.467;    0.000;150.20000
 485.87;  151.933;  -13.333;    0.000;165.26667
 486.16;  126.667;  -40.867;    0.000;167.53333
 486.44;  167.600;  -25.933;    0.000;193.53334
 486.72;  157.667;  -63.467;    0.000;221.13334
 487.01;  189.800;  -25.133;    0.000;214.93334
 487.29;  215.733;  -32.000;    0.000;247.73334
 487.58;  236.733;  -16.400;    0.000;253.13334
 487.86;  247.667;  -35.400;    0.000;283.06667
 488.14;  270.533;   -8.667;    0.000;279.19999
 488.43;  305.400;  -43.267;    0.000;348.66666
 488.71;  344.867;  -17.600;    0.000;362.46667
 488.99;  338.467;  -47.200;    0.000;385.66668
 489.28;  403.800;  -23.067;    0.000;426.86666
 489.56;  431.933;  -36.000;    0.000;467.93332
 489.85;  487.467;   -8.200;    0.000;495.66667
 490.13;  494.067;  -22.933;    0.000;517.00001
 490.41;  555.933;  -10.933;    0.000;566.86668
 490.70;  620.467;  -38.600;    0.000;659.06667
 490.98;  637.200;  -19.267;    0.000;656.46668
 491.26;  683.933;  -46.533;    0.000;730.46668
 491.55;  740.000;  -30.933;    0.000;770.93333
 491.83;  806.800;  -39.600;    0.000;846.39999
 492.11;  842.333;  -21.733;    0.000;864.06665
 492.40;  909.333;  -46.600;    0.000;955.93331
 492.68;  972.733;  -16.200;    0.000;988.93334
 492.96; 1006.267;  -48.733;    0.000;1055.00000
 493.25; 1067.800;   -2.267;    0.000;1070.06672
 493.53; 1114.267;  -41.467;    0.000;1155.73339
 493.81; 1230.800;  -20.133;    0.000;1250.93338
 494.10; 1274.267;  -28.067;    0.000;1302.33339
 494.38; 1371.333;  -11.867;    0.000;1383.20004
 494.66; 1468.533;  -52.267;    0.000;1520.79999
 494.95; 1521.867;  -23.933;    0.000;1545.80003
 495.23; 1581.000;  -46.600;    0.000;1627.60000
 495.51; 1679.333;   -5.933;    0.000;1685.26671
 495.80; 1728.667;  -45.667;    0.000;1774.33329
 496.08; 1868.867;  -10.467;    0.000;1879.33337
 496.36; 1967.467;  -39.533;    0.000;2007.00001
 496.65; 2058.267;  -27.333;    0.000;2085.59994
 496.93; 2150.733;  -31.800;    0.000;2182.53340
 497.21; 2289.267;  -12.600;    0.000;2301.86660
 497.50; 2378.400;  -34.600;    0.000;2412.99990
 497.78; 2473.667;  -14.733;    0.000;2488.40008
 498.06; 2578.000;  -47.200;    0.000;2625.20000
 498.34; 2674.400;  -15.067;    0.000;2689.46657
 498.63; 2827.733;  -46.800;    0.000;2874.53340
 498.91; 2903.667;  -19.133;    0.000;2922.80008
 499.19; 3053.667;  -43.333;    0.000;3097.00008
 499.48; 3193.400;  -10.867;    0.000;3204.26657
 499.76; 3246.467;  -41.333;    0.000;3287.79988
 500.04; 3429.067;   -9.800;    0.000;3438.86665
 500.32; 3589.267;  -50.933;    0.000;3640.19994
 500.61; 3677.600;  -26.000;    0.000;3703.60010
 500.89; 3811.733;  -35.667;    0.000;3847.40007
 501.17; 3927.067;  -37.467;    0.000;3964.53332
 501.46; 4116.200;  -40.267;    0.000;4156.46686
 501.74; 4207.867;  -33.667;    0.000;4241.53337
 502.02; 4338.133;  -26.067;    0.000;4364.19997
 502.30; 4484.000;   -8.267;    0.000;4492.26667
 502.59; 4640.933;  -45.133;    0.000;4686.06644
 502.87; 4822.400;  -16.733;    0.000;4839.13324
 503.15; 4922.000;  -35.667;    0.000;4957.66667
 503.43; 5072.333;  -13.867;    0.000;5086.20016
 503.72; 5229.600;  -46.800;    0.000;5276.40010
 504.00; 5343.733;   -8.800;    0.000;5352.53340
 504.28; 5504.600;  -46.933;    0.000;5551.53343
 504.56; 5709.200;  -38.733;    0.000;5747.93353
 504.85; 5847.533;  -24.933;    0.000;5872.46654
 505.13; 5951.000;  -16.867;    0.000;5967.86667
 505.41; 6144.467;  -55.000;    0.000;6199.46680
 505.69; 6255.400;  -23.800;    0.000;6279.19990
 505.98; 6465.733;  -37.600;    0.000;6503.33340
 506.26; 6585.667;   -1.667;    0.000;6587.33317
 506.54; 6678.667;  -51.333;    0.000;6729.99984
 506.82; 6908.733;  -26.267;    0.000;6935.00006
 507.11; 7080.000;  -26.867;    0.000;7106.86667
 507.39; 7193.667;  -35.067;    0.000;7228.73317
 507.67; 7411.933;  -47.133;    0.000;7459.06644
 507.95; 7614.533;  -28.133;    0.000;7642.66654
 508.23; 7678.533;  -30.533;    0.000;7709.06654
 508.52; 7826.733;  -11.333;    0.000;7838.06673
 508.80; 8014.533;  -49.533;    0.000;8064.06654
 509.08; 8172.000;  -14.400;    0.000;8186.40000
 509.36; 8358.667;  -44.800;    0.000;8403.46699
 509.65; 8473.934;  -26.333;    0.000;8500.26693
 509.93; 8595.200;  -62.000;    0.000;8657.20020
 510.21; 8877.866;  -14.600;    0.000;8892.46621
 510.49; 8922.000;  -29.000;    0.000;8951.00000
 510.77; 9086.934;  -16.067;    0.000;9103.00026
 511.06; 9303.400;  -60.467;    0.000;9363.86706
 511.34; 9351.200;  -31.800;    0.000;9383.00019
 511.62; 9607.667;  -38.867;    0.000;9646.53366
 511.90; 9756.134;  -27.133;    0.000;9783.26712
 512.18; 9825.267;  -30.000;    0.000;9855.26660
 512.47;10094.267;   -4.267;    0.000;10098.53327
 512.75;10194.733;  -59.467;    0.000;10254.20007
 513.03;10271.400;  -38.400;    0.000;10309.80039
 513.31;10394.333;  -34.467;    0.000;10428.79967
 513.59;10631.934;  -14.400;    0.000;10646.33359
 513.87;10727.600;  -49.867;    0.000;10777.46627
 514.16;10894.533;   -6.733;    0.000;10901.26654
 514.44;11024.200;  -26.867;    0.000;11051.06686
 514.72;11188.533;  -22.600;    0.000;11211.13320
 515.00;11341.333;  -23.733;    0.000;11365.06634
 515.28;11442.267;  -20.400;    0.000;11462.66660
 515.56;11549.400;  -42.200;    0.000;11591.60039
 515.85;11669.134;  -25.067;    0.000;11694.20046
 516.13;11781.200;  -48.467;    0.000;11829.66686
 516.41;12041.467;  -24.200;    0.000;12065.66680
 516.69;12110.467;  -45.400;    0.000;12155.86680
 516.97;12333.066;  -22.733;    0.000;12355.79974
 517.25;12415.934;  -51.933;    0.000;12467.86693
 517.54;12482.667;  -23.600;    0.000;12506.26699
 517.82;12616.066;  -38.333;    0.000;12654.39974
 518.10;12776.200;  -20.533;    0.000;12796.73353
 518.38;12857.267;  -50.133;    0.000;12907.39994
 518.66;12974.733;  -26.733;    0.000;13001.46673
 518.94;13012.200;  -30.133;    0.000;13042.33353
 519.22;13279.467;  -18.000;    0.000;13297.46680
 519.51;13325.000;  -45.067;    0.000;13370.06667
 519.79;13488.533;  -24.667;    0.000;13513.19987
 520.07;13575.267;  -33.800;    0.000;13609.06660
 520.35;13786.200;  -32.400;    0.000;13818.60020
 520.63;13873.333;  -32.800;    0.000;13906.13301
 520.91;13998.134;  -22.600;    0.000;14020.73379
 521.19;14063.467;  -53.333;    0.000;14116.80013
 521.47;14257.667;  -13.267;    0.000;14270.93366
 521.75;14292.333;  -47.000;    0.000;14339.33301
 522.04;14289.667;  -23.733;    0.000;14313.40033
 522.32;14475.333;  -45.200;    0.000;14520.53301
 522.60;14595.533;  -11.600;    0.000;14607.13320
 522.88;14655.733;  -36.667;    0.000;14692.40007
 523.16;14812.400;  -28.400;    0.000;14840.80039
 523.44;14954.467;  -14.467;    0.000;14968.93346
 523.72;15010.066;  -13.267;    0.000;15023.33307
 524.00;15072.200;  -40.867;    0.000;15113.06686
 524.28;15256.533;    6.733;    0.000;15249.79987
 524.57;15136.333;  -42.733;    0.000;15179.06634
 524.85;15489.200;  -32.400;    0.000;15521.60020
 525.13;15518.400;  -29.000;    0.000;15547.40039
 525.41;15589.533;  -21.067;    0.000;15610.59987
 525.69;15572.934;  -26.933;    0.000;15599.86693
 525.97;15781.267;    0.533;    0.000;15780.73327
 526.25;15720.600;  -38.933;    0.000;15759.53294
 526.53;15995.200;  -14.667;    0.000;16009.86686
 526.81;16038.533;  -60.333;    0.000;16098.86654
 527.09;15987.800;  -26.667;    0.000;16014.46647
 527.37;16049.134;  -51.133;    0.000;16100.26712
 527.65;16186.333;  -17.400;    0.000;16203.73301
 527.93;16233.667;  -46.067;    0.000;16279.73366
 528.22;16378.600;  -21.333;    0.000;16399.93294
 528.50;16550.467;  -55.600;    0.000;16606.06680
 528.78;16612.934;  -34.200;    0.000;16647.13359
 529.06;16609.400;  -36.733;    0.000;16646.13372
 529.34;16823.334;  -11.867;    0.000;16835.20065
 529.62;16806.666;  -47.733;    0.000;16854.39935
 529.90;16823.533;  -21.133;    0.000;16844.66654
 530.18;16865.666;  -65.600;    0.000;16931.26601
 530.46;17000.600;  -12.400;    0.000;17012.99961
 530.74;17018.400;  -28.067;    0.000;17046.46706
 531.02;17189.133;   -6.067;    0.000;17195.19948
 531.30;17299.199;  -51.800;    0.000;17350.99922
 531.58;17280.801;  -18.467;    0.000;17299.26745
 531.86;17418.000;  -36.867;    0.000;17454.86666
 532.14;17491.934;  -11.133;    0.000;17503.06693
 532.42;17456.934;  -30.600;    0.000;17487.53359
 532.70;17501.600;   -0.133;    0.000;17501.73294
 532.98;17620.732;  -53.867;    0.000;17674.59909
 533.26;17618.533;  -15.467;    0.000;17633.99987
 533.54;17681.133;  -43.467;    0.000;17724.59948
 533.82;17801.400;  -13.333;    0.000;17814.73372
 534.10;17761.199;  -46.267;    0.000;17807.46589
 534.38;17976.801;  -28.467;    0.000;18005.26745
 534.66;17958.801;  -50.933;    0.000;18009.73412
 534.94;18038.600;  -10.667;    0.000;18049.26628
 535.22;18024.801;  -48.800;    0.000;18073.60078
 535.50;18184.867;  -23.733;    0.000;18208.60052
 535.78;18256.268;  -53.200;    0.000;18309.46758
 536.06;18189.867;  -37.733;    0.000;18227.60052
 536.34;18207.533;  -44.333;    0.000;18251.86654
 536.62;18391.268;  -12.533;    0.000;18403.80091
 536.90;18432.066;  -60.200;    0.000;18492.26641
 537.18;18406.268;  -28.467;    0.000;18434.73425
 537.46;18579.133;  -37.067;    0.000;18616.19948
 537.74;18575.867;  -14.933;    0.000;18590.80052
 538.02;18614.199;  -36.333;    0.000;18650.53255
 538.30;18717.666;   -7.333;    0.000;18724.99935
 538.58;18764.801;  -40.467;    0.000;18805.26745
 538.86;18835.334;  -21.133;    0.000;18856.46732
 539.14;18830.533;  -43.467;    0.000;18873.99987
 539.42;18990.533;   -9.800;    0.000;19000.33320
 539.70;18923.400;  -48.867;    0.000;18972.26706
 539.98;19166.133;    3.333;    0.000;19162.79948
 540.26;19227.467;  -64.467;    0.000;19291.93346
 540.54;19177.268;  -40.867;    0.000;19218.13424
 540.82;19086.600;  -55.400;    0.000;19141.99961
 541.10;19402.467;  -45.600;    0.000;19448.06680
 541.38;19209.732;  -66.533;    0.000;19276.26575
 541.66;19282.467;  -19.067;    0.000;19301.53346
 541.94;19453.268;  -55.933;    0.000;19509.20091
 542.22;19400.400;  -25.200;    0.000;19425.60039
 542.50;19407.600;  -18.800;    0.000;19426.39961
 542.78;19458.867;  -40.000;    0.000;19498.86719
 543.06;19506.467;  -41.733;    0.000;19548.20013
 543.34;19620.867;  -15.467;    0.000;19636.33385
 543.62;19546.133;  -41.133;    0.000;19587.26615
 543.90;19582.334;  -33.800;    0.000;19616.13398
 544.17;19674.066;  -40.333;    0.000;19714.39974
 544.45;19763.467;  -32.533;    0.000;19796.00013
 544.73;19697.066;  -39.733;    0.000;19736.79974
 545.01;19718.867;  -19.733;    0.000;19738.60052
 545.29;19838.867;  -50.733;    0.000;19889.60052
 545.57;19841.600;  -23.733;    0.000;19865.33294
 545.85;19846.732;  -34.867;    0.000;19881.59909
 546.13;19859.066;   -6.267;    0.000;19865.33307
 546.41;20013.199;  -32.067;    0.000;20045.26588
 546.69;19936.268;  -37.467;    0.000;19973.73425
 546.97;19950.867;  -44.000;    0.000;19994.86719
 547.25;20113.000;  -42.733;    0.000;20155.73333
 547.52;19966.600;  -50.667;    0.000;20017.26628
 547.80;20036.133;  -17.400;    0.000;20053.53281
 548.08;20080.666;  -42.133;    0.000;20122.79935
 548.36;20084.934;  -25.067;    0.000;20110.00026
 548.64;20378.732;  -39.400;    0.000;20418.13242
 548.92;20205.732;  -25.667;    0.000;20231.39909
 549.20;20274.600;  -52.067;    0.000;20326.66628
 549.48;20200.066;   -5.200;    0.000;20205.26641
 549.76;20217.268;  -44.800;    0.000;20262.06758
 550.04;20358.934;  -11.400;    0.000;20370.33359
 550.31;20206.801;  -32.800;    0.000;20239.60078
 550.59;20325.732;  -22.600;    0.000;20348.33242
 550.87;20334.732;  -48.133;    0.000;20382.86576
 551.15;20298.666;  -24.600;    0.000;20323.26602
 551.43;20441.533;  -45.200;    0.000;20486.73320
 551.71;20437.867;  -31.067;    0.000;20468.93386
 551.99;20337.732;  -23.600;    0.000;20361.33242
 552.27;20408.199;  -25.133;    0.000;20433.33255
 552.54;20340.000;  -45.600;    0.000;20385.60000
 552.82;20375.400;  -36.600;    0.000;20412.00039
 553.10;20357.666;  -48.200;    0.000;20405.86602
 553.38;20508.867;  -24.400;    0.000;20533.26719
 553.66;20356.199;  -39.533;    0.000;20395.73255
 553.94;20383.801;   -9.667;    0.000;20393.46745
 554.22;20521.400;  -32.000;    0.000;20553.40039
 554.49;20489.268;  -14.933;    0.000;20504.20091
 554.77;20300.467;  -43.400;    0.000;20343.86680
 555.05;20440.000;  -22.200;    0.000;20462.20000
 555.33;20522.334;  -60.533;    0.000;20582.86732
 555.61;20440.666;  -20.600;    0.000;20461.26602
 555.89;20421.268;  -74.400;    0.000;20495.66758
 556.16;20557.400;  -38.267;    0.000;20595.66706
 556.44;20534.334;  -38.600;    0.000;20572.93398
 556.72;20492.199;  -18.867;    0.000;20511.06589
 557.00;20476.600;  -55.733;    0.000;20532.33294
 557.28;20435.732;  -21.133;    0.000;20456.86576
 557.56;20381.268;  -58.533;    0.000;20439.80091
 557.83;20408.600;  -10.533;    0.000;20419.13294
 558.11;20406.268;  -45.733;    0.000;20452.00091
 558.39;20292.400;  -24.067;    0.000;20316.46706
 558.67;20521.066;  -43.267;    0.000;20564.33307
 558.95;20477.400;  -43.267;    0.000;20520.66706
 559.23;20492.934;  -47.267;    0.000;20540.20026
 559.50;20534.600;  -46.000;    0.000;20580.59961
 559.78;20505.600;  -52.200;    0.000;20557.79961
 560.06;20372.666;  -27.067;    0.000;20399.73268
 560.34;20193.334;  -54.200;    0.000;20247.53399
 560.62;20267.199;  -40.467;    0.000;20307.66589
 560.89;20349.199;  -30.333;    0.000;20379.53255
 561.17;20245.133;  -20.333;    0.000;20265.46615
 561.45;20244.666;  -47.533;    0.000;20292.19935
 561.73;20197.268;  -45.200;    0.000;20242.46758
 562.00;20141.934;  -32.133;    0.000;20174.06693
 562.28;20260.268;  -21.200;    0.000;20281.46758
 562.56;20254.600;  -52.733;    0.000;20307.33294
 562.84;20270.801;  -27.800;    0.000;20298.60078
 563.12;20206.268;  -60.067;    0.000;20266.33424
 563.39;20189.533;  -36.000;    0.000;20225.53320
 563.67;19995.066;  -40.267;    0.000;20035.33307
 563.95;20033.199;  -29.733;    0.000;20062.93255
 564.23;19990.000;  -34.267;    0.000;20024.26667
 564.50;20073.801;  -28.333;    0.000;20102.13412
 564.78;20082.867;  -43.867;    0.000;20126.73385
 565.06;19943.400;  -21.133;    0.000;19964.53372
 565.34;19994.000;  -29.267;    0.000;20023.26667
 565.61;19921.400;  -24.333;    0.000;19945.73372
 565.89;19773.400;  -39.800;    0.000;19813.20039
 566.17;19749.334;  -22.867;    0.000;19772.20065
 566.45;19753.133;  -36.267;    0.000;19789.39948
 566.73;19784.000;  -43.067;    0.000;19827.06667
 567.00;19519.600;  -53.600;    0.000;19573.19961
 567.28;19607.133;  -38.533;    0.000;19645.66615
 567.56;19670.400;  -66.200;    0.000;19736.60039
 567.83;19583.000;  -15.267;    0.000;19598.26667
 568.11;19470.934;  -58.800;    0.000;19529.73359
 568.39;19406.000;  -16.333;    0.000;19422.33333
 568.67;19425.732;  -49.867;    0.000;19475.59909
 568.94;19370.732;  -40.733;    0.000;19411.46576
 569.22;19328.801;  -39.733;    0.000;19368.53411
 569.50;19347.732;  -41.800;    0.000;19389.53242
 569.78;19274.133;  -31.733;    0.000;19305.86615
 570.05;19208.400;  -59.667;    0.000;19268.06706
 570.33;19189.801;  -57.133;    0.000;19246.93412
 570.61;19081.400;  -30.067;    0.000;19111.46706
 570.88;19139.801;  -61.133;    0.000;19200.93412
 571.16;18951.801;  -33.800;    0.000;18985.60078
 571.44;18975.000;  -58.867;    0.000;19033.86666
 571.72;18917.732;  -25.267;    0.000;18942.99909
 571.99;18847.199;  -35.400;    0.000;18882.59922
 572.27;18828.133;  -30.267;    0.000;18858.39948
 572.55;18751.066;  -62.800;    0.000;18813.86641
 572.82;18738.334;  -27.133;    0.000;18765.46732
 573.10;18620.666;  -41.067;    0.000;18661.73268
 573.38;18656.533;  -39.733;    0.000;18696.26654
 573.65;18443.467;  -20.533;    0.000;18464.00013
 573.93;18451.533;  -18.467;    0.000;18469.99987
 574.21;18512.199;  -48.867;    0.000;18561.06588
 574.48;18250.400;  -26.667;    0.000;18277.06706
 574.76;18278.600;  -36.267;    0.000;18314.86628
 575.04;18247.666;  -21.800;    0.000;18269.46601
 575.32;18190.666;  -33.733;    0.000;18224.39935
 575.59;18199.732;  -31.000;    0.000;18230.73242
 575.87;17990.066;  -57.333;    0.000;18047.39974
 576.15;18011.600;  -26.067;    0.000;18037.66628
 576.42;17943.133;  -57.533;    0.000;18000.66615
 576.70;17837.934;  -43.800;    0.000;17881.73359
 576.98;17804.199;  -61.933;    0.000;17866.13255
 577.25;17690.000;  -31.733;    0.000;17721.73333
 577.53;17697.199;  -45.533;    0.000;17742.73255
 577.80;17588.199;  -24.133;    0.000;17612.33255
 578.08;17613.801;  -58.333;    0.000;17672.13411
 578.36;17497.801;  -26.333;    0.000;17524.13412
 578.63;17236.000;  -59.600;    0.000;17295.60000
 578.91;17320.334;  -16.533;    0.000;17336.86732
 579.19;17286.133;  -31.133;    0.000;17317.26615
 579.46;17206.000;  -36.933;    0.000;17242.93333
 579.74;17013.666;  -37.200;    0.000;17050.86602
 580.02;16964.334;  -15.267;    0.000;16979.60065
 580.29;16913.801;  -44.933;    0.000;16958.73412
 580.57;16858.533;  -32.933;    0.000;16891.46654
 580.84;16826.801;  -45.067;    0.000;16871.86745
 581.12;16687.467;  -25.467;    0.000;16712.93346
 581.40;16729.334;  -65.800;    0.000;16795.13399
 581.67;16611.666;   -5.933;    0.000;16617.59935
 581.95;16362.400;  -53.467;    0.000;16415.86706
 582.23;16375.333;  -29.533;    0.000;16404.86634
 582.50;16225.134;  -59.400;    0.000;16284.53379
 582.78;16241.467;  -34.733;    0.000;16276.20013
 583.05;16110.866;  -49.933;    0.000;16160.79955
 583.33;16055.400;  -24.733;    0.000;16080.13372
 583.61;15931.800;  -59.000;    0.000;15990.79980
 583.88;15881.866;  -37.933;    0.000;15919.79955
 584.16;15798.467;  -49.733;    0.000;15848.20013
 584.43;15728.200;  -30.933;    0.000;15759.13353
 584.71;15733.533;  -50.067;    0.000;15783.59987
 584.99;15642.134;  -19.133;    0.000;15661.26712
 585.26;15579.800;  -49.667;    0.000;15629.46647
 585.54;15502.400;  -42.533;    0.000;15544.93372
 585.81;15222.800;  -50.600;    0.000;15273.39980
 586.09;15208.333;  -22.800;    0.000;15231.13301
 586.37;15143.400;  -45.400;    0.000;15188.80039
 586.64;14987.400;  -37.600;    0.000;15025.00039
 586.92;14967.267;  -47.467;    0.000;15014.73327
 587.19;15027.800;  -32.400;    0.000;15060.19981
 587.47;14835.333;  -59.467;    0.000;14894.79967
 587.74;14804.467;  -47.533;    0.000;14852.00013
 588.02;14719.866;  -49.533;    0.000;14769.39954
 588.30;14654.400;  -21.600;    0.000;14676.00039
 588.57;14483.200;  -56.733;    0.000;14539.93353
 588.85;14568.934;  -23.667;    0.000;14592.60026
 589.12;14273.134;  -54.600;    0.000;14327.73379
 589.40;14296.800;  -30.133;    0.000;14326.93314
 589.67;14322.866;  -45.400;    0.000;14368.26621
 589.95;14228.467;  -41.067;    0.000;14269.53346
 590.22;14034.000;  -63.467;    0.000;14097.46667
 590.50;14048.134;  -33.133;    0.000;14081.26712
 590.77;13961.000;  -47.400;    0.000;14008.40000
 591.05;13907.400;  -41.933;    0.000;13949.33372
 591.33;13747.600;  -46.667;    0.000;13794.26628
 591.60;13581.400;  -57.533;    0.000;13638.93372
 591.88;13508.667;  -55.933;    0.000;13564.60033
 592.15;13534.934;  -45.267;    0.000;13580.20026
 592.43;13327.533;  -53.733;    0.000;13381.26654
 592.70;13294.600;  -33.133;    0.000;13327.73294
 592.98;13283.866;  -42.733;    0.000;13326.59954
 593.25;13179.866;  -22.333;    0.000;13202.19954
 593.53;13096.600;  -58.200;    0.000;13154.79961
 593.80;12964.134;  -42.067;    0.000;13006.20045
 594.08;12919.800;  -51.200;    0.000;12970.99981
 594.35;12814.800;  -28.667;    0.000;12843.46647
 594.63;12791.934;  -33.800;    0.000;12825.73359
 594.90;12588.667;  -37.600;    0.000;12626.26699
 595.18;12571.267;  -43.867;    0.000;12615.13327
 595.45;12505.467;  -11.933;    0.000;12517.40013
 595.73;12460.333;  -37.933;    0.000;12498.26634
 596.00;12336.134;  -36.600;    0.000;12372.73379
 596.28;12265.733;  -69.133;    0.000;12334.86673
 596.55;12179.000;  -37.067;    0.000;12216.06667
 596.83;12018.000;  -50.267;    0.000;12068.26667
 597.10;11959.134;  -19.667;    0.000;11978.80046
 597.38;11833.333;  -42.800;    0.000;11876.13301
 597.65;11793.333;  -40.133;    0.000;11833.46634
 597.93;11773.800;  -55.800;    0.000;11829.59980
 598.20;11713.333;  -42.467;    0.000;11755.79967
 598.48;11421.200;  -47.600;    0.000;11468.80019
 598.75;11374.733;  -32.133;    0.000;11406.86673
 599.03;11407.200;  -47.800;    0.000;11455.00019
 599.30;11329.667;  -38.600;    0.000;11368.26699
 599.58;11165.600;  -54.467;    0.000;11220.06628
 599.85;11310.800;  -21.333;    0.000;11332.13314
 600.12;11066.733;  -45.733;    0.000;11112.46673
 600.40;10987.400;  -32.067;    0.000;11019.46706
 600.67;10869.400;  -56.200;    0.000;10925.60039
 600.95;10711.134;  -26.000;    0.000;10737.13379
 601.22;10827.667;  -43.800;    0.000;10871.46699
 601.50;10745.134;  -25.467;    0.000;10770.60046
 601.77;10553.134;  -48.933;    0.000;10602.06712
 602.05;10491.800;   -1.667;    0.000;10493.46647
 602.32;10503.467;  -31.400;    0.000;10534.86680
 602.59;10392.000;  -27.667;    0.000;10419.66667
 602.87;10248.800;  -44.400;    0.000;10293.19981
 603.14;10260.467;  -34.000;    0.000;10294.46680
 603.42;10115.267;  -56.733;    0.000;10171.99994
 603.69;10049.733;  -55.200;    0.000;10104.93340
 603.97;10029.333;  -65.533;    0.000;10094.86634
 604.24; 9969.733;  -35.933;    0.000;10005.66673
 604.51; 9867.066;  -46.333;    0.000;9913.39974
 604.79; 9795.600;  -48.600;    0.000;9844.19961
 605.06; 9715.467;  -39.667;    0.000;9755.13346
 605.34; 9700.600;  -24.600;    0.000;9725.19961
 605.61; 9640.600;  -58.000;    0.000;9698.59961
 605.89; 9572.800;  -28.867;    0.000;9601.66647
 606.16; 9425.866;  -49.333;    0.000;9475.19954
 606.43; 9394.467;  -36.133;    0.000;9430.60013
 606.71; 9376.467;  -40.533;    0.000;9417.00013
 606.98; 9322.934;  -41.867;    0.000;9364.80026
 607.26; 9245.333;  -50.333;    0.000;9295.66634
 607.53; 9131.200;  -54.333;    0.000;9185.53353
 607.80; 9067.467;  -56.867;    0.000;9124.33346
 608.08; 9086.667;  -19.867;    0.000;9106.53366
 608.35; 9034.733;  -74.133;    0.000;9108.86673
 608.62; 8943.800;  -38.067;    0.000;8981.86647
 608.90; 8874.200;  -52.800;    0.000;8927.00019
 609.17; 8710.066;  -37.533;    0.000;8747.59974
 609.45; 8815.400;  -36.200;    0.000;8851.60039
 609.72; 8636.934;  -46.800;    0.000;8683.73359
 609.99; 8738.066;  -53.200;    0.000;8791.26641
 610.27; 8560.467;  -36.133;    0.000;8596.60013
 610.54; 8572.000;  -68.133;    0.000;8640.13333
 610.81; 8419.066;  -37.600;    0.000;8456.66640
 611.09; 8412.934;  -51.533;    0.000;8464.46693
 611.36; 8361.267;  -29.200;    0.000;8390.46660
 611.64; 8343.934;  -59.867;    0.000;8403.80026
 611.91; 8233.333;  -32.800;    0.000;8266.13301
 612.18; 8218.066;  -41.600;    0.000;8259.66640
 612.46; 8101.733;  -28.533;    0.000;8130.26673
 612.73; 8103.667;  -66.000;    0.000;8169.66650
 613.00; 8008.667;  -49.333;    0.000;8057.99984
 613.28; 7953.267;  -52.667;    0.000;8005.93327
 613.55; 7970.067;  -38.733;    0.000;8008.80023
 613.82; 7749.467;  -55.733;    0.000;7805.20013
 614.10; 7766.933;  -28.467;    0.000;7795.39977
 614.37; 7685.133;  -71.600;    0.000;7756.73330
 614.64; 7673.400;  -60.400;    0.000;7733.79990
 614.92; 7607.000;  -47.533;    0.000;7654.53333
 615.19; 7459.200;  -17.667;    0.000;7476.86686
 615.46; 7344.933;  -50.867;    0.000;7395.79977
 615.74; 7330.467;  -31.867;    0.000;7362.33346
 616.01; 7167.067;  -82.267;    0.000;7249.33356
 616.28; 7143.867;  -25.533;    0.000;7169.40003
 616.56; 6869.867;  -50.467;    0.000;6920.33337
 616.83; 6830.200;  -22.933;    0.000;6853.13353
 617.10; 6770.067;  -60.533;    0.000;6830.60023
 617.37; 6731.667;  -40.933;    0.000;6772.59984
 617.65; 6813.533;  -53.933;    0.000;6867.46654
 617.92; 6857.333;  -18.867;    0.000;6876.20016
 618.19; 6772.667;  -65.933;    0.000;6838.59984
 618.47; 6736.733;  -38.800;    0.000;6775.53340
 618.74; 6754.733;  -72.067;    0.000;6826.80006
 619.01; 6695.400;  -46.133;    0.000;6741.53324
 619.28; 6648.067;  -51.267;    0.000;6699.33356
 619.56; 6595.200;  -42.733;    0.000;6637.93353
 619.83; 6592.667;  -46.200;    0.000;6638.86650
 620.10; 6552.467;  -19.400;    0.000;6571.86680
 620.38; 6474.133;  -58.933;    0.000;6533.06664
 620.65; 6505.000;  -45.333;    0.000;6550.33333
 620.92; 6408.333;  -58.867;    0.000;6467.20016
 621.19; 6412.733;  -33.667;    0.000;6446.40007
 621.47; 6302.467;  -57.333;    0.000;6359.80013
 621.74; 6404.933;  -37.000;    0.000;6441.93311
 622.01; 6431.200;  -58.933;    0.000;6490.13353
 622.28; 6446.667;  -46.800;    0.000;6493.46650
 622.56; 6419.400;  -46.667;    0.000;6466.06657
 622.83; 6283.000;  -41.067;    0.000;6324.06667
 623.10; 6396.200;  -66.400;    0.000;6462.60020
 623.38; 6322.067;  -40.467;    0.000;6362.53356
 623.65; 6342.267;  -37.600;    0.000;6379.86660
 623.92; 6298.067;  -40.333;    0.000;6338.40023
 624.19; 6247.267;  -71.333;    0.000;6318.59994
 624.46; 6267.867;  -29.133;    0.000;6297.00003
 624.74; 6088.333;  -48.867;    0.000;6137.20016
 625.01; 6218.867;  -27.933;    0.000;6246.80003
 625.28; 6134.933;  -59.200;    0.000;6194.13311
 625.55; 6159.800;  -34.667;    0.000;6194.46647
 625.83; 6033.800;  -46.267;    0.000;6080.06647
 626.10; 6089.333;  -31.733;    0.000;6121.06683
 626.37; 5916.000;  -56.000;    0.000;5972.00000
 626.64; 5995.267;  -52.067;    0.000;6047.33327
 626.92; 5992.400;  -47.000;    0.000;6039.39990
 627.19; 5926.600;  -42.067;    0.000;5968.66676
 627.46; 5928.400;  -47.800;    0.000;5976.19990
 627.73; 5949.933;  -43.467;    0.000;5993.39977
 628.00; 5880.200;  -78.000;    0.000;5958.20020
 628.28; 5796.067;  -40.933;    0.000;5837.00023
 628.55; 5822.467;  -58.933;    0.000;5881.40013
 628.82; 5766.600;  -37.867;    0.000;5804.46676
 629.09; 5806.333;  -66.733;    0.000;5873.06683
 629.36; 5754.667;  -41.667;    0.000;5796.33317
 629.64; 5689.267;  -46.600;    0.000;5735.86660
 629.91; 5609.733;  -41.667;    0.000;5651.40007
 630.18; 5729.467;  -49.067;    0.000;5778.53346
 630.45; 5653.600;  -44.067;    0.000;5697.66676
 630.72; 5489.333;  -63.267;    0.000;5552.60016
 631.00; 5557.733;  -53.400;    0.000;5611.13340
 631.27; 5577.733;  -51.600;    0.000;5629.33340
 631.54; 5538.800;  -37.400;    0.000;5576.19981
 631.81; 5542.800;  -57.467;    0.000;5600.26647
 632.08; 5473.467;  -32.533;    0.000;5506.00013
 632.35; 5492.733;  -38.200;    0.000;5530.93340
 632.63; 5372.667;  -45.533;    0.000;5418.19984
 632.90; 5366.400;  -69.600;    0.000;5435.99990
 633.17; 5383.267;  -41.933;    0.000;5425.19994
 633.44; 5387.933;  -71.667;    0.000;5459.59977
 633.71; 5339.000;  -41.933;    0.000;5380.93333
 633.98; 5313.733;  -44.400;    0.000;5358.13340
 634.25; 5291.133;  -54.333;    0.000;5345.46663
 634.53; 5261.733;  -51.267;    0.000;5313.00006
 634.80; 5332.800;  -46.000;    0.000;5378.79980
 635.07; 5249.600;  -57.467;    0.000;5307.06676
 635.34; 5330.867;  -22.200;    0.000;5353.06670
 635.61; 5245.600;  -52.933;    0.000;5298.53343
 635.88; 5218.600;  -29.600;    0.000;5248.20010
 636.15; 5247.733;  -57.867;    0.000;5305.60006
 636.43; 5319.000;  -30.933;    0.000;5349.93333
 636.70; 5342.933;  -63.000;    0.000;5405.93311
 636.97; 5334.667;  -22.200;    0.000;5356.86650
 637.24; 5182.400;  -53.333;    0.000;5235.73323
 637.51; 5146.400;  -17.200;    0.000;5163.59990
 637.78; 5039.733;  -59.733;    0.000;5099.46673
 638.05; 4978.933;  -43.067;    0.000;5021.99977
 638.32; 5025.000;  -62.733;    0.000;5087.73333
 638.60; 5035.600;  -31.133;    0.000;5066.73343
 638.87; 4938.933;  -75.133;    0.000;5014.06644
 639.14; 4861.333;  -20.533;    0.000;4881.86683
 639.41; 4842.200;  -29.000;    0.000;4871.20020
 639.68; 4882.333;  -38.467;    0.000;4920.80016
 639.95; 4777.800;  -73.867;    0.000;4851.66647
 640.22; 4790.133;  -28.000;    0.000;4818.13330
 640.49; 4715.933;  -48.733;    0.000;4764.66644
 640.76; 4741.867;  -50.267;    0.000;4792.13337
 641.03; 4618.867;  -55.067;    0.000;4673.93336
 641.30; 4649.800;  -31.733;    0.000;4681.53314
 641.58; 4537.467;  -50.733;    0.000;4588.20013
 641.85; 4534.600;  -39.200;    0.000;4573.80010
 642.12; 4439.400;  -69.200;    0.000;4508.59990
 642.39; 4402.600;  -41.467;    0.000;4444.06676
 642.66; 4401.133;  -59.200;    0.000;4460.33330
 642.93; 4352.800;  -27.533;    0.000;4380.33314
 643.20; 4284.200;  -58.467;    0.000;4342.66686
 643.47; 4247.600;  -45.400;    0.000;4293.00010
 643.74; 4257.600;  -71.067;    0.000;4328.66676
 644.01; 4256.133;  -44.667;    0.000;4300.79997
 644.28; 4135.667;  -62.667;    0.000;4198.33317
 644.55; 4125.733;  -43.267;    0.000;4169.00006
 644.82; 4169.067;  -38.400;    0.000;4207.46690
 645.09; 4117.933;  -26.733;    0.000;4144.66644
 645.36; 4093.533;  -62.733;    0.000;4156.26678
 645.63; 4070.067;  -37.733;    0.000;4107.79998
 645.91; 3954.733;  -52.333;    0.000;4007.06673
 646.18; 4015.667;  -17.267;    0.000;4032.93341
 646.45; 3942.667;  -63.000;    0.000;4005.66675
 646.72; 3960.067;  -36.933;    0.000;3996.99998
 646.99; 3933.533;  -63.667;    0.000;3997.20012
 647.26; 3892.667;  -26.200;    0.000;3918.86675
 647.53; 3907.200;  -67.733;    0.000;3974.93328
 647.80; 3873.867;  -19.200;    0.000;3893.06670
 648.07; 3790.667;  -62.467;    0.000;3853.13342
 648.34; 3796.867;  -36.067;    0.000;3832.93336
 648.61; 3800.533;  -69.133;    0.000;3869.66678
 648.88; 3819.000;  -34.067;    0.000;3853.06667
 649.15; 3690.800;  -75.600;    0.000;3766.40005
 649.42; 3724.600;  -37.800;    0.000;3762.40010
 649.69; 3679.067;  -39.200;    0.000;3718.26665
 649.96; 3681.800;  -41.800;    0.000;3723.60005
 650.23; 3625.133;  -60.667;    0.000;3685.79997
 650.50; 3634.400;  -58.200;    0.000;3692.59990
 650.77; 3603.467;  -55.667;    0.000;3659.13322
 651.04; 3567.200;  -46.467;    0.000;3613.66662
 651.31; 3576.467;  -85.000;    0.000;3661.46655
 651.58; 3530.467;  -36.267;    0.000;3566.73322
 651.85; 3479.600;  -62.733;    0.000;3542.33343
 652.12; 3464.667;  -42.000;    0.000;3506.66675
 652.39; 3421.933;  -81.467;    0.000;3503.40002
 652.66; 3370.533;  -32.067;    0.000;3402.60011
 652.93; 3424.533;  -61.800;    0.000;3486.33345
 653.20; 3414.400;  -41.600;    0.000;3455.99990
 653.47; 3336.600;  -72.867;    0.000;3409.46677
 653.74; 3307.933;  -49.267;    0.000;3357.20002
 654.01; 3370.267;  -67.933;    0.000;3438.19994
 654.28; 3286.600;  -41.800;    0.000;3328.40010
 654.55; 3268.667;  -63.600;    0.000;3332.26675
 654.81; 3286.600;  -38.133;    0.000;3324.73343
 655.08; 3213.000;  -69.600;    0.000;3282.60000
 655.35; 3207.133;  -39.867;    0.000;3246.99997
 655.62; 3169.800;  -60.933;    0.000;3230.73338
 655.89; 3108.600;  -27.800;    0.000;3136.40010
 656.16; 3138.667;  -66.133;    0.000;3204.80008
 656.43; 3121.600;  -53.267;    0.000;3174.86676
 656.70; 3099.000;  -67.133;    0.000;3166.13333
 656.97; 3085.267;  -49.267;    0.000;3134.53327
 657.24; 3036.733;  -65.133;    0.000;3101.86673
 657.51; 3021.000;  -46.867;    0.000;3067.86666
 657.78; 3013.867;  -67.533;    0.000;3081.40003
 658.05; 2988.067;  -39.267;    0.000;3027.33332
 658.32; 2959.867;  -61.800;    0.000;3021.66670
 658.59; 2980.267;  -47.867;    0.000;3028.13327
 658.86; 2890.800;  -58.400;    0.000;2949.20005
 659.12; 2884.867;  -49.733;    0.000;2934.60003
 659.39; 2906.467;  -63.400;    0.000;2969.86655
 659.66; 2891.000;  -34.667;    0.000;2925.66667
 659.93; 2841.467;  -49.467;    0.000;2890.93322
 660.20; 2827.200;  -39.733;    0.000;2866.93328
 660.47; 2826.733;  -67.067;    0.000;2893.80006
 660.74; 2814.333;  -44.733;    0.000;2859.06659
 661.01; 2740.267;  -57.067;    0.000;2797.33327
 661.28; 2724.867;  -33.067;    0.000;2757.93336
 661.55; 2766.933;  -17.400;    0.000;2784.33335
 661.81; 2725.867;  -65.267;    0.000;2791.13337
 662.08; 2662.333;  -57.933;    0.000;2720.26659
 662.35; 2615.933;  -49.133;    0.000;2665.06668
 662.62; 2634.400;  -75.000;    0.000;2709.39990
 662.89; 2641.533;  -42.867;    0.000;2684.40011
 663.16; 2650.867;  -57.400;    0.000;2708.26670
 663.43; 2580.533;  -32.400;    0.000;2612.93345
 663.70; 2542.467;  -69.667;    0.000;2612.13322
 663.96; 2556.800;  -38.533;    0.000;2595.33338
 664.23; 2582.867;  -66.733;    0.000;2649.60003
 664.50; 2518.667;  -50.467;    0.000;2569.13342
 664.77; 2489.000;  -72.133;    0.000;2561.13333
 665.04; 2490.867;  -39.667;    0.000;2530.53337
 665.31; 2465.667;  -61.067;    0.000;2526.73341
 665.58; 2472.333;  -70.400;    0.000;2542.73325
 665.84; 2416.467;  -69.000;    0.000;2485.46655
 666.11; 2361.267;  -51.000;    0.000;2412.26660
 666.38; 2359.067;  -63.667;    0.000;2422.73332
 666.65; 2352.067;  -42.333;    0.000;2394.39998
 666.92; 2341.067;  -57.267;    0.000;2398.33332
 667.19; 2319.867;  -29.333;    0.000;2349.20003
 667.46; 2291.667;  -51.933;    0.000;2343.60008
 667.72; 2320.000;  -49.533;    0.000;2369.53333
 667.99; 2274.267;  -56.667;    0.000;2330.93327
 668.26; 2253.933;  -14.267;    0.000;2268.20002
 668.53; 2254.133;  -86.333;    0.000;2340.46664
 668.80; 2259.467;  -47.467;    0.000;2306.93322
 669.06; 2218.000;  -52.467;    0.000;2270.46667
 669.33; 2205.067;  -38.467;    0.000;2243.53332
 669.60; 2195.733;  -60.067;    0.000;2255.80006
 669.87; 2140.333;  -43.667;    0.000;2183.99992
 670.14; 2138.600;  -66.133;    0.000;2204.73343
 670.41; 2080.733;  -46.933;    0.000;2127.66673
 670.67; 2094.333;  -69.800;    0.000;2164.13326
 670.94; 2092.267;  -38.667;    0.000;2130.93327
 671.21; 2057.667;  -45.200;    0.000;2102.86675
 671.48; 2077.867;  -45.733;    0.000;2123.60003
 671.75; 2047.733;  -70.067;    0.000;2117.79994
 672.01; 1997.200;  -63.667;    0.000;2060.86662
 672.28; 2012.333;  -65.333;    0.000;2077.66671
 672.55; 2016.267;  -32.533;    0.000;2048.80006
 672.82; 1994.467;  -77.533;    0.000;2072.00001
 673.08; 1957.867;  -37.533;    0.000;1995.40003
 673.35; 1956.133;  -74.067;    0.000;2030.19997
 673.62; 1892.267;  -34.133;    0.000;1926.40006
 673.89; 1836.267;  -73.000;    0.000;1909.26672
 674.16; 1874.267;  -55.533;    0.000;1929.80006
 674.42; 1880.400;  -75.400;    0.000;1955.80003
 674.69; 1864.267;  -32.800;    0.000;1897.06672
 674.96; 1828.600;  -51.867;    0.000;1880.46664
 675.23; 1832.667;  -47.333;    0.000;1879.99996
 675.49; 1852.267;  -62.800;    0.000;1915.06672
 675.76; 1807.800;  -39.467;    0.000;1847.26672
 676.03; 1795.000;  -61.200;    0.000;1856.20000
 676.30; 1739.267;  -44.733;    0.000;1784.00006
 676.56; 1769.733;  -48.467;    0.000;1818.19994
 676.83; 1784.333;  -50.933;    0.000;1835.26671
 677.10; 1723.733;  -73.133;    0.000;1796.86661
 677.37; 1740.200;  -34.467;    0.000;1774.66662
 677.63; 1692.267;  -52.000;    0.000;1744.26672
 677.90; 1739.933;  -49.800;    0.000;1789.73335
 678.17; 1687.133;  -70.600;    0.000;1757.73330
 678.44; 1626.800;  -40.067;    0.000;1666.86671
 678.70; 1621.133;  -71.133;    0.000;1692.26663
 678.97; 1672.600;  -33.933;    0.000;1706.53331
 679.24; 1617.867;  -65.867;    0.000;1683.73337
 679.50; 1606.733;  -29.800;    0.000;1636.53328
 679.77; 1589.200;  -70.600;    0.000;1659.79995
 680.04; 1582.533;  -52.533;    0.000;1635.06666
 680.31; 1553.733;  -75.733;    0.000;1629.46661
 680.57; 1547.467;  -38.067;    0.000;1585.53334
 680.84; 1550.733;  -63.200;    0.000;1613.93328
 681.11; 1492.800;  -43.667;    0.000;1536.46672
 681.37; 1495.333;  -71.667;    0.000;1567.00004
 681.64; 1554.533;  -44.800;    0.000;1599.33332
 681.91; 1484.200;  -99.267;    0.000;1583.46662
 682.17; 1479.800;  -29.667;    0.000;1509.46671
 682.44; 1407.533;  -78.800;    0.000;1486.33333
 682.71; 1487.733;   -8.267;    0.000;1495.99994
 682.98; 1420.467;  -56.067;    0.000;1476.53334
 683.24; 1436.867;  -68.000;    0.000;1504.86670
 683.51; 1393.933;  -77.267;    0.000;1471.20002
 683.78; 1381.000;  -53.733;    0.000;1434.73333
 684.04; 1437.067;  -57.000;    0.000;1494.06665
 684.31; 1359.067;  -45.267;    0.000;1404.33332
 684.58; 1351.867;  -77.800;    0.000;1429.66670
 684.84; 1370.533;  -35.333;    0.000;1405.86666
 685.11; 1326.400;  -71.467;    0.000;1397.86669
 685.38; 1341.867;  -46.667;    0.000;1388.53337
 685.64; 1341.800;  -65.533;    0.000;1407.33338
 685.91; 1307.600;  -42.000;    0.000;1349.59998
 686.17; 1298.733;  -65.733;    0.000;1364.46661
 686.44; 1310.800;  -33.067;    0.000;1343.86671
 686.71; 1283.800;  -68.200;    0.000;1352.00005
 686.97; 1241.067;  -48.600;    0.000;1289.66665
 687.24; 1262.800;  -69.267;    0.000;1332.06672
 687.51; 1261.800;  -32.400;    0.000;1294.20005
 687.77; 1195.667;  -60.600;    0.000;1256.26662
 688.04; 1192.600;  -60.267;    0.000;1252.86664
 688.31; 1191.667;  -79.267;    0.000;1270.93330
 688.57; 1201.667;  -39.267;    0.000;1240.93329
 688.84; 1196.400;  -66.467;    0.000;1262.86669
 689.10; 1159.600;  -50.933;    0.000;1210.53331
 689.37; 1181.000;  -64.800;    0.000;1245.80000
 689.64; 1174.933;  -68.200;    0.000;1243.13335
 689.90; 1127.800;  -66.000;    0.000;1193.80005
 690.17; 1142.333;  -58.400;    0.000;1200.73338
 690.44; 1099.533;  -71.733;    0.000;1171.26665
 690.70; 1135.600;  -37.533;    0.000;1173.13331
 690.97; 1062.400;  -74.933;    0.000;1137.33336
 691.23; 1100.933;  -37.000;    0.000;1137.93335
 691.50; 1088.067;  -84.000;    0.000;1172.06665
 691.77; 1054.533;  -44.800;    0.000;1099.33332
 692.03; 1067.667;  -66.733;    0.000;1134.39996
 692.30; 1051.667;  -45.667;    0.000;1097.33329
 692.56; 1046.867;  -83.467;    0.000;1130.33337
 692.83; 1026.733;  -52.600;    0.000;1079.33327
 693.10;  969.067;  -57.200;    0.000;1026.26665
 693.36; 1010.133;  -46.600;    0.000;1056.73336
 693.63;  967.800;  -72.200;    0.000;1039.99998
 693.89;  999.933;  -46.467;    0.000;1046.40002
 694.16;  942.000;  -70.800;    0.000;1012.80000
 694.42;  957.733;  -51.733;    0.000;1009.46667
 694.69;  970.467;  -46.400;    0.000;1016.86668
 694.96;  929.267;  -16.200;    0.000;945.46666
 695.22;  936.400;  -59.467;    0.000;995.86669
 695.49;  931.733;  -14.400;    0.000;946.13334
 695.75;  893.800;  -83.267;    0.000;977.06666
 696.02;  933.867;  -47.333;    0.000;981.19997
 696.28;  895.667;  -67.733;    0.000;963.40002
 696.55;  910.600;  -48.333;    0.000;958.93331
 696.81;  851.667;  -65.800;    0.000;917.46669
 697.08;  874.600;  -51.800;    0.000;926.39997
 697.34;  839.933;  -69.067;    0.000;909.00002
 697.61;  856.533;  -51.867;    0.000;908.39999
 697.88;  798.600;  -51.267;    0.000;849.86664
 698.14;  823.600;  -50.067;    0.000;873.66664
 698.41;  823.800;  -69.800;    0.000;893.59999
 698.67;  806.133;  -53.200;    0.000;859.33336
 698.94;  754.733;  -78.000;    0.000;832.73334
 699.20;  801.133;  -33.533;    0.000;834.66669
 699.47;  755.467;  -58.067;    0.000;813.53334
 699.73;  798.600;  -36.600;    0.000;835.19997
 700.00;  765.733;  -87.200;    0.000;852.93333
 700.26;  751.533;  -51.267;    0.000;802.79999
 700.53;  710.667;  -54.000;    0.000;764.66669
 700.79;  719.133;  -43.667;    0.000;762.80003
 701.06;  689.867;  -68.600;    0.000;758.46664
 701.32;  708.200;  -47.333;    0.000;755.53334
 701.59;  683.467;  -73.267;    0.000;756.73335
 701.85;  703.733;  -41.733;    0.000;745.46667
 702.12;  651.267;  -78.333;    0.000;729.60000
 702.38;  656.933;  -32.933;    0.000;689.86668
 702.65;  629.800;  -60.267;    0.000;690.06665
 702.91;  674.267;  -39.533;    0.000;713.80000
 703.18;  628.800;  -72.267;    0.000;701.06666
 703.44;  613.000;  -59.400;    0.000;672.40000
 703.71;  595.067;  -78.067;    0.000;673.13332
 703.97;  614.733;  -63.000;    0.000;677.73334
 704.24;  585.267;  -81.733;    0.000;666.99999
 704.50;  557.000;  -53.000;    0.000;610.00000
 704.76;  580.867;  -72.933;    0.000;653.79997
 705.03;  570.667;  -47.467;    0.000;618.13335
 705.29;  531.867;  -57.333;    0.000;589.19997
 705.56;  529.200;  -64.867;    0.000;594.06668
 705.82;  542.733;  -62.267;    0.000;605.00000
 706.09;  576.867;  -19.200;    0.000;596.06664
 706.35;  504.733;  -70.933;    0.000;575.66667
 706.62;  529.800;  -27.533;    0.000;557.33332
 706.88;  476.200;  -76.733;    0.000;552.93334
 707.15;  504.200;  -45.467;    0.000;549.66668
 707.41;  474.333;  -83.400;    0.000;557.73335
 707.67;  467.200;  -39.000;    0.000;506.20001
 707.94;  499.867;  -55.733;    0.000;555.60000
 708.20;  443.467;  -79.133;    0.000;522.60001
 708.47;  422.867;  -55.000;    0.000;477.86667
 708.73;  466.067;  -54.133;    0.000;520.20002
 709.00;  442.133;  -83.267;    0.000;525.40000
 709.26;  406.133;  -37.933;    0.000;444.06667
 709.52;  418.800;  -57.533;    0.000;476.33332
 709.79;  408.200;  -59.533;    0.000;467.73335
 710.05;  376.400;  -61.200;    0.000;437.59999
 710.32;  427.533;  -32.800;    0.000;460.33332
 710.58;  379.333;  -76.533;    0.000;455.86668
 710.84;  381.800;  -55.600;    0.000;437.39999
 711.11;  395.800;  -69.200;    0.000;464.99998
 711.37;  377.267;  -34.467;    0.000;411.73333
 711.64;  356.333;  -77.267;    0.000;433.60001
 711.90;  378.867;  -41.333;    0.000;420.20000
 712.16;  348.333;  -66.000;    0.000;414.33334
 712.43;  363.467;  -43.000;    0.000;406.46667
 712.69;  336.533;  -65.867;    0.000;402.39999
 712.96;  332.133;  -61.733;    0.000;393.86666
 713.22;  316.000;  -75.400;    0.000;391.40000
 713.48;  320.600;  -50.533;    0.000;371.13334
 713.75;  342.867;  -75.000;    0.000;417.86667
 714.01;  320.867;  -66.000;    0.000;386.86667
 714.27;  327.000;  -55.000;    0.000;382.00000
 714.54;  318.333;  -49.200;    0.000;367.53334
 714.80;  286.133;  -67.933;    0.000;354.06667
 715.06;  308.200;  -24.533;    0.000;332.73335
 715.33;  308.067;  -94.267;    0.000;402.33335
 715.59;  290.200;  -52.000;    0.000;342.20001
 715.86;  262.133;  -70.000;    0.000;332.13333
 716.12;  303.800;  -54.200;    0.000;357.99999
 716.38;  292.600;  -69.733;    0.000;362.33334
 716.65;  290.333;  -62.133;    0.000;352.46668
 716.91;  284.933;  -70.467;    0.000;355.39999
 717.17;  269.267;  -35.133;    0.000;304.40000
 717.44;  274.800;  -70.000;    0.000;344.79999
 717.70;  261.733;  -36.800;    0.000;298.53334
 717.96;  271.467;  -76.533;    0.000;348.00001
 718.23;  273.667;  -42.267;    0.000;315.93332
 718.49;  270.867;  -62.200;    0.000;333.06667
 718.75;  270.600;  -44.267;    0.000;314.86667
 719.02;  276.533;  -81.800;    0.000;358.33333
 719.28;  259.800;  -57.067;    0.000;316.86665
 719.54;  241.933;  -62.267;    0.000;304.20000
 719.80;  282.333;  -34.067;    0.000;316.40001
 720.07;  260.000;  -79.467;    0.000;339.46667
 720.33;  277.200;  -33.933;    0.000;311.13335
 720.59;  265.267;  -72.800;    0.000;338.06667
 720.86;  243.467;  -56.733;    0.000;300.19999
 721.12;  264.533;  -59.000;    0.000;323.53333
 721.38;  268.733;  -44.200;    0.000;312.93334
 721.65;  250.333;  -54.600;    0.000;304.93333
 721.91;  261.467;  -42.867;    0.000;304.33334
 722.17;  251.733;  -80.067;    0.000;331.80000
 722.43;  232.200;  -53.467;    0.000;285.66666
 722.70;  262.733;  -77.800;    0.000;340.53334
 722.96;  261.200;  -31.400;    0.000;292.60001
 723.22;  243.533;  -75.800;    0.000;319.33334
 723.48;  245.733;  -69.267;    0.000;315.00001
 723.75;  225.133;  -77.867;    0.000;303.00000
 724.01;  264.333;  -57.200;    0.000;321.53334
 724.27;  236.200;  -85.733;    0.000;321.93333
 724.54;  263.933;  -42.933;    0.000;306.86665
 724.80;  222.733;  -84.133;    0.000;306.86667
 725.06;  240.400;  -67.000;    0.000;307.39999
 725.32;  220.533;  -62.600;    0.000;283.13334
 725.59;  241.533;  -44.267;    0.000;285.80001
 725.85;  252.867;  -65.933;    0.000;318.80000
 726.11;  236.067;  -51.933;    0.000;288.00000
 726.37;  242.533;  -55.467;    0.000;298.00001
 726.64;  260.000;  -28.867;    0.000;288.86667
 726.90;  239.467;  -64.467;    0.000;303.93333
 727.16;  232.667;  -46.333;    0.000;279.00000
 727.42;  226.067;  -82.467;    0.000;308.53333
 727.68;  229.733;  -42.133;    0.000;271.86667
 727.95;  227.133;  -67.133;    0.000;294.26666
 728.21;  230.400;  -40.067;    0.000;270.46666
 728.47;  241.933;  -75.933;    0.000;317.86667
 728.73;  239.067;  -40.667;    0.000;279.73333
 729.00;  237.867;  -70.800;    0.000;308.66667
 729.26;  237.267;  -52.667;    0.000;289.93333
 729.52;  230.867;  -75.333;    0.000;306.20000
 729.78;  229.333;  -61.800;    0.000;291.13333
 730.04;  205.800;  -63.600;    0.000;269.40000
 730.31;  197.067;  -63.733;    0.000;260.80000
 730.57;  201.467;  -83.400;    0.000;284.86666
 730.83;  214.867;  -46.200;    0.000;261.06667
 731.09;  226.067;  -65.600;    0.000;291.66666
 731.35;  188.533;  -49.733;    0.000;238.26667
 731.62;  192.600;  -94.467;    0.000;287.06667
 731.88;  229.400;  -43.200;    0.000;272.59999
 732.14;  206.067;  -83.133;    0.000;289.20000
 732.40;  234.067;  -46.400;    0.000;280.46667
 732.66;  194.333;  -70.733;    0.000;265.06666
 732.92;  212.800;  -67.800;    0.000;280.60001
 733.19;  226.867;  -76.867;    0.000;303.73334
 733.45;  195.867;  -55.400;    0.000;251.26667
 733.71;  189.267;  -62.867;    0.000;252.13333
 733.97;  237.933;  -10.400;    0.000;248.33333
 734.23;  203.267;  -73.067;    0.000;276.33333
 734.49;  189.933;  -50.333;    0.000;240.26667
 734.76;  183.867;  -78.133;    0.000;262.00000
 735.02;  214.267;  -67.667;    0.000;281.93333
 735.28;  206.733;  -56.200;    0.000;262.93334
 735.54;  179.867;  -52.733;    0.000;232.60000
 735.80;  179.867;  -84.200;    0.000;264.06667
 736.06;  198.867;  -54.933;    0.000;253.80000
 736.32;  185.067;  -85.800;    0.000;270.86667
 736.59;  168.133;  -42.067;    0.000;210.20000
 736.85;  158.467;  -84.067;    0.000;242.53333
 737.11;  192.000;  -60.200;    0.000;252.20000
 737.37;  187.733;  -69.933;    0.000;257.66667
 737.63;  201.067;  -53.200;    0.000;254.26667
 737.89;  166.467;  -72.533;    0.000;238.99999
 738.15;  192.533;  -32.467;    0.000;225.00001
 738.41;  157.333;  -74.000;    0.000;231.33333
 738.67;  163.400;  -64.133;    0.000;227.53333
 738.94;  160.667;  -86.267;    0.000;246.93334
 739.20;  157.133;  -49.467;    0.000;206.60000
 739.46;  177.933;  -64.600;    0.000;242.53333
 739.72;  143.467;  -63.000;    0.000;206.46666
 739.98;  143.400;  -72.000;    0.000;215.39999
 740.24;  183.467;  -52.800;    0.000;236.26666
 740.50;  166.867;  -59.800;    0.000;226.66667
 740.76;  167.267;  -37.800;    0.000;205.06666
 741.02;  147.333;  -84.867;    0.000;232.20000
 741.28;  162.133;  -52.600;    0.000;214.73333
 741.54;  126.133;  -74.200;    0.000;200.33333
 741.81;  161.333;  -47.133;    0.000;208.46666
 742.07;  134.800;  -92.600;    0.000;227.40000
 742.33;  168.133;  -28.800;    0.000;196.93333
 742.59;  133.867;  -60.000;    0.000;193.86667
 742.85;  145.067;  -54.400;    0.000;199.46667
 743.11;  122.267;  -97.533;    0.000;219.80000
 743.37;  136.600;  -56.200;    0.000;192.80001
 743.63;  130.867;  -82.133;    0.000;213.00000
 743.89;  129.200;  -52.133;    0.000;181.33333
 744.15;  114.267;  -75.800;    0.000;190.06667
 744.41;  124.800;  -64.267;    0.000;189.06667
 744.67;  111.733;  -72.800;    0.000;184.53333
 744.93;  115.400;  -51.067;    0.000;166.46667
 745.19;  120.667;  -84.133;    0.000;204.80000
 745.45;  145.200;  -60.467;    0.000;205.66666
 745.71;  111.067;  -79.133;    0.000;190.20000
 745.97;  135.400;  -32.067;    0.000;167.46666
 746.23;   89.000;  -66.200;    0.000;155.20000
 746.49;  100.667;  -58.200;    0.000;158.86666
 746.75;  126.133;  -78.000;    0.000;204.13333
 747.02;  131.133;  -38.667;    0.000;169.80000
 747.28;  113.800;  -79.400;    0.000;193.20000
 747.54;  102.400;  -54.000;    0.000;156.40000
 747.80;  110.667;  -80.867;    0.000;191.53333
 748.06;  105.200;  -64.733;    0.000;169.93333
 748.32;   91.600;  -91.333;    0.000;182.93333
 748.58;   97.467;  -47.000;    0.000;144.46667
 748.84;  115.200;  -66.933;    0.000;182.13333
 749.10;  194.067;   19.133;    0.000;174.93333
 749.36;   83.533;  -76.067;    0.000;159.60000
 749.62;  108.000;  -47.133;    0.000;155.13334
 749.88;   90.200;  -73.133;    0.000;163.33333
 750.14;  100.867;  -50.800;    0.000;151.66667
 750.40;  104.400;  -75.667;    0.000;180.06667
 750.66;  103.933;  -40.333;    0.000;144.26667
 750.91;   75.867;  -67.400;    0.000;143.26667
 751.17;   89.067;  -46.467;    0.000;135.53333
 751.43;   78.467;  -98.267;    0.000;176.73334
 751.69;   76.600;  -32.333;    0.000;108.93333
 751.95;   77.533;  -65.000;    0.000;142.53333
 752.21;   84.933;  -53.733;    0.000;138.66667
 752.47;   70.867;  -68.400;    0.000;139.26667
 752.73;   84.000;  -46.200;    0.000;130.20000
 752.99;   59.667;  -87.933;    0.000;147.60000
 753.25;   53.467;  -47.200;    0.000;100.66667
 753.51;   79.267;  -61.467;    0.000;140.73334
 753.77;   89.800;  -58.400;    0.000;148.20000
 754.03;   58.000;  -64.600;    0.000;122.60000
 754.29;   64.533;  -71.867;    0.000;136.40000
 754.55;   66.000;  -67.867;    0.000;133.86667
 754.81;   59.800;  -62.600;    0.000;122.40000
 755.07;   68.067;  -70.067;    0.000;138.13333
 755.33;   83.867;  -67.800;    0.000;151.66667
 755.59;   57.733;  -78.600;    0.000;136.33333
 755.85;   44.533;  -42.200;    0.000;86.73333
 756.10;   58.533;  -72.867;    0.000;131.40000
 756.36;   50.267;  -65.067;    0.000;115.33333
 756.62;   39.800;  -77.333;    0.000;117.13334
 756.88;   63.600;  -60.667;    0.000;124.26667
 757.14;   43.200;  -73.600;    0.000;116.80000
 757.40;   59.133;  -35.200;    0.000;94.33334
 757.66;   45.667;  -69.267;    0.000;114.93334
 757.92;   44.333;  -54.667;    0.000;99.00000
 758.18;   29.867;  -74.267;    0.000;104.13334
 758.44;   65.800;  -59.867;    0.000;125.66667
 758.70;   43.800;  -54.533;    0.000;98.33333
 758.95;   31.800;  -41.200;    0.000;73.00000
 759.21;   36.067;  -79.067;    0.000;115.13333
 759.47;   31.467;  -45.267;    0.000;76.73333
 759.73;   18.267;  -75.867;    0.000;94.13334
 759.99;   49.000;  -56.133;    0.000;105.13334
 760.25;   19.133;  -65.400;    0.000;84.53333
 760.51;   29.400;  -54.400;    0.000;83.80000
 760.77;   31.000;  -88.400;    0.000;119.40000
 761.02;   57.333;  -63.000;    0.000;120.33333
 761.28;   29.667;  -80.200;    0.000;109.86666
 761.54;   42.067;  -57.867;    0.000;99.93333
 761.80;   21.467;  -95.533;    0.000;117.00000
 762.06;   37.200;  -43.667;    0.000;80.86667
 762.32;   31.533;  -81.467;    0.000;113.00000
 762.58;   23.067;  -80.600;    0.000;103.66667
 762.83;   28.400;  -64.733;    0.000;93.13333
 763.09;   33.467;  -42.133;    0.000;75.60000
 763.35;    4.467;  -77.067;    0.000;81.53333
 763.61;   53.133;  -65.200;    0.000;118.33333
 763.87;   42.867;  -58.733;    0.000;101.60000
 764.13;   39.067;  -51.133;    0.000;90.20000
 764.38;   35.733;  -80.067;    0.000;115.80000
 764.64;   19.267;  -65.867;    0.000;85.13334
 764.90;   28.667;  -92.067;    0.000;120.73333
 765.16;   25.267;  -39.667;    0.000;64.93333
 765.42;   29.933;  -72.200;    0.000;102.13333
 765.68;   14.533;  -67.200;    0.000;81.73333
 765.93;   -5.667;  -82.067;    0.000;76.40000
 766.19;   16.067;  -88.800;    0.000;104.86667
 766.45;   -2.533;  -82.333;    0.000;79.80000
 766.71;   15.400;  -53.200;    0.000;68.60000
 766.97;   12.133;  -74.000;    0.000;86.13333
 767.22;    4.933;  -57.067;    0.000;62.00000
 767.48;  -17.600;  -84.333;    0.000;66.73334
 767.74;   23.933;  -56.533;    0.000;80.46667
 768.00;    7.333;  -87.133;    0.000;94.46666
 768.26;   26.267;  -39.867;    0.000;66.13333
 768.51;   21.067;  -73.800;    0.000;94.86667
 768.77;   14.200;  -36.000;    0.000;50.20000
 769.03;   17.133;  -86.533;    0.000;103.66667
 769.29;   16.733;  -53.933;    0.000;70.66667
 769.54;    6.467;  -83.333;    0.000;89.80000
 769.80;   -2.067;  -68.467;    0.000;66.40000
 770.06;  -19.667;  -95.600;    0.000;75.93333
 770.32;   -2.933;  -57.000;    0.000;54.06667
 770.57;  -10.133;  -86.867;    0.000;76.73334
 770.83;   18.200;  -59.333;    0.000;77.53333
 771.09;    2.133;  -72.933;    0.000;75.06667
 771.35;    7.200;  -65.133;    0.000;72.33333
 771.61;    6.533;  -79.533;    0.000;86.06667
 771.86;   32.667;  -49.933;    0.000;82.60000
 772.12;  -14.667;  -88.000;    0.000;73.33333
 772.38;   24.800;  -55.933;    0.000;80.73333
 772.63;  -17.933;  -91.400;    0.000;73.46667
 772.89;   14.667;  -62.600;    0.000;77.26667
 773.15;  -11.133;  -82.533;    0.000;71.40000
 773.41;   11.533;  -79.067;    0.000;90.60000
 773.66;  -12.400; -102.533;    0.000;90.13333
 773.92;   13.600;  -47.133;    0.000;60.73334
 774.18;   24.733;  -76.400;    0.000;101.13334
 774.44;  -12.600;  -79.933;    0.000;67.33333
 774.69;   -0.467;  -76.467;    0.000;76.00000
 774.95;    8.867;  -55.467;    0.000;64.33333
 775.21;    8.933;  -58.600;    0.000;67.53333
 775.46;  -15.867;  -76.867;    0.000;61.00000
 775.72;    2.400;  -77.467;    0.000;79.86667
 775.98;    5.133;  -52.200;    0.000;57.33333
 776.24;  -14.333;  -69.800;    0.000;55.46667
 776.49;   -0.533;  -64.667;    0.000;64.13333
 776.75;   -6.133;  -89.200;    0.000;83.06666
 777.01;  -16.400;  -51.467;    0.000;35.06667
 777.26;   -4.467;  -71.067;    0.000;66.60000
 777.52;  -15.067;  -58.733;    0.000;43.66667
 777.78;    5.200;  -91.733;    0.000;96.93333
 778.03;    0.400;  -42.933;    0.000;43.33333
 778.29;  -16.867;  -82.733;    0.000;65.86666
 778.55;    3.333;  -49.800;    0.000;53.13333
 778.80;  -20.600;  -84.400;    0.000;63.80000
 779.06;   -4.533;  -57.667;    0.000;53.13333
 779.32;  -25.200;  -95.467;    0.000;70.26667
 779.57;   -4.067;  -49.133;    0.000;45.06667
 779.83;  -14.133;  -80.067;    0.000;65.93333
 780.09;  -18.067;  -63.267;    0.000;45.20000
 780.34;    5.133;  -78.467;    0.000;83.60000
 780.60;    2.933;  -43.867;    0.000;46.80000
 780.86;   -5.400;  -82.600;    0.000;77.20000
 781.11;  -13.267;  -54.000;    0.000;40.73333
 781.37;  -15.800;  -87.800;    0.000;72.00000
 781.63;    0.600;  -62.267;    0.000;62.86667
 781.88;  -27.800;  -94.600;    0.000;66.80000
 782.14;  -15.067;  -70.133;    0.000;55.06666
 782.39;  -23.800;  -88.133;    0.000;64.33333
 782.65;  -21.133;  -88.467;    0.000;67.33333
 782.91;  -10.467;  -82.867;    0.000;72.40000
 783.16;    7.200;  -49.533;    0.000;56.73333
 783.42;  -31.333;  -95.667;    0.000;64.33333
 783.67;  -21.000;  -63.333;    0.000;42.33333
 783.93;  -22.867;  -62.467;    0.000;39.60000
 784.19;  -16.133;  -61.400;    0.000;45.26667
 784.44;   -9.000;  -65.400;    0.000;56.40000
 784.70;  -23.933;  -54.267;    0.000;30.33333
 784.96;  -33.467;  -86.933;    0.000;53.46667
 785.21;  -16.533;  -72.867;    0.000;56.33334
 785.47;   -0.400;  -57.267;    0.000;56.86667
 785.72;   -9.133;  -44.867;    0.000;35.73333
 785.98;  -21.067;  -94.333;    0.000;73.26667
 786.23;  -21.333;  -65.133;    0.000;43.80000
 786.49;  -24.000;  -74.333;    0.000;50.33334
 786.75;  -24.400;  -49.133;    0.000;24.73334
 787.00;  -40.600;  -93.733;    0.000;53.13333
 787.26;  -28.933;  -60.600;    0.000;31.66667
 787.51;  -14.667;  -64.267;    0.000;49.60000
 787.77;  -17.667;  -53.800;    0.000;36.13333
 788.02;  -25.067;  -81.800;    0.000;56.73334
 788.28;  -33.867;  -71.467;    0.000;37.60000
 788.54;  -39.133;  -73.067;    0.000;33.93333
 788.79;  -30.600;  -61.800;    0.000;31.20000
 789.05;  -35.933;  -80.733;    0.000;44.80000
 789.30;  -25.733;  -54.067;    0.000;28.33333
 789.56;  -35.133;  -86.600;    0.000;51.46666
 789.81;  -12.533;  -56.800;    0.000;44.26667
 790.07;  -53.733; -102.667;    0.000;48.93333
 790.32;  -11.467;  -63.667;    0.000;52.20000
 790.58;  -45.867;  -67.333;    0.000;21.46667
 790.83;  -16.733;  -45.067;    0.000;28.33333
 791.09;  -38.200;  -83.733;    0.000;45.53333
 791.35;  -28.200;  -57.000;    0.000;28.80000
 791.60;  -46.933;  -68.867;    0.000;21.93333
 791.86;   -7.200;  -48.267;    0.000;41.06667
 792.11;  -34.733;  -87.933;    0.000;53.20000
 792.37;  -32.933;  -72.133;    0.000;39.20000
 792.62;  -27.467;  -67.800;    0.000;40.33334
 792.88;  -22.000;  -63.467;    0.000;41.46667
 793.13;  -21.600;  -62.800;    0.000;41.20000
 793.39;  -27.467;  -55.800;    0.000;28.33333
 793.64;  -58.267;  -70.333;    0.000;12.06667
 793.90;  -24.133;  -55.467;    0.000;31.33333
 794.15;  -16.667;  -76.800;    0.000;60.13334
 794.41;  -44.067;  -56.933;    0.000;12.86667
 794.66;  -43.400;  -84.933;    0.000;41.53333
 794.92;  -11.400;  -65.267;    0.000;53.86667
 795.17;  -18.133;  -90.200;    0.000;72.06666
 795.43;  -63.933;  -84.200;    0.000;20.26666
 795.68;   -7.600;  -80.933;    0.000;73.33333
 795.94;  -11.533;  -54.667;    0.000;43.13333
 796.19;  -45.333;  -73.800;    0.000;28.46667
 796.44;  -26.200;  -69.867;    0.000;43.66667
 796.70;  -46.333;  -89.200;    0.000;42.86666
 796.95;  -13.133;  -45.400;    0.000;32.26667
 797.21;  -24.200;  -71.867;    0.000;47.66667
 797.46;  -46.067;  -71.333;    0.000;25.26667
 797.72;  -35.200;  -96.733;    0.000;61.53333
 797.97;  -57.867;  -64.200;    0.000; 6.33333
 798.23;  -30.333;  -81.933;    0.000;51.60000
 798.48;  -21.400;  -61.400;    0.000;40.00000
 798.74;  -42.400;  -88.333;    0.000;45.93333
 798.99;  -42.067;  -63.533;    0.000;21.46667
 799.24;  -25.200;  -82.933;    0.000;57.73333
 799.50;  -17.333;  -50.000;    0.000;32.66667
 799.75;  -41.200;  -86.933;    0.000;45.73333
 800.01;  -40.333;  -54.467;    0.000;14.13334
 800.26;  -67.533;  -82.467;    0.000;14.93333
 800.52;  -29.533;  -56.067;    0.000;26.53333
 800.77;  -49.533;  -72.667;    0.000;23.13333
 801.02;  -47.467;  -69.933;    0.000;22.46667
 801.28;  -55.400;  -81.733;    0.000;26.33333
 801.53;  -28.067;  -37.267;    0.000; 9.20000
 801.79;  -43.933; -100.067;    0.000;56.13333
 802.04;  -33.000;  -38.667;    0.000; 5.66667
 802.29;  -35.467;  -72.867;    0.000;37.40000
 802.55;  -51.133;  -51.333;    0.000; 0.20000
 802.80;  -32.133;  -72.733;    0.000;40.59999
 803.06;  -36.000;  -52.400;    0.000;16.40000
 803.31;  -41.000;  -88.200;    0.000;47.20000
 803.56;  -36.200;  -65.667;    0.000;29.46666
 803.82;  -28.800;  -66.533;    0.000;37.73333
 804.07;  -41.800;  -72.800;    0.000;31.00000
 804.32;  -53.867;  -71.533;    0.000;17.66667
 804.58;  -43.333;  -63.867;    0.000;20.53333
 804.83;  -47.133;  -83.867;    0.000;36.73333
 805.09;  -48.133;  -67.400;    0.000;19.26667
 805.34;  -46.200;  -80.267;    0.000;34.06667
 805.59;  -37.933;  -64.467;    0.000;26.53333
 805.85;  -70.200;  -92.267;    0.000;22.06667
 806.10;  -54.733;  -48.733;    0.000;-6.00000
 806.35;  -37.867;  -70.267;    0.000;32.40001
 806.61;  -46.733;  -53.067;    0.000; 6.33333
 806.86;  -60.533;  -91.600;    0.000;31.06667
 807.11;  -48.533;  -66.467;    0.000;17.93333
 807.37;  -38.333;  -62.600;    0.000;24.26667
 807.62;  -36.400;  -53.467;    0.000;17.06667
 807.87;  -43.267;  -81.933;    0.000;38.66667
 808.13;  -51.600;  -67.267;    0.000;15.66667
 808.38;  -50.733;  -85.467;    0.000;34.73333
 808.63;  -31.733;  -65.133;    0.000;33.40000
 808.89;  -47.200;  -86.133;    0.000;38.93333
 809.14;  -36.200;  -60.533;    0.000;24.33333
 809.39;  -57.733;  -71.800;    0.000;14.06667
 809.65;  -71.467;  -54.200;    0.000;-17.26667
 809.90;  -47.133;  -97.800;    0.000;50.66667
 810.15;  -48.800;  -59.600;    0.000;10.80000
 810.41;  -47.067;  -91.133;    0.000;44.06667
 810.66;  -42.667;  -75.200;    0.000;32.53333
 810.91;  -48.867;  -77.000;    0.000;28.13334
 811.16;  -53.733;  -56.867;    0.000; 3.13333
 811.42;  -43.667;  -87.067;    0.000;43.40000
 811.67;  -48.000;  -71.933;    0.000;23.93333
 811.92;  -43.800;  -98.000;    0.000;54.20000
 812.18;  -23.867;  -60.533;    0.000;36.66667
 812.43;  -49.800;  -80.267;    0.000;30.46667
 812.68;  -26.933;  -54.600;    0.000;27.66667
 812.93;  -77.067;  -92.933;    0.000;15.86667
 813.19;  -31.733;  -42.800;    0.000;11.06667
 813.44;  -61.133;  -83.400;    0.000;22.26667
 813.69;  -37.400;  -44.800;    0.000; 7.40000
 813.95;  -47.667;  -87.800;    0.000;40.13334
 814.20;  -20.600;  -63.200;    0.000;42.60000
 814.45;  -55.200;  -97.733;    0.000;42.53333
 814.70;  -28.800;  -75.600;    0.000;46.80000
 814.96;  -44.400;  -79.000;    0.000;34.60000
 815.21;  -59.067;  -62.733;    0.000; 3.66667
 815.46;  -60.533; -105.733;    0.000;45.20000
 815.71;  -53.867;  -66.200;    0.000;12.33333
 815.96;  -45.467;  -79.400;    0.000;33.93333
 816.22;  -56.333;  -66.733;    0.000;10.40000
 816.47;  -64.067;  -93.867;    0.000;29.80000
 816.72;  -46.933;  -48.400;    0.000; 1.46667
 816.97;  -47.667;  -71.000;    0.000;23.33333
 817.23;  -49.800;  -58.267;    0.000; 8.46667
 817.48;  -38.067;  -88.667;    0.000;50.60000
 817.73;  -45.400;  -74.400;    0.000;29.00000
 817.98;  -45.133;  -93.200;    0.000;48.06666
 818.23;  -56.333;  -60.733;    0.000; 4.40000
 818.49;  -51.333;  -63.933;    0.000;12.60000
 818.74;  -34.733;  -54.400;    0.000;19.66667
 818.99;  -58.200;  -81.667;    0.000;23.46666
 819.24;  -45.133;  -42.933;    0.000;-2.20000
 819.50;  -67.533;  -87.600;    0.000;20.06667
 819.75;  -38.133;  -58.333;    0.000;20.20000
 820.00;  -20.600;  -70.467;    0.000;49.86667
 820.25;  -38.600;  -53.933;    0.000;15.33334
 820.50;  -39.400;  -84.933;    0.000;45.53333
 820.75;  -31.333;  -62.600;    0.000;31.26666
 821.01;  -55.733;  -79.267;    0.000;23.53334
 821.26;  -56.800;  -58.400;    0.000; 1.60000
 821.51;  -64.267;  -73.800;    0.000; 9.53333
 821.76;  -40.867;  -74.333;    0.000;33.46667
 822.01;  -46.733;  -82.933;    0.000;36.20000
 822.26;  -45.200;  -55.667;    0.000;10.46667
 822.52;  -35.467;  -79.667;    0.000;44.20000
 822.77;  -51.867;  -61.067;    0.000; 9.20000
 823.02;  -47.933;  -92.867;    0.000;44.93333
 823.27;  -48.667;  -59.933;    0.000;11.26667
 823.52;  -56.267;  -79.000;    0.000;22.73333
 823.77;  -63.600;  -67.667;    0.000; 4.06667
 824.03;  -57.133;  -71.867;    0.000;14.73333
 824.28;  -40.267;  -62.267;    0.000;22.00000
 824.53;  -48.667;  -84.333;    0.000;35.66667
 824.78;  -30.200;  -47.000;    0.000;16.80000
 825.03;  -67.333;  -90.467;    0.000;23.13333
 825.28;  -43.933;  -57.467;    0.000;13.53333
 825.53;  -62.800;  -74.800;    0.000;12.00000
 825.78;  -46.800;  -49.267;    0.000; 2.46667
 826.04;  -36.733;  -92.667;    0.000;55.93333
 826.29;  -56.867;  -72.533;    0.000;15.66667
 826.54;  -80.067;  -85.267;    0.000; 5.20000
 826.79;  -55.000;  -51.200;    0.000;-3.80000
 827.04;  -56.533;  -92.867;    0.000;36.33334
 827.29;  -44.467;  -64.000;    0.000;19.53333
 827.54;  -62.733;  -77.267;    0.000;14.53334
 827.79;  -61.600;  -57.867;    0.000;-3.73333
 828.04;  -35.133;  -75.267;    0.000;40.13334
 828.29;  -60.600;  -67.067;    0.000; 6.46667
 828.55;  -56.200;  -74.600;    0.000;18.40000
 828.80;  -30.000;  -60.267;    0.000;30.26667
 829.05;  -56.533;  -85.333;    0.000;28.80000
 829.30;  -50.067;  -82.533;    0.000;32.46667
 829.55;  -60.200;  -78.133;    0.000;17.93333
 829.80;  -58.533;  -63.133;    0.000; 4.60000
 830.05;  -50.267;  -73.800;    0.000;23.53334
 830.30;  -73.200;  -69.533;    0.000;-3.66666
 830.55;  -52.267;  -91.600;    0.000;39.33333
 830.80;  -62.733;  -68.467;    0.000; 5.73333
 831.05;  -55.000;  -75.200;    0.000;20.20000
 831.30;  -40.267;  -54.933;    0.000;14.66667
 831.55;  -58.533; -110.333;    0.000;51.80000
 831.80;  -44.333;  -70.267;    0.000;25.93334
 832.05;  -59.400;  -75.533;    0.000;16.13333
 832.30;  -34.000;  -55.333;    0.000;21.33333
 832.56;  -57.667;  -75.467;    0.000;17.80000
 832.81;  -56.533;  -69.667;    0.000;13.13333
 833.06;  -64.400;  -88.267;    0.000;23.86667
 833.31;  -69.067;  -78.200;    0.000; 9.13333
 833.56;  -57.333;  -74.533;    0.000;17.20000
 833.81;  -63.067;  -47.133;    0.000;-15.93333
 834.06;  -64.733;  -83.600;    0.000;18.86667
 834.31;  -35.400;  -79.133;    0.000;43.73333
 834.56;  -39.000;  -79.933;    0.000;40.93333
 834.81;  -31.867;  -72.867;    0.000;41.00000
 835.06;  -61.133;  -79.533;    0.000;18.40000
 835.31;  -68.400;  -51.000;    0.000;-17.40000
 835.56;  -29.800;  -71.333;    0.000;41.53334
 835.81;  -45.267;  -72.333;    0.000;27.06667
 836.06;  -32.267;  -64.800;    0.000;32.53334
 836.31;  -66.600;  -71.200;    0.000; 4.60000
 836.56;  -57.400;  -78.933;    0.000;21.53333
 836.81;  -58.667;  -74.400;    0.000;15.73333
 837.06;  -44.467;  -71.667;    0.000;27.20000
 837.31;  -60.800;  -79.200;    0.000;18.40000
 837.56;  -59.933;  -93.733;    0.000;33.80000
 837.81;  -42.133;  -52.467;    0.000;10.33333
 838.06;  -70.267;  -77.267;    0.000; 7.00000
 838.31;  -54.467;  -74.000;    0.000;19.53333
 838.56;  -83.067;  -79.400;    0.000;-3.66666
 838.80;  -46.467;  -73.933;    0.000;27.46667
 839.05;  -67.200;  -90.533;    0.000;23.33334
 839.30;  -65.733;  -48.067;    0.000;-17.66666
 839.55;  -65.533;  -95.733;    0.000;30.20000
 839.80;  -61.267;  -63.400;    0.000; 2.13334
 840.05;  -64.200;  -93.000;    0.000;28.80000
 840.30;  -30.867;  -57.667;    0.000;26.80000
 840.55;  -61.733;  -63.267;    0.000; 1.53333
 840.80;  -36.200;  -42.000;    0.000; 5.80000
 841.05;  -52.467;  -77.867;    0.000;25.40000
 841.30;  -72.400;  -67.600;    0.000;-4.80000
 841.55;  -62.267;  -83.733;    0.000;21.46666
 841.80;  -50.533;  -62.000;    0.000;11.46667
 842.05;  -75.733;  -79.600;    0.000; 3.86667
 842.30;  -51.733;  -76.667;    0.000;24.93333
 842.55;  -57.733;  -92.667;    0.000;34.93333
 842.79;  -62.467;  -82.400;    0.000;19.93333
 843.04;  -67.133;  -71.800;    0.000; 4.66667
 843.29;  -52.867;  -50.000;    0.000;-2.86666
 843.54;  -84.000;  -64.533;    0.000;-19.46667
 843.79;  -46.400;  -57.200;    0.000;10.80000
 844.04;  -72.000;  -79.400;    0.000; 7.40000
 844.29;  -54.200;  -84.400;    0.000;30.20000
 844.54;  -65.400;  -86.467;    0.000;21.06667
 844.79;  -50.800;  -65.200;    0.000;14.40000
 845.04;  -53.733;  -84.133;    0.000;30.40000
 845.28;  -41.267;  -56.067;    0.000;14.80000
 845.53;  -74.200;  -90.333;    0.000;16.13334
 845.78;  -28.667;  -51.400;    0.000;22.73334
 846.03;  -88.333;  -73.267;    0.000;-15.06667
 846.28;  -71.333;  -73.400;    0.000; 2.06667
 846.53;  -59.600;  -82.133;    0.000;22.53333
 846.78;  -63.333;  -74.067;    0.000;10.73333
 847.02;  -51.533;  -86.600;    0.000;35.06667
 847.27;  -54.467;  -82.133;    0.000;27.66666
 847.52;  -53.200;  -97.400;    0.000;44.20000
 847.77;  -67.200;  -68.800;    0.000; 1.60001
 848.02;  -60.267;  -69.667;    0.000; 9.40000
 848.27;  -70.867;  -54.133;    0.000;-16.73333
 848.52;  -69.667;  -99.333;    0.000;29.66667
 848.76;  -69.400;  -66.533;    0.000;-2.86667
 849.01;  -61.800;  -64.733;    0.000; 2.93333
 849.26;  -69.667;  -52.333;    0.000;-17.33333
 849.51;  -61.000;  -70.533;    0.000; 9.53333
 849.76;  -66.733;  -62.133;    0.000;-4.59999
 850.01;  -78.200;  -87.867;    0.000; 9.66667
 850.25;  -56.933;  -73.133;    0.000;16.20000
 850.50;  -62.600;  -75.800;    0.000;13.20000
 850.75;  -47.600;  -51.600;    0.000; 4.00000
 851.00;  -69.267;  -88.267;    0.000;19.00000
 851.25;  -59.067;  -46.733;    0.000;-12.33333
 851.49;  -53.467;  -67.667;    0.000;14.20000
 851.74;  -64.600;  -72.133;    0.000; 7.53333
 851.99;  -58.933;  -96.133;    0.000;37.20000
 852.24;  -69.000;  -64.267;    0.000;-4.73333
 852.49;  -68.600;  -96.067;    0.000;27.46667
 852.73;  -56.733;  -64.533;    0.000; 7.80000
 852.98;  -66.933;  -86.200;    0.000;19.26666
 853.23;  -49.400;  -65.800;    0.000;16.40000
 853.48;  -61.667;  -79.333;    0.000;17.66667
 853.73;  -54.467;  -69.400;    0.000;14.93333
 853.97;  -60.867;  -94.600;    0.000;33.73333
 854.22;  -73.533;  -63.267;    0.000;-10.26667
 854.47;  -86.400;  -88.400;    0.000; 2.00000
 854.72;  -50.667;  -62.067;    0.000;11.40000
 854.96;  -74.133;  -87.933;    0.000;13.80000
 855.21;  -53.733;  -53.000;    0.000;-0.73333
 855.46;  -68.400;  -77.467;    0.000; 9.06667
 855.71;  -71.667;  -73.400;    0.000; 1.73334
 855.95;  -54.133;  -70.933;    0.000;16.80000
 856.20;  -65.000;  -64.933;    0.000;-0.06667
 856.45;  -68.333; -101.067;    0.000;32.73333
 856.70;  -64.600;  -62.800;    0.000;-1.80000
 856.94;  -60.000;  -78.000;    0.000;18.00000
 857.19;  -55.867;  -57.333;    0.000; 1.46667
 857.44;  -64.267;  -82.800;    0.000;18.53333
 857.69;  -68.867;  -51.000;    0.000;-17.86667
 857.93;  -60.133;  -75.467;    0.000;15.33333
 858.18;  -48.600;  -34.533;    0.000;-14.06667
 858.43;  -74.200;  -67.200;    0.000;-7.00000
 858.67;  -61.867;  -46.933;    0.000;-14.93333
 858.92;  -56.267;  -79.133;    0.000;22.86666
 859.17;  -45.933;  -42.267;    0.000;-3.66667
 859.42;  -71.467;  -91.933;    0.000;20.46667
 859.66;  -78.000;  -51.533;    0.000;-26.46667
 859.91;  -76.067;  -84.800;    0.000; 8.73334
 860.16;  -72.600;  -74.133;    0.000; 1.53333
 860.40;  -74.200;  -88.733;    0.000;14.53333
 860.65;  -63.467;  -81.267;    0.000;17.80000
 860.90;  -78.800; -117.600;    0.000;38.80000
 861.14;  -61.267;  -56.400;    0.000;-4.86666
 861.39;  -75.600;  -79.200;    0.000; 3.60000
 861.64;  -56.467;  -63.067;    0.000; 6.60000
 861.88;  -97.333;  -93.467;    0.000;-3.86667
 862.13;  -58.333;  -59.067;    0.000; 0.73333
 862.38;  -71.133; -103.800;    0.000;32.66667
 862.62;  -72.200;  -56.667;    0.000;-15.53333
 862.87;  -61.800;  -77.133;    0.000;15.33333
 863.12;  -68.467;  -67.000;    0.000;-1.46667
 863.36;  -70.000;  -85.933;    0.000;15.93333
 863.61;  -56.067;  -57.200;    0.000; 1.13334
 863.86;  -81.067;  -74.667;    0.000;-6.40000
 864.10;  -58.800;  -62.933;    0.000; 4.13334
 864.35;  -63.800;  -90.400;    0.000;26.60000
 864.60;  -58.533;  -64.800;    0.000; 6.26667
 864.84;  -61.067;  -82.533;    0.000;21.46667
 865.09;  -63.200;  -54.667;    0.000;-8.53333
 865.33;  -59.467;  -84.733;    0.000;25.26666
 865.58;  -57.933;  -54.333;    0.000;-3.60000
 865.83;  -62.600;  -81.933;    0.000;19.33334
 866.07;  -81.933;  -64.467;    0.000;-17.46667
 866.32;  -47.533;  -61.800;    0.000;14.26667
 866.57;  -47.733;  -52.067;    0.000; 4.33333
 866.81;  -85.200;  -85.200;    0.000; 0.00000
 867.06;  -37.400;  -78.133;    0.000;40.73333
 867.30;  -56.067;  -83.267;    0.000;27.20000
 867.55;  -70.733;  -62.000;    0.000;-8.73333
 867.80;  -70.800;  -73.067;    0.000; 2.26666
 868.04;  -47.267;  -66.133;    0.000;18.86666
 868.29;  -58.000;  -87.067;    0.000;29.06667
 868.53;  -41.067;  -42.000;    0.000; 0.93333
 868.78;  -73.400;  -99.200;    0.000;25.80000
 869.03;  -58.133;  -67.400;    0.000; 9.26667
 869.27;  -60.600;  -58.800;    0.000;-1.80000
 869.52;  -54.667;  -67.800;    0.000;13.13334
 869.76;  -77.733;  -80.200;    0.000; 2.46667
 870.01;  -54.933;  -62.533;    0.000; 7.60000
 870.25;  -71.067;  -81.933;    0.000;10.86667
 870.50;  -64.067;  -67.467;    0.000; 3.40000
 870.75;  -73.867;  -69.067;    0.000;-4.80000
 870.99;  -68.067;  -52.467;    0.000;-15.60000
 871.24;  -79.933;  -73.467;    0.000;-6.46667
 871.48;  -58.067;  -48.933;    0.000;-9.13333
 871.73;  -60.667;  -74.467;    0.000;13.80000
 871.97;  -74.600;  -62.267;    0.000;-12.33333
 872.22;  -86.600;  -90.267;    0.000; 3.66667
 872.46;  -50.933;  -67.000;    0.000;16.06667
 872.71;  -70.200;  -82.600;    0.000;12.40000
 872.95;  -62.600;  -56.667;    0.000;-5.93333
 873.20;  -49.933;  -77.000;    0.000;27.06667
 873.44;  -53.467;  -74.333;    0.000;20.86667
 873.69;  -62.733;  -79.933;    0.000;17.20000
 873.94;  -60.133;  -39.067;    0.000;-21.06667
 874.18;  -60.933;  -95.400;    0.000;34.46667
 874.43;  -60.667;  -48.867;    0.000;-11.80000
 874.67;  -71.800;  -92.733;    0.000;20.93333
 874.92;  -70.867;  -45.267;    0.000;-25.60000
 875.16;  -53.333;  -77.267;    0.000;23.93334
 875.41;  -52.067;  -62.267;    0.000;10.20000
 875.65;  -68.400;  -77.533;    0.000; 9.13333
 875.90;  -64.200;  -48.467;    0.000;-15.73333
 876.14;  -78.000;  -91.267;    0.000;13.26667
 876.39;  -48.467;  -44.933;    0.000;-3.53333
 876.63;  -79.733;  -85.667;    0.000; 5.93333
 876.88;  -77.533;  -72.533;    0.000;-5.00000
 877.12;  -55.800;  -55.533;    0.000;-0.26667
 877.36;  -44.800;  -60.267;    0.000;15.46667
 877.61;  -74.267;  -95.533;    0.000;21.26666
 877.85;  -51.733;  -57.733;    0.000; 6.00000
 878.10;  -66.933;  -75.333;    0.000; 8.40000
 878.34;  -46.533;  -41.600;    0.000;-4.93333
 878.59;  -55.400;  -46.600;    0.000;-8.80000
 878.83;  -45.000;  -69.467;    0.000;24.46667
 879.08;  -66.533;  -51.467;    0.000;-15.06667
 879.32;  -81.000;  -47.400;    0.000;-33.60000
 879.57;  -41.467;  -67.667;    0.000;26.20000
 879.81;  -54.333;  -48.000;    0.000;-6.33333
 880.05;  -37.800;  -69.200;    0.000;31.40000
 880.30;  -47.800;  -58.000;    0.000;10.20000
 880.54;  -54.267;  -86.733;    0.000;32.46666
 880.79;  -51.733;  -61.000;    0.000; 9.26667
 881.03;  -63.400;  -91.933;    0.000;28.53333
 881.28;  -30.333;  -36.267;    0.000; 5.93333
 881.52;  -67.133;  -78.000;    0.000;10.86667
 881.76;  -37.133;  -62.867;    0.000;25.73333
 882.01;  -73.533;  -75.933;    0.000; 2.40000
 882.25;  -59.533;  -60.600;    0.000; 1.06667
 882.50;  -60.400;  -77.067;    0.000;16.66666
 882.74;  -56.267;  -38.600;    0.000;-17.66667
 882.98;  -54.067;  -72.800;    0.000;18.73334
 883.23;  -47.400;  -55.133;    0.000; 7.73333
 883.47;  -67.333;  -75.400;    0.000; 8.06667
 883.72;  -66.133;  -52.467;    0.000;-13.66666
 883.96;  -47.400;  -72.800;    0.000;25.40000
 884.20;  -49.533;  -52.400;    0.000; 2.86667
 884.45;  -40.000;  -66.200;    0.000;26.20000
 884.69;  -38.267;  -50.533;    0.000;12.26667
 884.94;  -47.000;  -54.533;    0.000; 7.53333
 885.18;  -53.267;  -44.400;    0.000;-8.86666
 885.42;  -47.600;  -83.333;    0.000;35.73334
 885.67;  -64.200;  -44.200;    0.000;-20.00000
 885.91;  -70.867;  -75.467;    0.000; 4.60000
 886.15;  -22.467;  -59.133;    0.000;36.66667
 886.40;  -59.600;  -52.800;    0.000;-6.80000
 886.64;  -42.467;  -47.667;    0.000; 5.20000
 886.88;  -72.333;  -53.333;    0.000;-19.00000
 887.13;  -32.533;  -38.400;    0.000; 5.86667
 887.37;  -59.200;  -81.600;    0.000;22.40000
 887.62;  -48.800;  -42.867;    0.000;-5.93333
 887.86;  -55.800;  -60.933;    0.000; 5.13334
 888.10;  -58.733;  -46.000;    0.000;-12.73333
 888.35;  -37.867;  -61.467;    0.000;23.60000
 888.59;  -39.533;  -58.200;    0.000;18.66667
 888.83;  -60.000;  -61.000;    0.000; 1.00000
 889.07;  -65.800;  -49.133;    0.000;-16.66667
 889.32;  -44.533;  -78.133;    0.000;33.60000
 889.56;  -36.333;  -22.467;    0.000;-13.86666
 889.80;  -40.400;  -57.267;    0.000;16.86666
 890.05;  -54.867;  -65.600;    0.000;10.73333
 890.29;  -68.533;  -52.200;    0.000;-16.33333
 890.53;  -51.800;  -46.200;    0.000;-5.60000
 890.78;  -64.667;  -86.867;    0.000;22.20000
 891.02;  -32.267;  -39.000;    0.000; 6.73333
 891.26;  -71.467;  -72.600;    0.000; 1.13333
 891.51;  -45.667;  -46.600;    0.000; 0.93333
 891.75;  -27.800;  -59.067;    0.000;31.26667
 891.99;  -52.800;  -36.467;    0.000;-16.33333
 892.23;  -56.933;  -54.133;    0.000;-2.80000
 892.48;  -12.000;  -42.267;    0.000;30.26667
 892.72;  -44.333;  -44.933;    0.000; 0.60000
 892.96;  -44.200;  -28.333;    0.000;-15.86667
 893.20;  -31.800;  -37.533;    0.000; 5.73333
 893.45;  -48.867;  -40.933;    0.000;-7.93333
 893.69;  -53.867;  -60.133;    0.000; 6.26667
 893.93;  -34.933;  -18.067;    0.000;-16.86667
 894.17;  -49.533;  -71.067;    0.000;21.53333
 894.42;  -25.267;  -30.067;    0.000; 4.80000
 894.66;  -35.667;  -54.267;    0.000;18.60000
 894.90;  -36.067;  -40.267;    0.000; 4.20000
 895.14;  -14.067;  -29.533;    0.000;15.46667
 895.39;  -18.733;  -48.267;    0.000;29.53333
 895.63;  -35.000;  -44.333;    0.000; 9.33333
 895.87;  -51.400;  -42.000;    0.000;-9.40000
 896.11;  -43.400;  -34.667;    0.000;-8.73333
 896.36;  -13.067;  -26.000;    0.000;12.93333
 896.60;  -43.933;  -37.800;    0.000;-6.13334
 896.84;  -16.067;  -17.333;    0.000; 1.26667
 897.08;  -44.467;  -43.867;    0.000;-0.60000
 897.32;   -6.400;  -13.067;    0.000; 6.66667
 897.57;  -18.333;  -42.800;    0.000;24.46667
 897.81;  -26.200;  -30.000;    0.000; 3.80000
 898.05;  -29.533;  -46.533;    0.000;17.00000
 898.29;   -7.400;  -11.667;    0.000; 4.26667
 898.53;   -4.867;  -24.000;    0.000;19.13333
 898.78;  -15.467;   -1.333;    0.000;-14.13333
 899.02;   -8.200;  -25.600;    0.000;17.40000
 899.26;   -3.133;   -2.400;    0.000;-0.73333
 899.50;   13.867;   15.933;    0.000;-2.06667
 899.74;   13.933;   13.400;    0.000; 0.53333
 899.99;    7.000;  -20.400;    0.000;27.40000
 900.23;   18.533;   12.400;    0.000; 6.13333
 900.47;   26.400;   -2.067;    0.000;28.46667
 900.71;   25.467;   37.067;    0.000;-11.60000
 900.95;   20.667;   21.200;    0.000;-0.53333
 901.19;   40.000;   43.800;    0.000;-3.80000
 901.44;   55.867;   44.733;    0.000;11.13333
 901.68;   72.867;   90.733;    0.000;-17.86666
 901.92;   63.733;   66.133;    0.000;-2.40000
 902.16;  101.467;   85.867;    0.000;15.60000
 902.40;  100.200;   91.933;    0.000; 8.26666
 902.64;  145.800;  139.933;    0.000; 5.86667
 902.88;  165.067;  136.067;    0.000;29.00000
 903.13;  200.667;  183.600;    0.000;17.06667

