point4
Integration time [ms]:  30.000
Averaging Nr. [scans]: 15
Smoothing Nr. [pixels]: 0
Data measured with spectrometer [name]: 1307077U2
Wave   ;Sample   ;Dark     ;Reference;Scope Corrected for Dark
[nm]   ;[counts] ;[counts] ;[counts] 

 350.80;   -9.400;   10.133;    0.000;-19.53333
 351.10;   -5.200;  -15.000;    0.000; 9.80000
 351.39;   12.933;   32.600;    0.000;-19.66667
 351.69;    2.333;  -19.200;    0.000;21.53333
 351.99;    7.800;  -12.200;    0.000;20.00000
 352.28;  -28.800;  -30.667;    0.000; 1.86667
 352.58;   19.533;   -7.133;    0.000;26.66667
 352.88;  -10.067;  -28.067;    0.000;18.00000
 353.17;   33.133;    3.600;    0.000;29.53334
 353.47;  -13.467;  -22.600;    0.000; 9.13333
 353.76;   18.600;  -20.000;    0.000;38.60000
 354.06;    6.667;   13.200;    0.000;-6.53333
 354.36;   13.733;    5.933;    0.000; 7.80000
 354.65;   45.000;    6.667;    0.000;38.33333
 354.95;   -4.667;   -7.667;    0.000; 3.00000
 355.24;   11.067;    5.400;    0.000; 5.66667
 355.54;    1.133;   -2.133;    0.000; 3.26667
 355.84;   15.800;  -11.533;    0.000;27.33333
 356.13;   33.200;   19.667;    0.000;13.53333
 356.43;  -17.267;  -18.400;    0.000; 1.13333
 356.72;   -3.067;  -15.000;    0.000;11.93333
 357.02;  -11.067;   -8.933;    0.000;-2.13333
 357.31;   17.267;   11.867;    0.000; 5.40000
 357.61;   -6.867;  -12.667;    0.000; 5.80000
 357.91;  -27.200;  -28.800;    0.000; 1.60000
 358.20;   -0.200;  -10.067;    0.000; 9.86667
 358.50;    1.933;   -5.533;    0.000; 7.46667
 358.79;   14.733;   -7.867;    0.000;22.60000
 359.09;   20.933;   -3.200;    0.000;24.13333
 359.38;   -8.600;    2.333;    0.000;-10.93333
 359.68;  -32.733;  -25.533;    0.000;-7.20000
 359.98;   -1.200;  -24.867;    0.000;23.66667
 360.27;    5.600;   10.533;    0.000;-4.93333
 360.57;   -1.467;  -11.000;    0.000; 9.53333
 360.86;   16.800;    0.467;    0.000;16.33333
 361.16;  -25.800;  -17.267;    0.000;-8.53333
 361.45;   -8.933;  -12.133;    0.000; 3.20000
 361.75;  -11.400;  -13.133;    0.000; 1.73333
 362.04;   35.867;   24.333;    0.000;11.53333
 362.34;  -26.667;  -16.467;    0.000;-10.20000
 362.64;   12.000;   -9.000;    0.000;21.00000
 362.93;   -4.733;   -3.133;    0.000;-1.60000
 363.23;   -3.000;  -18.333;    0.000;15.33333
 363.52;   -7.000;   -8.400;    0.000; 1.40000
 363.82;   -2.400;  -18.733;    0.000;16.33333
 364.11;    3.733;    1.067;    0.000; 2.66667
 364.41;  -12.533;  -12.867;    0.000; 0.33333
 364.70;  -19.267;   -7.333;    0.000;-11.93333
 365.00;   18.533;    8.667;    0.000; 9.86667
 365.29;  -10.933;   -7.533;    0.000;-3.40000
 365.59;  -10.467;  -25.600;    0.000;15.13333
 365.88;  -19.933;  -30.867;    0.000;10.93333
 366.18;    2.933;   -6.800;    0.000; 9.73333
 366.47;   -8.600;  -14.533;    0.000; 5.93333
 366.77;   -2.733;   -3.067;    0.000; 0.33333
 367.06;   -7.733;  -25.000;    0.000;17.26667
 367.36;   17.600;   14.200;    0.000; 3.40000
 367.65;  -12.933;   -8.800;    0.000;-4.13333
 367.95;  -11.867;  -15.733;    0.000; 3.86667
 368.24;  -12.667;  -12.867;    0.000; 0.20000
 368.54;  -10.467;  -14.200;    0.000; 3.73333
 368.83;    5.533;   -9.733;    0.000;15.26667
 369.13;   30.333;   -2.333;    0.000;32.66667
 369.42;  -10.667;   -4.467;    0.000;-6.20000
 369.72;    6.333;  -15.000;    0.000;21.33333
 370.01;    7.600;  -19.067;    0.000;26.66667
 370.31;   24.467;    3.267;    0.000;21.20000
 370.60;   28.133;  -10.000;    0.000;38.13333
 370.90;    3.667;   -9.067;    0.000;12.73333
 371.19;  -19.600;  -29.200;    0.000; 9.60000
 371.49;  -11.200;  -21.133;    0.000; 9.93333
 371.78;   -0.733;  -20.867;    0.000;20.13333
 372.08;    4.000;    1.400;    0.000; 2.60000
 372.37;   -1.733;  -23.467;    0.000;21.73333
 372.67;   19.200;   -1.600;    0.000;20.80000
 372.96;   -7.400;   -9.667;    0.000; 2.26667
 373.26;   -4.533;   -9.200;    0.000; 4.66667
 373.55;   -7.400;  -10.400;    0.000; 3.00000
 373.85;  -14.600;  -28.400;    0.000;13.80000
 374.14;    2.667;   -8.467;    0.000;11.13333
 374.43;    4.800;  -16.267;    0.000;21.06667
 374.73;    4.867;  -16.333;    0.000;21.20000
 375.02;   -3.133;   -0.533;    0.000;-2.60000
 375.32;  -15.600;  -28.733;    0.000;13.13333
 375.61;    1.400;   -5.267;    0.000; 6.66667
 375.91;  -13.733;  -13.000;    0.000;-0.73333
 376.20;  -24.133;  -40.533;    0.000;16.40000
 376.50;   -1.467;  -23.733;    0.000;22.26667
 376.79;  -21.667;  -28.200;    0.000; 6.53333
 377.08;  -14.800;  -22.000;    0.000; 7.20000
 377.38;   -7.133;  -24.467;    0.000;17.33333
 377.67;    0.667;   -6.800;    0.000; 7.46667
 377.97;  -25.067;  -19.067;    0.000;-6.00000
 378.26;  -10.733;  -27.733;    0.000;17.00000
 378.56;  -10.533;  -37.067;    0.000;26.53333
 378.85;   18.733;    8.000;    0.000;10.73333
 379.14;  -11.933;  -13.733;    0.000; 1.80000
 379.44;   -9.600;  -12.733;    0.000; 3.13333
 379.73;   -5.733;  -25.000;    0.000;19.26667
 380.03;    8.000;   -8.867;    0.000;16.86667
 380.32;    6.800;    7.600;    0.000;-0.80000
 380.62;   -3.000;   -7.733;    0.000; 4.73333
 380.91;    9.000;  -11.533;    0.000;20.53333
 381.20;  -12.467;  -13.200;    0.000; 0.73333
 381.50;  -12.200;  -11.333;    0.000;-0.86667
 381.79;   -2.333;  -22.800;    0.000;20.46667
 382.09;  -22.133;  -31.667;    0.000; 9.53333
 382.38;   -6.533;  -27.867;    0.000;21.33333
 382.67;   -4.800;  -12.000;    0.000; 7.20000
 382.97;   -9.200;  -19.867;    0.000;10.66667
 383.26;   -1.533;  -10.200;    0.000; 8.66667
 383.56;    0.467;    1.400;    0.000;-0.93333
 383.85;   -6.733;  -29.467;    0.000;22.73333
 384.14;    8.000;    2.267;    0.000; 5.73333
 384.44;  -14.267;  -15.933;    0.000; 1.66667
 384.73;    8.733;  -18.667;    0.000;27.40000
 385.02;    8.800;  -11.400;    0.000;20.20000
 385.32;   -6.933;   -1.133;    0.000;-5.80000
 385.61;  -29.867;  -40.067;    0.000;10.20000
 385.91;    5.133;   -8.667;    0.000;13.80000
 386.20;  -18.867;  -14.533;    0.000;-4.33333
 386.49;  -15.867;  -27.600;    0.000;11.73333
 386.79;    1.467;   -1.733;    0.000; 3.20000
 387.08;    3.867;  -22.000;    0.000;25.86667
 387.37;    3.000;   -8.333;    0.000;11.33333
 387.67;   -1.200;  -18.333;    0.000;17.13333
 387.96;  -17.067;  -21.933;    0.000; 4.86666
 388.25;   12.600;    7.733;    0.000; 4.86667
 388.55;   -6.200;   -9.867;    0.000; 3.66667
 388.84;  -21.200;  -15.400;    0.000;-5.80000
 389.14;   -2.867;   -9.000;    0.000; 6.13333
 389.43;  -10.867;  -21.867;    0.000;11.00000
 389.72;    5.933;  -27.333;    0.000;33.26667
 390.02;   -9.600;  -34.000;    0.000;24.40000
 390.31;    6.333;  -17.133;    0.000;23.46667
 390.60;  -14.667;  -17.200;    0.000; 2.53333
 390.90;  -10.200;  -24.467;    0.000;14.26667
 391.19;    3.267;  -29.133;    0.000;32.40000
 391.48;   -9.200;  -33.467;    0.000;24.26667
 391.78;  -18.733;  -28.333;    0.000; 9.60000
 392.07;   31.400;   28.800;    0.000; 2.60000
 392.36;   -1.867;    7.067;    0.000;-8.93333
 392.66;  -30.733;  -20.933;    0.000;-9.80000
 392.95;  -20.600;  -27.067;    0.000; 6.46667
 393.24;  -20.200;  -35.000;    0.000;14.80000
 393.53;    1.600;  -29.133;    0.000;30.73333
 393.83;  -35.000;  -20.400;    0.000;-14.60000
 394.12;  -12.467;  -17.200;    0.000; 4.73333
 394.41;    6.133;  -25.867;    0.000;32.00000
 394.71;   -9.267;  -21.600;    0.000;12.33333
 395.00;  -13.800;  -24.000;    0.000;10.20000
 395.29;  -13.400;   -0.733;    0.000;-12.66667
 395.59;   -6.267;  -19.067;    0.000;12.80000
 395.88;  -25.533;  -11.533;    0.000;-14.00000
 396.17;  -18.467;  -37.600;    0.000;19.13333
 396.46;   10.667;  -22.000;    0.000;32.66667
 396.76;   -4.800;  -33.600;    0.000;28.80000
 397.05;   14.667;   11.933;    0.000; 2.73333
 397.34;   -5.533;  -18.800;    0.000;13.26667
 397.64;    1.533;  -13.533;    0.000;15.06667
 397.93;  -24.667;  -17.667;    0.000;-7.00000
 398.22;  -23.267;  -34.467;    0.000;11.20000
 398.51;   13.067;  -17.600;    0.000;30.66667
 398.81;  -11.133;  -25.933;    0.000;14.80000
 399.10;  -31.467;  -31.067;    0.000;-0.40000
 399.39;  -14.200;  -10.867;    0.000;-3.33333
 399.69;  -17.000;  -14.933;    0.000;-2.06667
 399.98;   23.067;   -1.067;    0.000;24.13333
 400.27;  -10.133;  -36.600;    0.000;26.46667
 400.56;   -6.733;  -21.067;    0.000;14.33333
 400.86;  -22.667;  -19.467;    0.000;-3.20000
 401.15;   -8.467;  -13.133;    0.000; 4.66667
 401.44;  -16.533;  -27.400;    0.000;10.86667
 401.73;  -20.533;   -7.733;    0.000;-12.80000
 402.03;   -0.067;   -2.200;    0.000; 2.13333
 402.32;  -36.733;  -26.133;    0.000;-10.60000
 402.61;  -11.733;  -10.400;    0.000;-1.33333
 402.90;  -30.600;  -44.200;    0.000;13.60000
 403.20;    9.133;  -17.067;    0.000;26.20000
 403.49;   -0.533;   -8.933;    0.000; 8.40000
 403.78;  -21.000;  -20.867;    0.000;-0.13333
 404.07;   -9.067;  -16.800;    0.000; 7.73333
 404.37;  -15.867;  -10.867;    0.000;-5.00000
 404.66;  -12.600;  -10.933;    0.000;-1.66667
 404.95;  -10.067;  -18.400;    0.000; 8.33333
 405.24;  -19.867;  -19.800;    0.000;-0.06667
 405.53;  -15.800;  -28.267;    0.000;12.46667
 405.83;    1.467;   -1.733;    0.000; 3.20000
 406.12;  -20.533;  -31.867;    0.000;11.33333
 406.41;    1.400;   -8.600;    0.000;10.00000
 406.70;   -1.667;  -30.600;    0.000;28.93333
 407.00;   -5.800;   -5.267;    0.000;-0.53333
 407.29;   -6.267;  -19.133;    0.000;12.86667
 407.58;  -32.533;  -31.533;    0.000;-1.00000
 407.87;   -8.067;  -32.933;    0.000;24.86667
 408.16;  -33.133;  -20.733;    0.000;-12.40000
 408.46;   -9.333;  -28.467;    0.000;19.13333
 408.75;  -13.467;  -23.067;    0.000; 9.60000
 409.04;   -9.600;  -23.133;    0.000;13.53333
 409.33;  -24.733;  -14.333;    0.000;-10.40000
 409.62;    7.200;  -16.467;    0.000;23.66667
 409.92;   14.200;   -8.733;    0.000;22.93333
 410.21;  -15.200;  -28.600;    0.000;13.40000
 410.50;  -26.000;  -19.933;    0.000;-6.06667
 410.79;   -6.400;    1.333;    0.000;-7.73333
 411.08;  -17.800;  -16.400;    0.000;-1.40000
 411.37;  -11.800;  -21.267;    0.000; 9.46667
 411.67;  -15.667;  -26.333;    0.000;10.66667
 411.96;   -4.133;  -31.800;    0.000;27.66667
 412.25;  -23.467;  -20.467;    0.000;-3.00000
 412.54;  -16.533;  -19.867;    0.000; 3.33333
 412.83;   -3.800;  -36.267;    0.000;32.46667
 413.13;   16.600;  -22.133;    0.000;38.73333
 413.42;  -17.867;  -20.933;    0.000; 3.06667
 413.71;    4.733;  -12.467;    0.000;17.20000
 414.00;  -20.267;  -20.467;    0.000; 0.20000
 414.29;   -4.000;  -12.400;    0.000; 8.40000
 414.58;  -30.000;  -31.000;    0.000; 1.00000
 414.87;  -20.800;  -38.067;    0.000;17.26667
 415.17;  -27.733;  -27.533;    0.000;-0.20000
 415.46;   -1.533;  -19.667;    0.000;18.13333
 415.75;   -8.933;  -27.400;    0.000;18.46667
 416.04;  -13.333;  -23.867;    0.000;10.53333
 416.33;  -16.800;  -27.800;    0.000;11.00000
 416.62;  -23.133;  -37.667;    0.000;14.53333
 416.91;  -24.867;  -25.800;    0.000; 0.93333
 417.21;  -22.733;  -31.467;    0.000; 8.73333
 417.50;  -19.067;  -31.867;    0.000;12.80000
 417.79;  -17.667;  -23.933;    0.000; 6.26667
 418.08;  -14.800;  -26.267;    0.000;11.46667
 418.37;   -9.133;  -38.400;    0.000;29.26667
 418.66;    3.333;  -24.600;    0.000;27.93333
 418.95;   11.000;  -16.133;    0.000;27.13333
 419.24;  -29.200;  -28.667;    0.000;-0.53333
 419.54;    6.200;  -23.467;    0.000;29.66667
 419.83;   -6.200;  -35.267;    0.000;29.06667
 420.12;  -23.067;  -34.933;    0.000;11.86667
 420.41;    7.200;    3.467;    0.000; 3.73333
 420.70;  -17.733;  -35.000;    0.000;17.26667
 420.99;  -15.733;   -0.333;    0.000;-15.40000
 421.28;  -18.267;  -16.867;    0.000;-1.40000
 421.57;   -6.200;   -9.333;    0.000; 3.13333
 421.86;   24.867;  -11.533;    0.000;36.40000
 422.16;    6.600;  -17.933;    0.000;24.53333
 422.45;   -0.933;  -37.333;    0.000;36.40000
 422.74;  -24.400;  -36.600;    0.000;12.20000
 423.03;  -11.400;  -13.933;    0.000; 2.53333
 423.32;  -19.200;  -27.200;    0.000; 8.00000
 423.61;   16.200;  -25.467;    0.000;41.66667
 423.90;   -0.800;  -20.667;    0.000;19.86667
 424.19;   43.467;   27.000;    0.000;16.46667
 424.48;  -18.667;   -5.400;    0.000;-13.26667
 424.77;  -24.333;   -3.933;    0.000;-20.40000
 425.06;    3.600;  -18.733;    0.000;22.33333
 425.35;   -1.667;  -13.400;    0.000;11.73333
 425.65;  -15.867;  -33.800;    0.000;17.93333
 425.94;  -22.467;  -19.867;    0.000;-2.60000
 426.23;   -8.200;  -39.467;    0.000;31.26667
 426.52;  -21.200;  -38.067;    0.000;16.86666
 426.81;   24.800;    3.933;    0.000;20.86667
 427.10;  -18.333;  -33.400;    0.000;15.06667
 427.39;  -13.133;  -21.467;    0.000; 8.33333
 427.68;   -5.333;  -17.733;    0.000;12.40000
 427.97;  -11.867;  -13.067;    0.000; 1.20000
 428.26;  -32.467;  -24.600;    0.000;-7.86667
 428.55;    4.133;   -4.733;    0.000; 8.86667
 428.84;    3.533;  -15.800;    0.000;19.33333
 429.13;  -10.133;  -15.800;    0.000; 5.66667
 429.42;    5.467;  -20.733;    0.000;26.20000
 429.71;   11.267;  -10.200;    0.000;21.46667
 430.00;  -11.000;  -38.667;    0.000;27.66667
 430.29;  -26.267;  -41.867;    0.000;15.60000
 430.58;   -0.400;  -23.867;    0.000;23.46667
 430.87;  -10.000;  -24.267;    0.000;14.26667
 431.16;  -20.733;  -40.533;    0.000;19.80000
 431.46;    0.467;  -15.133;    0.000;15.60000
 431.75;  -27.267;  -16.067;    0.000;-11.20000
 432.04;   10.933;  -20.600;    0.000;31.53333
 432.33;  -30.600;  -28.133;    0.000;-2.46667
 432.62;   -1.267;  -37.200;    0.000;35.93333
 432.91;  -24.933;  -35.933;    0.000;11.00000
 433.20;  -14.533;  -32.400;    0.000;17.86667
 433.49;  -12.933;  -30.400;    0.000;17.46667
 433.78;  -30.267;  -43.733;    0.000;13.46667
 434.07;  -18.533;  -24.267;    0.000; 5.73333
 434.36;  -19.867;  -30.933;    0.000;11.06667
 434.65;  -32.800;  -27.867;    0.000;-4.93333
 434.94;  -17.133;  -14.667;    0.000;-2.46667
 435.23;    4.600;  -18.933;    0.000;23.53333
 435.52;   -1.600;  -22.067;    0.000;20.46667
 435.81;   -4.667;  -19.133;    0.000;14.46667
 436.10;   -1.800;   -3.400;    0.000; 1.60000
 436.39;    5.267;   -6.000;    0.000;11.26667
 436.68;   -3.667;    2.533;    0.000;-6.20000
 436.97;  -16.467;  -29.067;    0.000;12.60000
 437.26;  -11.200;    0.200;    0.000;-11.40000
 437.55;  -11.000;  -28.067;    0.000;17.06667
 437.83;  -37.333;  -38.800;    0.000; 1.46667
 438.12;  -25.267;  -49.333;    0.000;24.06667
 438.41;  -24.133;   -8.933;    0.000;-15.20000
 438.70;    0.400;   12.267;    0.000;-11.86667
 438.99;   17.667;    3.200;    0.000;14.46667
 439.28;  -14.533;  -13.800;    0.000;-0.73333
 439.57;  -20.133;  -28.600;    0.000; 8.46667
 439.86;   11.933;  -32.067;    0.000;44.00000
 440.15;  -14.467;   -9.733;    0.000;-4.73333
 440.44;  -14.133;    5.267;    0.000;-19.40000
 440.73;  -15.533;  -30.467;    0.000;14.93333
 441.02;  -18.000;  -25.933;    0.000; 7.93333
 441.31;    5.600;  -29.133;    0.000;34.73333
 441.60;    8.333;   -1.667;    0.000;10.00000
 441.89;  -39.800;  -36.400;    0.000;-3.40000
 442.18;    4.733;  -27.200;    0.000;31.93333
 442.47;   -8.467;  -22.533;    0.000;14.06667
 442.76;  -17.800;  -18.667;    0.000; 0.86667
 443.05;    6.267;   -5.600;    0.000;11.86667
 443.34;   -3.467;   -4.400;    0.000; 0.93333
 443.63;  -29.600;  -30.000;    0.000; 0.40000
 443.91;  -22.533;  -25.333;    0.000; 2.80000
 444.20;   -4.000;  -15.000;    0.000;11.00000
 444.49;  -27.933;  -34.667;    0.000; 6.73334
 444.78;  -22.267;  -20.267;    0.000;-2.00000
 445.07;   16.667;  -24.333;    0.000;41.00000
 445.36;  -32.067;  -23.267;    0.000;-8.80000
 445.65;  -33.200;  -21.067;    0.000;-12.13333
 445.94;  -18.333;  -21.467;    0.000; 3.13333
 446.23;    1.867;  -22.933;    0.000;24.80000
 446.52;   -7.733;  -25.200;    0.000;17.46667
 446.81;  -13.067;  -17.800;    0.000; 4.73333
 447.10;  -29.000;  -19.133;    0.000;-9.86667
 447.38;  -17.800;  -61.067;    0.000;43.26667
 447.67;  -11.667;  -25.000;    0.000;13.33333
 447.96;  -30.400;  -50.333;    0.000;19.93333
 448.25;  -28.667;  -28.933;    0.000; 0.26667
 448.54;   79.800;   82.533;    0.000;-2.73333
 448.83;   -6.600;  -23.200;    0.000;16.60000
 449.12;  -17.600;  -51.000;    0.000;33.40000
 449.41;   -8.400;  -14.333;    0.000; 5.93333
 449.70;  -16.733;  -20.867;    0.000; 4.13333
 449.98;  -40.133;  -25.533;    0.000;-14.60000
 450.27;   -8.267;  -24.867;    0.000;16.60000
 450.56;  -32.600;  -29.067;    0.000;-3.53333
 450.85;  -12.333;  -35.400;    0.000;23.06667
 451.14;  -34.600;  -40.733;    0.000; 6.13334
 451.43;  -24.133;  -22.333;    0.000;-1.80000
 451.72;  -21.400;  -27.333;    0.000; 5.93333
 452.01;  -11.067;  -26.333;    0.000;15.26667
 452.29;  -26.533;  -38.533;    0.000;12.00000
 452.58;  -30.333;  -30.000;    0.000;-0.33333
 452.87;  -22.733;  -11.933;    0.000;-10.80000
 453.16;   -8.733;  -29.067;    0.000;20.33333
 453.45;  -17.200;   -9.600;    0.000;-7.60000
 453.74;  -21.267;  -24.200;    0.000; 2.93333
 454.03;  -19.867;  -32.867;    0.000;13.00000
 454.31;  -22.333;  -31.133;    0.000; 8.80000
 454.60;  -14.000;  -29.667;    0.000;15.66667
 454.89;   -7.600;  -14.400;    0.000; 6.80000
 455.18;  -30.400;  -48.000;    0.000;17.60000
 455.47;  -39.733;  -46.800;    0.000; 7.06667
 455.76;  -30.400;  -28.400;    0.000;-2.00000
 456.04;    0.267;  -26.800;    0.000;27.06667
 456.33;  -13.267;  -20.733;    0.000; 7.46667
 456.62;  -23.867;  -25.533;    0.000; 1.66667
 456.91;  -31.000;  -43.067;    0.000;12.06667
 457.20;    7.800;  -20.200;    0.000;28.00000
 457.49;  -27.467;  -20.067;    0.000;-7.40000
 457.77;  -34.733;  -47.200;    0.000;12.46667
 458.06;  -18.333;  -33.200;    0.000;14.86667
 458.35;  -17.533;  -37.667;    0.000;20.13334
 458.64;  -25.933;  -26.800;    0.000; 0.86667
 458.93;   -3.333;  -27.933;    0.000;24.60000
 459.21;  -13.867;  -24.600;    0.000;10.73333
 459.50;   -7.667;  -25.533;    0.000;17.86667
 459.79;  -18.533;  -44.867;    0.000;26.33333
 460.08;  -12.133;  -28.067;    0.000;15.93333
 460.37;  -13.733;  -33.467;    0.000;19.73333
 460.65;    3.267;  -35.467;    0.000;38.73333
 460.94;  -28.133;  -32.467;    0.000; 4.33333
 461.23;  -26.800;  -46.400;    0.000;19.60000
 461.52;    6.533;  -24.933;    0.000;31.46667
 461.81;  -11.867;  -32.267;    0.000;20.40000
 462.09;   -9.800;  -39.800;    0.000;30.00000
 462.38;   10.133;  -48.200;    0.000;58.33333
 462.67;  -15.333;  -44.533;    0.000;29.20000
 462.96;   -9.733;  -34.400;    0.000;24.66667
 463.24;  -21.333;  -31.400;    0.000;10.06667
 463.53;  -14.533;  -17.933;    0.000; 3.40000
 463.82;  -14.600;  -38.067;    0.000;23.46667
 464.11;  -23.200;  -44.600;    0.000;21.40000
 464.40;  -24.467;  -28.533;    0.000; 4.06667
 464.68;  -21.400;  -43.667;    0.000;22.26667
 464.97;   -8.200;  -30.733;    0.000;22.53333
 465.26;  -11.133;  -23.600;    0.000;12.46667
 465.55;  -25.867;  -26.867;    0.000; 1.00000
 465.83;   -7.467;  -36.533;    0.000;29.06667
 466.12;  -36.333;  -25.400;    0.000;-10.93333
 466.41;   -1.333;  -25.800;    0.000;24.46667
 466.70;  -20.267;  -17.067;    0.000;-3.20000
 466.98;  -26.067;  -45.067;    0.000;19.00000
 467.27;    4.467;  -33.133;    0.000;37.60000
 467.56;   -6.133;  -12.733;    0.000; 6.60000
 467.85;  -18.133;  -22.200;    0.000; 4.06667
 468.13;  -14.533;  -36.400;    0.000;21.86667
 468.42;  -13.600;  -27.333;    0.000;13.73333
 468.71;  -25.467;  -27.600;    0.000; 2.13333
 468.99;   -5.400;  -23.533;    0.000;18.13333
 469.28;   -7.533;  -26.267;    0.000;18.73333
 469.57;  -27.667;  -30.067;    0.000; 2.40000
 469.86;  -23.200;  -24.000;    0.000; 0.80000
 470.14;  -26.667;  -55.067;    0.000;28.40000
 470.43;    1.867;  -37.267;    0.000;39.13333
 470.72;  -39.600;  -43.200;    0.000; 3.60000
 471.00;  -18.400;  -47.267;    0.000;28.86667
 471.29;    4.267;    6.733;    0.000;-2.46667
 471.58;   10.133;  -21.800;    0.000;31.93333
 471.87;  -26.400;  -18.467;    0.000;-7.93333
 472.15;  -12.867;  -29.200;    0.000;16.33333
 472.44;   -0.067;   -4.933;    0.000; 4.86667
 472.73;  -13.333;  -40.467;    0.000;27.13333
 473.01;   -4.200;  -44.733;    0.000;40.53333
 473.30;    8.667;  -32.800;    0.000;41.46667
 473.59;  -18.533;  -49.667;    0.000;31.13334
 473.87;  -15.733;  -26.133;    0.000;10.40000
 474.16;  -22.267;  -40.133;    0.000;17.86667
 474.45;   -7.400;  -34.933;    0.000;27.53333
 474.74;  -21.133;  -51.200;    0.000;30.06667
 475.02;   -8.533;  -40.000;    0.000;31.46667
 475.31;  -16.400;  -19.600;    0.000; 3.20000
 475.60;  -10.333;  -20.467;    0.000;10.13333
 475.88;   -2.400;   -9.600;    0.000; 7.20000
 476.17;   19.400;  -17.333;    0.000;36.73333
 476.46;  -29.867;  -36.067;    0.000; 6.20000
 476.74;  -27.400;  -37.400;    0.000;10.00000
 477.03;  -35.800;  -50.200;    0.000;14.40000
 477.32;    6.267;  -22.667;    0.000;28.93333
 477.60;  -17.000;  -24.867;    0.000; 7.86667
 477.89;   -2.800;  -12.267;    0.000; 9.46667
 478.18;   -7.800;  -28.733;    0.000;20.93333
 478.46;   -8.067;  -38.933;    0.000;30.86667
 478.75;   -7.600;  -35.333;    0.000;27.73333
 479.03;  -13.200;  -31.000;    0.000;17.80000
 479.32;  -26.067;  -24.933;    0.000;-1.13334
 479.61;  -19.667;  -35.800;    0.000;16.13333
 479.89;  -40.200;  -24.467;    0.000;-15.73333
 480.18;  -18.733;  -41.600;    0.000;22.86666
 480.47;   -1.267;  -44.600;    0.000;43.33333
 480.75;  -17.933;  -37.467;    0.000;19.53333
 481.04;    3.200;  -20.600;    0.000;23.80000
 481.33;    7.733;  -20.467;    0.000;28.20000
 481.61;  -11.333;  -20.867;    0.000; 9.53333
 481.90;   -7.867;  -49.200;    0.000;41.33333
 482.18;   -1.933;  -24.467;    0.000;22.53333
 482.47;  -25.133;  -17.133;    0.000;-8.00000
 482.76;   -0.400;  -34.867;    0.000;34.46666
 483.04;  -24.867;  -37.733;    0.000;12.86667
 483.33;  -27.267;  -41.200;    0.000;13.93333
 483.61;  -17.333;  -30.667;    0.000;13.33333
 483.90;  -21.533;  -13.133;    0.000;-8.40000
 484.19;  -14.600;  -46.667;    0.000;32.06667
 484.47;    2.933;  -27.600;    0.000;30.53333
 484.76;   -7.733;  -50.000;    0.000;42.26667
 485.05;   -5.933;  -25.133;    0.000;19.20000
 485.33;   -5.667;  -23.133;    0.000;17.46667
 485.62;  -27.667;  -36.200;    0.000; 8.53333
 485.90;  -11.267;  -29.467;    0.000;18.20000
 486.19;    3.067;  -48.067;    0.000;51.13333
 486.47;   18.800;   -8.467;    0.000;27.26667
 486.76;   -5.800;  -12.867;    0.000; 7.06667
 487.05;    9.733;  -10.533;    0.000;20.26667
 487.33;   -1.333;  -28.133;    0.000;26.80000
 487.62;  -13.533;  -38.600;    0.000;25.06666
 487.90;   10.000;  -26.000;    0.000;36.00000
 488.19;   14.400;  -22.000;    0.000;36.40000
 488.47;   10.000;  -30.067;    0.000;40.06667
 488.76;   -0.200;  -23.933;    0.000;23.73333
 489.05;   13.933;  -30.933;    0.000;44.86667
 489.33;   17.867;  -29.600;    0.000;47.46667
 489.62;   34.600;  -13.600;    0.000;48.20000
 489.90;    1.333;  -62.933;    0.000;64.26667
 490.19;   17.267;  -33.333;    0.000;50.60000
 490.47;   43.600;  -27.400;    0.000;71.00000
 490.76;   30.867;  -38.067;    0.000;68.93333
 491.05;   46.867;  -18.533;    0.000;65.40000
 491.33;   52.600;  -30.133;    0.000;82.73333
 491.62;   63.667;  -42.267;    0.000;105.93333
 491.90;   52.533;  -43.600;    0.000;96.13333
 492.19;   78.933;  -41.200;    0.000;120.13334
 492.47;   64.267;  -40.200;    0.000;104.46667
 492.76;  105.133;  -43.800;    0.000;148.93333
 493.04;  125.800;  -19.733;    0.000;145.53334
 493.33;  125.600;  -50.800;    0.000;176.40000
 493.61;  150.600;  -34.933;    0.000;185.53334
 493.90;  169.867;  -25.667;    0.000;195.53333
 494.18;  179.667;  -17.133;    0.000;196.80000
 494.47;  191.867;  -25.800;    0.000;217.66667
 494.75;  214.133;  -54.467;    0.000;268.60000
 495.04;  253.800;  -33.867;    0.000;287.66667
 495.32;  248.267;  -31.133;    0.000;279.40000
 495.61;  286.000;  -24.800;    0.000;310.80000
 495.89;  308.600;  -18.000;    0.000;326.60001
 496.18;  361.267;  -23.000;    0.000;384.26666
 496.46;  399.600;  -35.133;    0.000;434.73334
 496.75;  395.667;  -19.600;    0.000;415.26666
 497.03;  466.800;  -40.267;    0.000;507.06665
 497.32;  504.400;  -36.200;    0.000;540.59999
 497.60;  507.600;  -44.267;    0.000;551.86667
 497.89;  540.267;  -23.733;    0.000;564.00000
 498.17;  636.667;  -31.400;    0.000;668.06669
 498.46;  654.333;  -47.000;    0.000;701.33331
 498.74;  725.200;  -27.067;    0.000;752.26668
 499.03;  723.267;  -32.533;    0.000;755.80000
 499.31;  806.533;  -44.867;    0.000;851.39999
 499.60;  866.533;  -23.067;    0.000;889.59999
 499.88;  944.467;  -20.667;    0.000;965.13334
 500.17;  983.133;  -51.067;    0.000;1034.20003
 500.45; 1019.600;  -29.733;    0.000;1049.33331
 500.74; 1092.867;  -30.800;    0.000;1123.66670
 501.02; 1116.067;  -25.933;    0.000;1141.99998
 501.31; 1219.733;  -39.333;    0.000;1259.06661
 501.59; 1309.267;  -36.867;    0.000;1346.13339
 501.88; 1357.200;  -34.667;    0.000;1391.86662
 502.16; 1435.400;  -35.000;    0.000;1470.40002
 502.45; 1563.800;  -40.867;    0.000;1604.66671
 502.73; 1593.000;  -39.067;    0.000;1632.06667
 503.01; 1687.200;  -44.467;    0.000;1731.66662
 503.30; 1707.200;  -59.600;    0.000;1766.79995
 503.58; 1823.733;  -49.400;    0.000;1873.13328
 503.87; 1934.400;  -34.067;    0.000;1968.46669
 504.15; 1962.933;  -41.800;    0.000;2004.73335
 504.44; 2133.267;  -18.467;    0.000;2151.73327
 504.72; 2205.933;  -21.733;    0.000;2227.66668
 505.00; 2284.867;  -35.133;    0.000;2320.00003
 505.29; 2396.733;  -14.533;    0.000;2411.26673
 505.57; 2450.400;  -49.933;    0.000;2500.33324
 505.86; 2546.133;  -44.600;    0.000;2590.73330
 506.14; 2664.333;  -40.200;    0.000;2704.53325
 506.43; 2772.333;  -35.333;    0.000;2807.66658
 506.71; 2890.200;  -43.133;    0.000;2933.33329
 506.99; 2958.800;  -42.333;    0.000;3001.13338
 507.28; 3022.600;  -26.133;    0.000;3048.73343
 507.56; 3149.067;  -49.667;    0.000;3198.73332
 507.85; 3271.800;  -50.800;    0.000;3322.60005
 508.13; 3365.800;  -22.267;    0.000;3388.06672
 508.41; 3551.600;  -12.267;    0.000;3563.86676
 508.70; 3543.733;  -50.600;    0.000;3594.33340
 508.98; 3707.867;  -39.800;    0.000;3747.66670
 509.27; 3796.867;  -45.133;    0.000;3842.00003
 509.55; 3893.867;  -30.800;    0.000;3924.66670
 509.83; 4046.600;  -58.933;    0.000;4105.53343
 510.12; 4067.000;  -33.400;    0.000;4100.40000
 510.40; 4222.667;  -29.067;    0.000;4251.73317
 510.69; 4371.867;  -52.733;    0.000;4424.60003
 510.97; 4470.067;  -30.667;    0.000;4500.73356
 511.25; 4599.467;  -52.733;    0.000;4652.20013
 511.54; 4707.067;  -27.200;    0.000;4734.26690
 511.82; 4843.200;  -22.933;    0.000;4866.13353
 512.11; 4951.933;  -27.267;    0.000;4979.19977
 512.39; 5004.867;  -34.667;    0.000;5039.53337
 512.67; 5113.667;  -39.467;    0.000;5153.13317
 512.96; 5245.733;  -42.467;    0.000;5288.20007
 513.24; 5348.200;  -19.667;    0.000;5367.86686
 513.52; 5448.333;  -25.000;    0.000;5473.33350
 513.81; 5675.267;  -16.333;    0.000;5691.59994
 514.09; 5707.733;  -49.200;    0.000;5756.93340
 514.37; 5773.200;  -48.600;    0.000;5821.80019
 514.66; 5890.867;  -24.933;    0.000;5915.80003
 514.94; 5972.733;  -41.200;    0.000;6013.93340
 515.22; 6069.067;  -49.467;    0.000;6118.53356
 515.51; 6208.867;  -42.133;    0.000;6251.00003
 515.79; 6347.400;  -32.133;    0.000;6379.53324
 516.07; 6483.133;  -47.067;    0.000;6530.19997
 516.36; 6545.133;  -47.133;    0.000;6592.26664
 516.64; 6618.267;  -31.267;    0.000;6649.53327
 516.92; 6686.933;  -49.200;    0.000;6736.13311
 517.21; 6859.467;  -51.733;    0.000;6911.20013
 517.49; 7029.133;  -44.400;    0.000;7073.53330
 517.77; 7105.733;  -31.467;    0.000;7137.20007
 518.06; 7229.067;  -55.133;    0.000;7284.20023
 518.34; 7362.733;  -33.400;    0.000;7396.13340
 518.62; 7304.533;  -27.667;    0.000;7332.19987
 518.91; 7678.867;  133.400;    0.000;7545.46671
 519.19; 7591.867;  -33.800;    0.000;7625.66670
 519.47; 7736.267;  -37.467;    0.000;7773.73327
 519.76; 7848.733;  -26.400;    0.000;7875.13340
 520.04; 7860.200;  -33.667;    0.000;7893.86686
 520.32; 7996.400;  -25.733;    0.000;8022.13324
 520.61; 8112.733;   -7.133;    0.000;8119.86673
 520.89; 8184.733;  -61.200;    0.000;8245.93340
 521.17; 8225.134;  -36.600;    0.000;8261.73379
 521.45; 8355.134;  -31.600;    0.000;8386.73379
 521.74; 8420.267;  -36.467;    0.000;8456.73327
 522.02; 8524.333;  -27.533;    0.000;8551.86634
 522.30; 8607.934;  -39.133;    0.000;8647.06693
 522.59; 8720.733;  -28.133;    0.000;8748.86673
 522.87; 8830.733;  -28.400;    0.000;8859.13340
 523.15; 8941.066;  -29.667;    0.000;8970.73307
 523.43; 8989.667;  -45.733;    0.000;9035.40033
 523.72; 9010.400;  -41.600;    0.000;9052.00039
 524.00; 9227.200;  -31.400;    0.000;9258.60019
 524.28; 9175.667;  -31.600;    0.000;9207.26699
 524.57; 9319.333;  -36.933;    0.000;9356.26634
 524.85; 9357.533;  -43.067;    0.000;9400.59987
 525.13; 9470.733;  -30.600;    0.000;9501.33340
 525.41; 9522.667;  -38.067;    0.000;9560.73366
 525.70; 9632.134;  -50.533;    0.000;9682.66712
 525.98; 9709.000;  -41.467;    0.000;9750.46667
 526.26; 9754.066;  -49.400;    0.000;9803.46641
 526.54; 9896.733;  -33.533;    0.000;9930.26673
 526.83; 9914.800;  -51.067;    0.000;9965.86647
 527.11;10062.200;  -16.933;    0.000;10079.13353
 527.39;10080.467;  -44.933;    0.000;10125.40013
 527.67;10127.267;  -25.333;    0.000;10152.59994
 527.96;10077.000;  -69.067;    0.000;10146.06667
 528.24;10282.200;  -43.133;    0.000;10325.33353
 528.52;10384.533;  -54.933;    0.000;10439.46654
 528.80;10349.600;  -11.867;    0.000;10361.46628
 529.08;10444.667;  -60.400;    0.000;10505.06699
 529.37;10482.533;  -49.400;    0.000;10531.93320
 529.65;10604.667;  -36.200;    0.000;10640.86699
 529.93;10651.333;  -39.000;    0.000;10690.33301
 530.21;10827.866;  -46.200;    0.000;10874.06621
 530.50;10799.134;  -26.733;    0.000;10825.86712
 530.78;10816.000;  -24.200;    0.000;10840.20000
 531.06;10907.467;  -30.133;    0.000;10937.60013
 531.34;11049.333;  -46.800;    0.000;11096.13301
 531.62;11079.533;  -52.800;    0.000;11132.33320
 531.91;11044.600;  -58.200;    0.000;11102.79961
 532.19;11106.333;  -44.400;    0.000;11150.73301
 532.47;11217.667;  -45.000;    0.000;11262.66699
 532.75;11327.733;  -15.600;    0.000;11343.33340
 533.03;11375.800;   -3.000;    0.000;11378.79980
 533.32;11381.400;  -58.533;    0.000;11439.93372
 533.60;11368.800;  -32.133;    0.000;11400.93314
 533.88;11479.200;  -22.333;    0.000;11501.53353
 534.16;11517.866;  -56.200;    0.000;11574.06621
 534.44;11582.066;  -27.333;    0.000;11609.39974
 534.72;11637.267;  -50.733;    0.000;11687.99994
 535.01;11695.866;  -48.200;    0.000;11744.06621
 535.29;11650.866;  -54.267;    0.000;11705.13288
 535.57;11813.134;  -39.200;    0.000;11852.33379
 535.85;11783.066;  -47.467;    0.000;11830.53307
 536.13;11854.066;  -47.733;    0.000;11901.79974
 536.42;11946.400;  -49.800;    0.000;11996.20039
 536.70;12006.267;  -43.133;    0.000;12049.39994
 536.98;12061.333;  -33.400;    0.000;12094.73301
 537.26;11999.800;  -38.267;    0.000;12038.06647
 537.54;12145.667;  -44.133;    0.000;12189.80033
 537.82;12184.400;  -15.067;    0.000;12199.46706
 538.10;12181.267;  -58.400;    0.000;12239.66660
 538.39;12312.934;  -35.933;    0.000;12348.86693
 538.67;12334.667;  -62.267;    0.000;12396.93366
 538.95;12372.667;  -45.600;    0.000;12418.26699
 539.23;12495.066;  -34.933;    0.000;12529.99974
 539.51;12469.533;  -33.867;    0.000;12503.39987
 539.79;12535.200;  -47.133;    0.000;12582.33353
 540.07;12363.066;  -70.867;    0.000;12433.93307
 540.36;12449.400;  -47.867;    0.000;12497.26706
 540.64;12651.066;  -47.933;    0.000;12698.99974
 540.92;12658.600;  -53.667;    0.000;12712.26628
 541.20;12624.866;  -43.933;    0.000;12668.79955
 541.48;12762.934;  -28.600;    0.000;12791.53359
 541.76;12773.000;  -50.267;    0.000;12823.26667
 542.04;12844.134;  -47.067;    0.000;12891.20045
 542.32;12956.866;  -43.800;    0.000;13000.66621
 542.61;13026.333;  -39.733;    0.000;13066.06634
 542.89;12990.333;  -25.600;    0.000;13015.93301
 543.17;12892.600;  -46.400;    0.000;12938.99961
 543.45;12937.866;  -40.533;    0.000;12978.39954
 543.73;13019.800;  -38.933;    0.000;13058.73314
 544.01;13139.800;  -42.533;    0.000;13182.33314
 544.29;13101.733;  -22.333;    0.000;13124.06673
 544.57;13064.667;  -49.467;    0.000;13114.13366
 544.85;13070.267;  -34.467;    0.000;13104.73327
 545.13;13104.533;  -33.133;    0.000;13137.66654
 545.42;13133.733;  -44.400;    0.000;13178.13340
 545.70;13264.400;  -41.400;    0.000;13305.80039
 545.98;13184.800;  -42.400;    0.000;13227.19981
 546.26;13360.866;  -39.733;    0.000;13400.59954
 546.54;13286.533;  -69.933;    0.000;13356.46654
 546.82;13296.066;  -29.933;    0.000;13325.99974
 547.10;13306.467;  -18.200;    0.000;13324.66680
 547.38;13396.066;  -51.067;    0.000;13447.13307
 547.66;13386.934;  -39.933;    0.000;13426.86693
 547.94;13423.000;  -43.067;    0.000;13466.06667
 548.22;13323.533;  -49.733;    0.000;13373.26654
 548.50;13462.934;  -64.867;    0.000;13527.80026
 548.78;13416.134;  -52.200;    0.000;13468.33379
 549.06;13470.000;  -33.933;    0.000;13503.93333
 549.34;13397.733;  -51.333;    0.000;13449.06673
 549.63;13569.200;   -1.400;    0.000;13570.60020
 549.91;13509.200;  -31.133;    0.000;13540.33353
 550.19;13675.267;  -46.067;    0.000;13721.33327
 550.47;13520.800;  -48.800;    0.000;13569.59980
 550.75;13587.733;  -57.000;    0.000;13644.73340
 551.03;13692.866;  -62.667;    0.000;13755.53288
 551.31;13516.866;  -48.467;    0.000;13565.33288
 551.59;13581.200;  -48.467;    0.000;13629.66686
 551.87;13571.800;  -33.267;    0.000;13605.06647
 552.15;13628.667;  -41.867;    0.000;13670.53366
 552.43;13720.000;  -26.733;    0.000;13746.73333
 552.71;13634.667;  -38.733;    0.000;13673.40033
 552.99;13655.200;  -46.133;    0.000;13701.33353
 553.27;13638.134;  -58.933;    0.000;13697.06712
 553.55;13756.667;  -44.667;    0.000;13801.33366
 553.83;13653.800;  -47.267;    0.000;13701.06647
 554.11;13669.000;  -27.600;    0.000;13696.60000
 554.39;13788.667;  -43.667;    0.000;13832.33366
 554.67;13716.333;  -51.133;    0.000;13767.46634
 554.95;13612.600;  -18.400;    0.000;13630.99961
 555.23;13772.934;  -22.667;    0.000;13795.60026
 555.51;13618.533;  -50.933;    0.000;13669.46654
 555.79;13659.800;  -52.467;    0.000;13712.26647
 556.07;13770.800;  -46.467;    0.000;13817.26647
 556.35;13764.800;  -48.000;    0.000;13812.79980
 556.63;13735.600;  -47.600;    0.000;13783.19961
 556.91;13741.533;  -20.067;    0.000;13761.59987
 557.19;13670.533;  -47.867;    0.000;13718.39987
 557.47;13735.066;  -46.000;    0.000;13781.06641
 557.75;13647.333;  -37.400;    0.000;13684.73301
 558.03;13728.200;  -32.000;    0.000;13760.20020
 558.31;13797.800;  -64.933;    0.000;13862.73314
 558.59;13743.533;  -41.000;    0.000;13784.53320
 558.87;13771.000;  -30.867;    0.000;13801.86667
 559.15;13799.134;  -41.267;    0.000;13840.40046
 559.43;13775.333;  -37.733;    0.000;13813.06634
 559.71;13729.934;  -31.333;    0.000;13761.26693
 559.99;13747.400;  -56.400;    0.000;13803.80039
 560.27;13919.333;  -28.600;    0.000;13947.93301
 560.55;13746.533;  -36.933;    0.000;13783.46654
 560.82;13738.200;  -45.533;    0.000;13783.73353
 561.10;13684.400;  -30.467;    0.000;13714.86706
 561.38;13723.000;  -24.133;    0.000;13747.13333
 561.66;13660.600;   -8.267;    0.000;13668.86628
 561.94;13724.866;  -53.200;    0.000;13778.06621
 562.22;13735.467;  -45.467;    0.000;13780.93346
 562.50;13661.800;  -32.200;    0.000;13693.99981
 562.78;13630.066;  -41.333;    0.000;13671.39974
 563.06;13576.400;  -30.467;    0.000;13606.86706
 563.34;13502.000;  -41.667;    0.000;13543.66667
 563.62;13561.400;  -47.800;    0.000;13609.20039
 563.90;13520.600;  -54.600;    0.000;13575.19961
 564.18;13660.533;  -47.667;    0.000;13708.19987
 564.46;13593.934;  -52.467;    0.000;13646.40026
 564.74;13495.866;  -35.667;    0.000;13531.53288
 565.01;13547.333;  -36.667;    0.000;13583.99968
 565.29;13540.200;  -46.400;    0.000;13586.60020
 565.57;13388.066;  -50.533;    0.000;13438.59974
 565.85;13415.400;  -30.133;    0.000;13445.53372
 566.13;13404.134;  -59.733;    0.000;13463.86712
 566.41;13330.600;  -23.467;    0.000;13354.06628
 566.69;13275.000;  -55.267;    0.000;13330.26667
 566.97;13389.533;  -40.400;    0.000;13429.93320
 567.25;13421.200;  -30.600;    0.000;13451.80020
 567.53;13265.066;  -44.467;    0.000;13309.53307
 567.80;13304.400;  -35.733;    0.000;13340.13372
 568.08;13220.000;  -55.067;    0.000;13275.06667
 568.36;13117.667;  -41.000;    0.000;13158.66699
 568.64;13150.733;  -62.133;    0.000;13212.86673
 568.92;13163.066;  -45.667;    0.000;13208.73307
 569.20;13050.066;  -59.867;    0.000;13109.93307
 569.48;13123.000;  -47.400;    0.000;13170.40000
 569.76;13020.200;  -53.467;    0.000;13073.66686
 570.03;13045.934;  -36.067;    0.000;13082.00026
 570.31;12967.934;  -40.467;    0.000;13008.40026
 570.59;13018.134;  -59.000;    0.000;13077.13379
 570.87;12989.333;  -32.200;    0.000;13021.53301
 571.15;12865.600;  -43.200;    0.000;12908.79961
 571.43;12835.134;  -43.600;    0.000;12878.73379
 571.71;12860.066;  -53.333;    0.000;12913.39974
 571.98;12773.200;  -40.733;    0.000;12813.93353
 572.26;12771.000;  -40.200;    0.000;12811.20000
 572.54;12773.134;  -45.133;    0.000;12818.26712
 572.82;12740.800;  -56.000;    0.000;12796.79980
 573.10;12576.134;  -50.333;    0.000;12626.46712
 573.38;12664.600;  -58.133;    0.000;12722.73294
 573.66;12565.066;  -55.667;    0.000;12620.73307
 573.93;12622.733;  -48.200;    0.000;12670.93340
 574.21;12585.533;  -64.400;    0.000;12649.93320
 574.49;12513.800;  -34.467;    0.000;12548.26647
 574.77;12486.667;  -52.200;    0.000;12538.86699
 575.05;12495.333;  -46.000;    0.000;12541.33301
 575.33;12369.134;  -49.867;    0.000;12419.00045
 575.60;12293.066;  -36.933;    0.000;12329.99974
 575.88;12343.467;  -40.533;    0.000;12384.00013
 576.16;12261.733;  -41.600;    0.000;12303.33340
 576.44;12187.667;  -46.467;    0.000;12234.13366
 576.72;12177.800;  -54.000;    0.000;12231.79980
 576.99;12141.733;  -56.467;    0.000;12198.20007
 577.27;12136.066;  -38.400;    0.000;12174.46641
 577.55;12044.667;  -17.733;    0.000;12062.40033
 577.83;12035.533;  -50.533;    0.000;12086.06654
 578.11;11942.600;  -46.400;    0.000;11988.99961
 578.38;11848.934;  -27.333;    0.000;11876.26693
 578.66;11818.733;  -54.000;    0.000;11872.73340
 578.94;11722.667;  -55.333;    0.000;11778.00032
 579.22;11691.333;  -63.933;    0.000;11755.26634
 579.50;11821.866;  -42.933;    0.000;11864.79955
 579.77;11645.667;  -51.867;    0.000;11697.53366
 580.05;11603.000;  -58.333;    0.000;11661.33333
 580.33;11569.533;  -51.667;    0.000;11621.19987
 580.61;11602.333;  -33.533;    0.000;11635.86634
 580.88;11542.267;  -45.400;    0.000;11587.66660
 581.16;11483.934;  -49.267;    0.000;11533.20026
 581.44;11380.200;  -42.933;    0.000;11423.13353
 581.72;11263.066;  -44.000;    0.000;11307.06641
 581.99;11350.467;  -30.733;    0.000;11381.20013
 582.27;11159.800;  -58.600;    0.000;11218.39980
 582.55;11222.267;  -53.867;    0.000;11276.13327
 582.83;11190.866;  -47.667;    0.000;11238.53288
 583.10;11076.066;  -43.867;    0.000;11119.93307
 583.38;11059.733;  -44.133;    0.000;11103.86673
 583.66;11077.467;  -44.333;    0.000;11121.80013
 583.94;10992.066;  -57.467;    0.000;11049.53307
 584.21;10932.333;  -49.533;    0.000;10981.86634
 584.49;10861.467;  -43.933;    0.000;10905.40013
 584.77;10804.200;  -68.467;    0.000;10872.66686
 585.05;10699.267;  -60.467;    0.000;10759.73327
 585.32;10703.667;  -40.000;    0.000;10743.66699
 585.60;10591.533;  -60.867;    0.000;10652.39987
 585.88;10579.467;  -49.667;    0.000;10629.13346
 586.16;10486.600;  -27.000;    0.000;10513.59961
 586.43;10468.000;  -29.867;    0.000;10497.86667
 586.71;10445.600;  -38.533;    0.000;10484.13294
 586.99;10334.400;  -59.400;    0.000;10393.80039
 587.26;10280.134;  -46.200;    0.000;10326.33379
 587.54;10303.667;  -30.133;    0.000;10333.80033
 587.82;10169.066;  -41.333;    0.000;10210.39974
 588.10;10055.800;  -44.600;    0.000;10100.39980
 588.37;10131.333;  -53.467;    0.000;10184.79967
 588.65; 9935.800;  -61.533;    0.000;9997.33314
 588.93; 9983.333;  -36.067;    0.000;10019.39967
 589.20; 9848.600;  -50.267;    0.000;9898.86628
 589.48; 9819.066;  -35.533;    0.000;9854.59974
 589.76; 9722.000;   -4.467;    0.000;9726.46667
 590.03; 9742.800;  -52.733;    0.000;9795.53314
 590.31; 9623.733;  -28.667;    0.000;9652.40006
 590.59; 9650.134;  -41.133;    0.000;9691.26712
 590.86; 9561.267;  -29.067;    0.000;9590.33327
 591.14; 9610.934;  -45.933;    0.000;9656.86693
 591.42; 9436.533;  -52.133;    0.000;9488.66654
 591.70; 9369.733;  -44.600;    0.000;9414.33340
 591.97; 9310.000;  -44.600;    0.000;9354.60000
 592.25; 9309.066;  -45.200;    0.000;9354.26641
 592.53; 9276.000;  -60.933;    0.000;9336.93333
 592.80; 9149.467;  -41.200;    0.000;9190.66680
 593.08; 9030.800;  -44.333;    0.000;9075.13314
 593.36; 9076.267;  -20.267;    0.000;9096.53327
 593.63; 9008.134;  -32.467;    0.000;9040.60046
 593.91; 8856.400;  -52.000;    0.000;8908.40039
 594.18; 8901.600;  -35.933;    0.000;8937.53294
 594.46; 8830.733;  -57.000;    0.000;8887.73340
 594.74; 8716.800;  -52.533;    0.000;8769.33314
 595.01; 8689.533;  -54.200;    0.000;8743.73320
 595.29; 8632.800;  -67.800;    0.000;8700.59981
 595.57; 8593.267;  -28.333;    0.000;8621.59994
 595.84; 8519.400;  -52.200;    0.000;8571.60039
 596.12; 8444.333;  -52.133;    0.000;8496.46634
 596.40; 8354.467;  -60.533;    0.000;8415.00013
 596.67; 8414.400;  -62.067;    0.000;8476.46706
 596.95; 8311.066;  -44.533;    0.000;8355.59974
 597.22; 8208.000;  -66.667;    0.000;8274.66666
 597.50; 8094.333;  -37.333;    0.000;8131.66683
 597.78; 8087.667;  -55.333;    0.000;8142.99984
 598.05; 8050.333;  -61.667;    0.000;8112.00016
 598.33; 8019.600;  -57.667;    0.000;8077.26677
 598.61; 7983.800;  -50.400;    0.000;8034.19981
 598.88; 7844.133;  -57.200;    0.000;7901.33330
 599.16; 7767.800;  -46.267;    0.000;7814.06647
 599.43; 7812.000;  -60.200;    0.000;7872.20000
 599.71; 7715.933;  -32.400;    0.000;7748.33311
 599.99; 7663.200;  -57.067;    0.000;7720.26686
 600.26; 7570.067;  -44.667;    0.000;7614.73356
 600.54; 7468.200;  -39.533;    0.000;7507.73353
 600.81; 7479.533;  -36.067;    0.000;7515.59987
 601.09; 7377.533;  -54.600;    0.000;7432.13320
 601.36; 7392.267;  -47.667;    0.000;7439.93327
 601.64; 7325.000;  -56.933;    0.000;7381.93333
 601.92; 7277.267;  -45.133;    0.000;7322.39994
 602.19; 7216.867;  -61.600;    0.000;7278.46670
 602.47; 7049.267;  -68.800;    0.000;7118.06660
 602.74; 7099.667;  -45.267;    0.000;7144.93317
 603.02; 7034.667;  -46.200;    0.000;7080.86650
 603.29; 7067.133;  -53.800;    0.000;7120.93330
 603.57; 6933.467;  -52.000;    0.000;6985.46680
 603.85; 6943.533;  -45.133;    0.000;6988.66654
 604.12; 6887.333;  -16.800;    0.000;6904.13350
 604.40; 6861.000;  -63.733;    0.000;6924.73333
 604.67; 6695.267;  -38.200;    0.000;6733.46660
 604.95; 6740.600;  -66.400;    0.000;6807.00010
 605.22; 6602.267;  -51.200;    0.000;6653.46660
 605.50; 6605.533;  -50.800;    0.000;6656.33320
 605.77; 6582.000;  -56.467;    0.000;6638.46667
 606.05; 6515.000;  -48.867;    0.000;6563.86666
 606.33; 6543.600;  -41.200;    0.000;6584.80010
 606.60; 6424.133;  -58.800;    0.000;6482.93330
 606.88; 6387.867;  -28.000;    0.000;6415.86670
 607.15; 6306.400;  -54.267;    0.000;6360.66657
 607.43; 6381.467;  -55.000;    0.000;6436.46680
 607.70; 6338.800;  -46.533;    0.000;6385.33314
 607.98; 6243.533;  -42.733;    0.000;6286.26654
 608.25; 6223.533;  -61.467;    0.000;6284.99987
 608.53; 6151.933;  -62.467;    0.000;6214.39977
 608.80; 6160.000;  -40.600;    0.000;6200.60000
 609.08; 6081.600;  -51.867;    0.000;6133.46676
 609.35; 6021.867;  -55.867;    0.000;6077.73336
 609.63; 6067.467;  -57.867;    0.000;6125.33346
 609.90; 6012.067;  -50.733;    0.000;6062.80023
 610.18; 5988.533;  -21.733;    0.000;6010.26654
 610.45; 6011.933;  -67.667;    0.000;6079.59977
 610.73; 5881.267;  -59.267;    0.000;5940.53327
 611.00; 5947.133;  -33.400;    0.000;5980.53330
 611.28; 5854.933;  -66.333;    0.000;5921.26644
 611.55; 5754.533;  -73.333;    0.000;5827.86654
 611.83; 5702.133;  -48.933;    0.000;5751.06664
 612.10; 5766.200;  -56.133;    0.000;5822.33353
 612.38; 5666.267;  -43.933;    0.000;5710.19994
 612.65; 5664.400;  -47.200;    0.000;5711.59990
 612.93; 5570.267;  -68.533;    0.000;5638.79993
 613.20; 5627.200;  -42.467;    0.000;5669.66686
 613.48; 5598.600;  -47.333;    0.000;5645.93343
 613.75; 5563.067;  -68.333;    0.000;5631.40023
 614.03; 5522.667;  -38.000;    0.000;5560.66650
 614.30; 5471.000;  -69.600;    0.000;5540.60000
 614.57; 5387.067;  -66.133;    0.000;5453.20023
 614.85; 5463.933;  -49.667;    0.000;5513.59977
 615.12; 5409.333;  -45.133;    0.000;5454.46683
 615.40; 5332.733;  -61.067;    0.000;5393.80006
 615.67; 5398.067;  -53.733;    0.000;5451.80023
 615.95; 5314.200;  -57.467;    0.000;5371.66686
 616.22; 5269.000;  -71.000;    0.000;5340.00000
 616.50; 5216.467;  -35.600;    0.000;5252.06680
 616.77; 5195.667;  -52.200;    0.000;5247.86650
 617.05; 5180.333;  -34.267;    0.000;5214.60016
 617.32; 5083.867;  -61.267;    0.000;5145.13337
 617.59; 5055.267;  -49.067;    0.000;5104.33327
 617.87; 5024.933;  -41.067;    0.000;5065.99977
 618.14; 4996.333;  -66.933;    0.000;5063.26683
 618.42; 4920.333;  -60.933;    0.000;4981.26683
 618.69; 4905.200;  -61.667;    0.000;4966.86686
 618.97; 4835.067;  -61.133;    0.000;4896.20023
 619.24; 4788.800;  -53.133;    0.000;4841.93314
 619.51; 4760.400;  -44.333;    0.000;4804.73323
 619.79; 4673.867;  -50.000;    0.000;4723.86670
 620.06; 4540.200;  -48.400;    0.000;4588.60020
 620.34; 4509.467;  -53.133;    0.000;4562.60013
 620.61; 4430.333;  -32.667;    0.000;4463.00016
 620.88; 4449.133;  -44.667;    0.000;4493.79997
 621.16; 4493.200;  -53.467;    0.000;4546.66686
 621.43; 4529.533;  -57.133;    0.000;4586.66654
 621.71; 4503.400;  -48.933;    0.000;4552.33324
 621.98; 4396.600;  -49.467;    0.000;4446.06676
 622.25; 4384.200;  -64.133;    0.000;4448.33353
 622.53; 4358.133;  -65.800;    0.000;4423.93330
 622.80; 4364.867;  -55.600;    0.000;4420.46670
 623.08; 4309.600;  -65.867;    0.000;4375.46677
 623.35; 4253.867;  -56.267;    0.000;4310.13337
 623.62; 4245.733;  -62.133;    0.000;4307.86673
 623.90; 4188.000;  -55.400;    0.000;4243.40000
 624.17; 4167.400;  -43.733;    0.000;4211.13324
 624.44; 4188.333;  -58.867;    0.000;4247.20016
 624.72; 4156.933;  -69.467;    0.000;4226.39977
 624.99; 4132.667;  -61.333;    0.000;4193.99984
 625.26; 4149.933;  -67.067;    0.000;4216.99977
 625.54; 4180.733;  -29.267;    0.000;4210.00006
 625.81; 4165.600;  -64.000;    0.000;4229.60010
 626.09; 4104.933;  -62.933;    0.000;4167.86644
 626.36; 4142.933;  -70.600;    0.000;4213.53310
 626.63; 4090.000;  -53.000;    0.000;4143.00000
 626.91; 4061.333;  -52.067;    0.000;4113.39992
 627.18; 4098.600;  -59.067;    0.000;4157.66676
 627.45; 4051.600;  -46.800;    0.000;4098.40010
 627.73; 4044.733;  -47.400;    0.000;4092.13340
 628.00; 4024.733;  -66.067;    0.000;4090.80006
 628.27; 4039.133;  -39.600;    0.000;4078.73330
 628.55; 4019.667;  -52.800;    0.000;4072.46675
 628.82; 3980.600;  -58.067;    0.000;4038.66676
 629.09; 3925.800;  -48.733;    0.000;3974.53338
 629.37; 3960.200;  -68.800;    0.000;4028.99995
 629.64; 3962.467;  -37.267;    0.000;3999.73322
 629.91; 3907.800;  -65.733;    0.000;3973.53338
 630.18; 3865.133;  -57.933;    0.000;3923.06664
 630.46; 3893.333;  -53.867;    0.000;3947.19992
 630.73; 3823.867;  -46.667;    0.000;3870.53337
 631.00; 3815.867;  -66.467;    0.000;3882.33337
 631.28; 3750.267;  -48.667;    0.000;3798.93327
 631.55; 3747.067;  -51.733;    0.000;3798.79998
 631.82; 3738.533;  -45.400;    0.000;3783.93345
 632.10; 3764.400;  -42.867;    0.000;3807.26657
 632.37; 3687.533;  -63.133;    0.000;3750.66678
 632.64; 3718.467;  -28.933;    0.000;3747.39989
 632.91; 3734.800;  -36.267;    0.000;3771.06672
 633.19; 3705.733;  -55.333;    0.000;3761.06673
 633.46; 3684.533;  -58.533;    0.000;3743.06678
 633.73; 3720.933;  -28.733;    0.000;3749.66668
 634.01; 3669.867;  -40.533;    0.000;3710.40003
 634.28; 3702.133;  -38.333;    0.000;3740.46663
 634.55; 3726.933;  -20.267;    0.000;3747.20002
 634.82; 3658.733;  -45.800;    0.000;3704.53340
 635.10; 3708.400;  -47.867;    0.000;3756.26657
 635.37; 3720.600;  -51.533;    0.000;3772.13343
 635.64; 3664.267;  -44.733;    0.000;3708.99994
 635.91; 3667.267;  -60.533;    0.000;3727.79993
 636.19; 3678.800;  -63.600;    0.000;3742.40005
 636.46; 3711.333;  -56.267;    0.000;3767.59992
 636.73; 3746.467;  -37.133;    0.000;3783.59989
 637.00; 3723.733;  -78.067;    0.000;3801.80006
 637.28; 3726.667;  -66.067;    0.000;3792.73341
 637.55; 3730.867;  -37.133;    0.000;3768.00003
 637.82; 3624.533;  -42.200;    0.000;3666.73345
 638.09; 3591.933;  -55.867;    0.000;3647.80001
 638.37; 3545.267;  -75.600;    0.000;3620.86660
 638.64; 3514.533;  -72.800;    0.000;3587.33345
 638.91; 3478.800;  -53.333;    0.000;3532.13338
 639.18; 3517.333;  -51.467;    0.000;3568.79992
 639.46; 3485.933;  -58.067;    0.000;3544.00002
 639.73; 3463.533;  -59.867;    0.000;3523.40011
 640.00; 3450.667;  -62.733;    0.000;3513.40008
 640.27; 3390.333;  -56.000;    0.000;3446.33325
 640.54; 3373.733;  -49.067;    0.000;3422.80006
 640.82; 3382.000;  -56.000;    0.000;3438.00000
 641.09; 3384.133;  -57.867;    0.000;3441.99997
 641.36; 3326.533;  -75.733;    0.000;3402.26678
 641.63; 3264.067;  -50.467;    0.000;3314.53332
 641.91; 3261.600;  -50.333;    0.000;3311.93343
 642.18; 3177.133;  -58.400;    0.000;3235.53330
 642.45; 3092.200;  -77.067;    0.000;3169.26662
 642.72; 3125.733;  -62.400;    0.000;3188.13340
 642.99; 3107.800;  -44.667;    0.000;3152.46672
 643.26; 3121.200;  -60.533;    0.000;3181.73328
 643.54; 3058.733;  -52.333;    0.000;3111.06673
 643.81; 3010.667;  -69.000;    0.000;3079.66675
 644.08; 2992.667;  -41.200;    0.000;3033.86675
 644.35; 3031.067;  -44.800;    0.000;3075.86665
 644.62; 2931.000;  -59.067;    0.000;2990.06667
 644.90; 2920.067;  -51.933;    0.000;2971.99998
 645.17; 2895.333;  -54.867;    0.000;2950.19992
 645.44; 2906.600;  -60.667;    0.000;2967.26677
 645.71; 2830.400;  -55.000;    0.000;2885.39990
 645.98; 2892.267;  -64.400;    0.000;2956.66660
 646.25; 2837.400;  -56.400;    0.000;2893.79990
 646.53; 2789.933;  -65.800;    0.000;2855.73335
 646.80; 2783.800;  -47.200;    0.000;2831.00005
 647.07; 2794.067;  -49.933;    0.000;2843.99998
 647.34; 2754.733;  -61.133;    0.000;2815.86673
 647.61; 2759.667;  -36.267;    0.000;2795.93341
 647.88; 2755.800;  -25.867;    0.000;2781.66672
 648.15; 2684.733;  -65.933;    0.000;2750.66673
 648.43; 2656.867;  -36.400;    0.000;2693.26670
 648.70; 2641.333;  -69.467;    0.000;2710.79992
 648.97; 2710.733;  -66.067;    0.000;2776.80006
 649.24; 2644.600;  -48.600;    0.000;2693.20010
 649.51; 2628.000;  -72.400;    0.000;2700.40000
 649.78; 2607.133;  -82.267;    0.000;2689.39997
 650.05; 2573.533;  -36.867;    0.000;2610.40011
 650.32; 2691.267;   17.333;    0.000;2673.93327
 650.60; 2524.800;  -55.467;    0.000;2580.26672
 650.87; 2572.067;  -53.067;    0.000;2625.13332
 651.14; 2493.667;  -80.400;    0.000;2574.06675
 651.41; 2521.733;  -69.400;    0.000;2591.13340
 651.68; 2511.733;  -56.467;    0.000;2568.20007
 651.95; 2494.000;  -60.800;    0.000;2554.80000
 652.22; 2512.733;  -53.667;    0.000;2566.40007
 652.49; 2438.600;  -71.533;    0.000;2510.13343
 652.76; 2412.000;  -61.133;    0.000;2473.13334
 653.03; 2390.667;  -62.000;    0.000;2452.66675
 653.31; 2427.400;  -44.333;    0.000;2471.73323
 653.58; 2387.200;  -65.533;    0.000;2452.73328
 653.85; 2365.533;  -64.933;    0.000;2430.46678
 654.12; 2388.667;  -41.667;    0.000;2430.33342
 654.39; 2364.600;  -49.667;    0.000;2414.26677
 654.66; 2305.267;  -22.733;    0.000;2327.99994
 654.93; 2349.000;  -36.600;    0.000;2385.60000
 655.20; 2307.467;  -84.133;    0.000;2391.59988
 655.47; 2269.267;  -63.667;    0.000;2332.93327
 655.74; 2318.400;  -41.867;    0.000;2360.26657
 656.01; 2219.533;  -72.333;    0.000;2291.86678
 656.28; 2241.267;  -70.200;    0.000;2311.46660
 656.55; 2160.933;  -43.133;    0.000;2204.06668
 656.83; 2188.267;  -66.933;    0.000;2255.19994
 657.10; 2143.533;  -77.133;    0.000;2220.66678
 657.37; 2186.267;  -37.067;    0.000;2223.33327
 657.64; 2163.600;  -56.800;    0.000;2220.40010
 657.91; 2139.400;  -44.467;    0.000;2183.86657
 658.18; 2105.733;  -47.133;    0.000;2152.86673
 658.45; 2135.133;  -62.733;    0.000;2197.86663
 658.72; 2074.733;  -64.933;    0.000;2139.66673
 658.99; 2040.733;  -64.400;    0.000;2105.13328
 659.26; 2104.733;  -63.400;    0.000;2168.13340
 659.53; 2065.200;  -67.000;    0.000;2132.19995
 659.80; 2038.933;  -63.667;    0.000;2102.60002
 660.07; 2063.667;  -69.800;    0.000;2133.46675
 660.34; 1993.600;  -56.067;    0.000;2049.66664
 660.61; 2016.933;  -68.000;    0.000;2084.93335
 660.88; 1962.267;  -59.533;    0.000;2021.80006
 661.15; 1974.200;  -65.067;    0.000;2039.26662
 661.42; 1990.067;  -48.067;    0.000;2038.13332
 661.69; 1997.933;  -76.933;    0.000;2074.86668
 661.96; 1925.867;  -77.467;    0.000;2003.33337
 662.23; 1892.667;  -69.800;    0.000;1962.46663
 662.50; 1903.533;  -65.200;    0.000;1968.73332
 662.77; 1909.533;  -53.867;    0.000;1963.39999
 663.04; 1869.400;  -63.933;    0.000;1933.33336
 663.31; 1863.733;  -75.467;    0.000;1939.19994
 663.58; 1890.733;  -55.000;    0.000;1945.73328
 663.85; 1864.933;  -66.467;    0.000;1931.40002
 664.12; 1829.267;  -62.400;    0.000;1891.66673
 664.39; 1758.867;  -53.600;    0.000;1812.46670
 664.66; 1788.867;  -59.200;    0.000;1848.06670
 664.93; 1775.400;  -75.733;    0.000;1851.13335
 665.20; 1758.200;  -72.200;    0.000;1830.39995
 665.47; 1754.600;  -55.467;    0.000;1810.06664
 665.74; 1730.400;  -69.067;    0.000;1799.46669
 666.01; 1744.933;  -49.533;    0.000;1794.46668
 666.28; 1724.067;  -66.867;    0.000;1790.93332
 666.55; 1675.200;  -65.067;    0.000;1740.26662
 666.82; 1665.200;  -68.600;    0.000;1733.79995
 667.09; 1677.267;  -70.933;    0.000;1748.20006
 667.36; 1654.667;  -48.400;    0.000;1703.06663
 667.63; 1687.933;  -56.400;    0.000;1744.33335
 667.90; 1659.600;  -75.000;    0.000;1734.59998
 668.16; 1648.733;  -63.000;    0.000;1711.73328
 668.43; 1595.400;  -61.400;    0.000;1656.80003
 668.70; 1647.133;  -41.533;    0.000;1688.66663
 668.97; 1582.933;  -53.667;    0.000;1636.60002
 669.24; 1604.200;  -45.667;    0.000;1649.86662
 669.51; 1562.600;  -64.800;    0.000;1627.39998
 669.78; 1591.267;  -60.067;    0.000;1651.33339
 670.05; 1592.400;  -78.600;    0.000;1671.00002
 670.32; 1565.067;  -67.333;    0.000;1632.39999
 670.59; 1534.133;  -61.067;    0.000;1595.19997
 670.86; 1522.400;  -48.200;    0.000;1570.60003
 671.13; 1495.667;  -62.133;    0.000;1557.79996
 671.40; 1498.533;  -57.800;    0.000;1556.33332
 671.67; 1498.133;  -38.333;    0.000;1536.46663
 671.93; 1455.800;  -57.400;    0.000;1513.20005
 672.20; 1491.133;  -67.733;    0.000;1558.86663
 672.47; 1463.333;  -67.267;    0.000;1530.60004
 672.74; 1461.267;  -77.267;    0.000;1538.53339
 673.01; 1403.333;  -77.333;    0.000;1480.66671
 673.28; 1423.400;  -48.600;    0.000;1472.00002
 673.55; 1386.867;  -81.067;    0.000;1467.93336
 673.82; 1406.000;  -65.867;    0.000;1471.86667
 674.09; 1419.267;  -58.667;    0.000;1477.93339
 674.35; 1348.333;  -76.000;    0.000;1424.33337
 674.62; 1408.867;  -72.600;    0.000;1481.46670
 674.89; 1370.533;  -56.733;    0.000;1427.26666
 675.16; 1320.000;  -73.133;    0.000;1393.13333
 675.43; 1318.467;  -63.600;    0.000;1382.06667
 675.70; 1322.200;  -25.000;    0.000;1347.19995
 675.97; 1302.933;  -61.000;    0.000;1363.93335
 676.24; 1342.867;  -64.733;    0.000;1407.60003
 676.50; 1263.333;  -82.133;    0.000;1345.46671
 676.77; 1254.133;  -70.467;    0.000;1324.59997
 677.04; 1276.533;  -53.933;    0.000;1330.46666
 677.31; 1276.800;  -83.200;    0.000;1360.00005
 677.58; 1235.667;  -79.667;    0.000;1315.33329
 677.85; 1238.400;  -58.267;    0.000;1296.66669
 678.12; 1167.867;  -63.733;    0.000;1231.60003
 678.38; 1261.200;  -62.067;    0.000;1323.26662
 678.65; 1196.467;  -82.867;    0.000;1279.33334
 678.92; 1183.800;  -63.000;    0.000;1246.80005
 679.19; 1214.667;  -31.533;    0.000;1246.19996
 679.46; 1175.600;  -68.000;    0.000;1243.59998
 679.73; 1207.800;  -63.933;    0.000;1271.73338
 679.99; 1165.067;  -72.133;    0.000;1237.19998
 680.26; 1114.867;  -77.400;    0.000;1192.26670
 680.53; 1130.200;  -71.067;    0.000;1201.26662
 680.80; 1138.000;  -66.533;    0.000;1204.53333
 681.07; 1138.467;  -61.333;    0.000;1199.80001
 681.33; 1103.133;  -54.667;    0.000;1157.79997
 681.60; 1129.933;  -39.933;    0.000;1169.86668
 681.87; 1096.333;  -63.800;    0.000;1160.13337
 682.14; 1105.733;  -58.800;    0.000;1164.53328
 682.41; 1069.867;  -67.333;    0.000;1137.20004
 682.67; 1095.733;  -64.600;    0.000;1160.33327
 682.94; 1082.533;  -79.267;    0.000;1161.80000
 683.21; 1064.267;  -74.600;    0.000;1138.86672
 683.48; 1047.200;  -63.133;    0.000;1110.33329
 683.75; 1030.267;  -59.600;    0.000;1089.86672
 684.01; 1056.333;  -61.400;    0.000;1117.73338
 684.28;  978.333;  -82.733;    0.000;1061.06664
 684.55;  993.067;  -53.867;    0.000;1046.93332
 684.82;  990.467;  -77.467;    0.000;1067.93334
 685.09;  994.733;  -46.333;    0.000;1041.06667
 685.35;  963.933;  -64.000;    0.000;1027.93335
 685.62;  996.200;  -53.267;    0.000;1049.46668
 685.89;  961.733;  -64.667;    0.000;1026.40000
 686.16;  928.933;  -67.067;    0.000;996.00002
 686.42;  936.267;  -55.600;    0.000;991.86666
 686.69;  948.067;  -52.467;    0.000;1000.53332
 686.96;  930.800;  -67.467;    0.000;998.26665
 687.23;  962.200;  -45.400;    0.000;1007.60001
 687.49;  930.467;  -41.600;    0.000;972.06667
 687.76;  893.667;  -85.733;    0.000;979.40002
 688.03;  906.333;  -64.867;    0.000;971.19998
 688.30;  864.267;  -72.000;    0.000;936.26666
 688.56;  855.800;  -80.333;    0.000;936.13332
 688.83;  854.600;  -85.467;    0.000;940.06664
 689.10;  908.133;  -83.200;    0.000;991.33336
 689.37;  881.267;  -82.867;    0.000;964.13333
 689.63;  860.267;  -68.400;    0.000;928.66666
 689.90;  851.733;  -56.467;    0.000;908.20000
 690.17;  840.067;  -67.400;    0.000;907.46665
 690.44;  801.000;  -69.000;    0.000;870.00000
 690.70;  815.867;  -71.200;    0.000;887.06664
 690.97;  811.800;  -57.000;    0.000;868.79999
 691.24;  811.533;  -55.000;    0.000;866.53333
 691.50;  775.933;  -71.733;    0.000;847.66668
 691.77;  757.533;  -91.467;    0.000;848.99999
 692.04;  768.667;  -56.867;    0.000;825.53335
 692.30;  772.867;  -84.400;    0.000;857.26664
 692.57;  737.333;  -62.533;    0.000;799.86665
 692.84;  771.467;  -83.933;    0.000;855.40001
 693.11;  742.933;  -59.200;    0.000;802.13335
 693.37;  753.200;  -59.867;    0.000;813.06668
 693.64;  713.733;  -82.600;    0.000;796.33334
 693.91;  731.733;  -77.667;    0.000;809.40000
 694.17;  725.067;  -63.000;    0.000;788.06665
 694.44;  720.533;  -58.400;    0.000;778.93333
 694.71;  686.733;  -71.067;    0.000;757.80000
 694.97;  702.000;  -54.067;    0.000;756.06667
 695.24;  711.933;  -83.133;    0.000;795.06668
 695.51;  681.800;  -72.467;    0.000;754.26665
 695.77;  669.533;  -73.733;    0.000;743.26665
 696.04;  668.267;  -66.200;    0.000;734.46666
 696.31;  648.000;  -62.800;    0.000;710.80000
 696.57;  678.267;  -50.133;    0.000;728.40000
 696.84;  625.933;  -46.333;    0.000;672.26668
 697.11;  630.933;  -67.533;    0.000;698.46668
 697.37;  662.133;  -60.467;    0.000;722.60003
 697.64;  601.733;  -73.333;    0.000;675.06667
 697.91;  625.733;  -60.067;    0.000;685.80000
 698.17;  581.867;  -77.133;    0.000;658.99997
 698.44;  600.933;  -76.733;    0.000;677.66668
 698.71;  604.533;  -61.667;    0.000;666.19999
 698.97;  576.533;  -59.267;    0.000;635.79999
 699.24;  585.200;  -38.600;    0.000;623.80001
 699.50;  565.133;  -66.333;    0.000;631.46670
 699.77;  575.467;  -43.467;    0.000;618.93334
 700.04;  554.733;  -55.600;    0.000;610.33334
 700.30;  525.467;  -69.200;    0.000;594.66667
 700.57;  528.000;  -70.133;    0.000;598.13333
 700.84;  550.133;  -56.333;    0.000;606.46669
 701.10;  507.600;  -79.733;    0.000;587.33334
 701.37;  535.467;  -63.733;    0.000;599.20001
 701.63;  498.800;  -65.733;    0.000;564.53332
 701.90;  497.533;  -51.667;    0.000;549.19999
 702.17;  517.867;  -24.400;    0.000;542.26664
 702.43;  477.800;  -70.333;    0.000;548.13332
 702.70;  463.467;  -48.733;    0.000;512.20001
 702.96;  478.000;  -76.800;    0.000;554.80000
 703.23;  433.000;  -79.733;    0.000;512.73333
 703.50;  441.667;  -72.933;    0.000;514.59999
 703.76;  427.667;  -60.200;    0.000;487.86666
 704.03;  439.467;  -64.867;    0.000;504.33334
 704.29;  408.333;  -57.733;    0.000;466.06668
 704.56;  393.600;  -77.667;    0.000;471.26667
 704.82;  418.467;  -63.000;    0.000;481.46667
 705.09;  426.000;  -59.533;    0.000;485.53333
 705.36;  379.867;  -78.067;    0.000;457.93333
 705.62;  398.933;  -31.333;    0.000;430.26665
 705.89;  372.267;  -68.533;    0.000;440.80000
 706.15;  366.467;  -57.200;    0.000;423.66668
 706.42;  381.667;  -56.333;    0.000;437.99999
 706.68;  341.933;  -66.800;    0.000;408.73332
 706.95;  372.600;  -80.867;    0.000;453.46667
 707.21;  312.000;  -75.667;    0.000;387.66666
 707.48;  347.400;  -58.533;    0.000;405.93333
 707.75;  337.000;  -85.600;    0.000;422.60000
 708.01;  337.667;  -70.067;    0.000;407.73332
 708.28;  353.133;  -80.000;    0.000;433.13333
 708.54;  320.267;  -60.600;    0.000;380.86666
 708.81;  319.333;  -49.267;    0.000;368.60001
 709.07;  309.800;  -71.333;    0.000;381.13332
 709.34;  297.533;  -73.733;    0.000;371.26665
 709.60;  293.467;  -88.000;    0.000;381.46667
 709.87;  309.667;  -61.867;    0.000;371.53332
 710.13;  265.400;  -59.667;    0.000;325.06666
 710.40;  278.600;  -79.800;    0.000;358.40001
 710.66;  284.533;  -71.267;    0.000;355.80000
 710.93;  272.067;  -65.733;    0.000;337.80001
 711.19;  267.667;  -75.000;    0.000;342.66666
 711.46;  287.400;  -58.000;    0.000;345.39999
 711.72;  241.800;  -66.667;    0.000;308.46667
 711.99;  246.467;  -76.133;    0.000;322.59999
 712.25;  276.133;  -59.867;    0.000;336.00000
 712.52;  270.067;  -51.400;    0.000;321.46668
 712.78;  263.667;  -65.200;    0.000;328.86665
 713.05;  251.000;  -65.533;    0.000;316.53333
 713.31;  263.133;  -59.267;    0.000;322.40000
 713.58;  255.733;  -67.200;    0.000;322.93333
 713.84;  240.400;  -64.067;    0.000;304.46666
 714.11;  247.733;  -76.333;    0.000;324.06667
 714.37;  260.267;  -51.867;    0.000;312.13333
 714.64;  214.467;  -80.200;    0.000;294.66666
 714.90;  229.400;  -71.267;    0.000;300.66666
 715.17;  232.733;  -76.667;    0.000;309.40000
 715.43;  221.133;  -75.600;    0.000;296.73333
 715.70;  209.200;  -68.867;    0.000;278.06667
 715.96;  220.733;  -67.067;    0.000;287.80000
 716.22;  200.067;  -70.667;    0.000;270.73333
 716.49;  224.533;  -71.733;    0.000;296.26667
 716.75;  202.400;  -96.000;    0.000;298.39999
 717.02;  211.133;  -50.200;    0.000;261.33333
 717.28;  217.133;  -76.267;    0.000;293.40000
 717.55;  197.800;  -82.067;    0.000;279.86667
 717.81;  228.800;  -69.067;    0.000;297.86667
 718.08;  193.200;  -62.333;    0.000;255.53333
 718.34;  198.667;  -86.133;    0.000;284.80000
 718.60;  235.933;  -54.867;    0.000;290.80000
 718.87;  225.267;  -63.600;    0.000;288.86666
 719.13;  202.600;  -72.733;    0.000;275.33334
 719.40;  215.533;  -58.067;    0.000;273.60001
 719.66;  220.000;  -75.533;    0.000;295.53333
 719.93;  222.200;  -74.467;    0.000;296.66666
 720.19;  205.267;  -85.533;    0.000;290.80000
 720.45;  229.667;  -60.867;    0.000;290.53334
 720.72;  219.733;  -68.600;    0.000;288.33334
 720.98;  204.333;  -55.800;    0.000;260.13333
 721.25;  188.333;  -85.067;    0.000;273.39999
 721.51;  192.600;  -82.467;    0.000;275.06667
 721.77;  217.667;  -66.333;    0.000;284.00001
 722.04;  207.600;  -42.067;    0.000;249.66667
 722.30;  207.533;  -50.533;    0.000;258.06667
 722.57;  204.467;  -60.067;    0.000;264.53333
 722.83;  197.133;  -77.200;    0.000;274.33333
 723.09;  190.867;  -92.733;    0.000;283.60000
 723.36;  176.133;  -93.867;    0.000;270.00000
 723.62;  201.533;  -64.933;    0.000;266.46667
 723.88;  193.067;  -69.600;    0.000;262.66666
 724.15;  188.200;  -62.400;    0.000;250.60000
 724.41;  173.600;  -77.067;    0.000;250.66667
 724.68;  195.667;  -70.400;    0.000;266.06667
 724.94;  218.533;  -47.867;    0.000;266.40001
 725.20;  189.600;  -71.800;    0.000;261.40001
 725.47;  176.267;  -78.800;    0.000;255.06667
 725.73;  182.133;  -74.600;    0.000;256.73333
 725.99;  185.267;  -61.800;    0.000;247.06666
 726.26;  192.467;  -67.933;    0.000;260.39999
 726.52;  193.867;  -67.133;    0.000;261.00000
 726.78;  182.533;  -66.067;    0.000;248.60001
 727.05;  193.400;  -63.867;    0.000;257.26666
 727.31;  174.333;  -76.067;    0.000;250.39999
 727.57;  193.667;  -74.467;    0.000;268.13334
 727.84;  198.467;  -55.333;    0.000;253.79999
 728.10;  173.533;  -75.467;    0.000;249.00001
 728.36;  182.133;  -40.467;    0.000;222.60000
 728.63;  181.867;  -54.800;    0.000;236.66667
 728.89;  156.533;  -69.200;    0.000;225.73334
 729.15;  168.133;  -65.067;    0.000;233.20000
 729.42;  175.467;  -79.800;    0.000;255.26666
 729.68;  150.267;  -69.333;    0.000;219.60000
 729.94;  151.267;  -79.400;    0.000;230.66666
 730.21;  159.067;  -69.667;    0.000;228.73333
 730.47;  172.067;  -78.867;    0.000;250.93333
 730.73;  162.667;  -63.133;    0.000;225.80001
 731.00;  146.267;  -51.333;    0.000;197.59999
 731.26;  150.133;  -65.667;    0.000;215.80000
 731.52;  147.733;  -62.267;    0.000;210.00000
 731.78;  144.933;  -85.133;    0.000;230.06667
 732.05;  152.200;  -67.333;    0.000;219.53333
 732.31;  146.067;  -73.133;    0.000;219.20000
 732.57;  167.933;  -73.133;    0.000;241.06667
 732.84;  148.200;  -82.000;    0.000;230.20000
 733.10;  157.400;  -78.600;    0.000;235.99999
 733.36;  151.067;  -76.333;    0.000;227.40000
 733.62;  135.867;  -71.000;    0.000;206.86667
 733.89;  145.533;  -74.667;    0.000;220.20000
 734.15;  139.133;  -77.133;    0.000;216.26666
 734.41;  148.400;  -62.467;    0.000;210.86666
 734.67;  133.533;  -74.467;    0.000;208.00001
 734.94;  140.867;  -74.933;    0.000;215.80000
 735.20;  124.933;  -71.733;    0.000;196.66666
 735.46;  151.667;  -60.200;    0.000;211.86667
 735.73;  151.800;  -64.533;    0.000;216.33334
 735.99;  129.000;  -61.000;    0.000;190.00000
 736.25;  121.667;  -48.267;    0.000;169.93333
 736.51;  139.467;  -91.133;    0.000;230.59999
 736.77;  135.867;  -73.333;    0.000;209.20000
 737.04;  130.267;  -65.267;    0.000;195.53333
 737.30;  133.333;  -72.400;    0.000;205.73333
 737.56;  143.400;  -67.733;    0.000;211.13332
 737.82;  115.933;  -76.533;    0.000;192.46667
 738.09;  114.267;  -74.800;    0.000;189.06667
 738.35;  116.867;  -88.733;    0.000;205.60000
 738.61;  120.600;  -56.467;    0.000;177.06667
 738.87;  127.600;  -71.533;    0.000;199.13333
 739.14;  104.000;  -69.533;    0.000;173.53333
 739.40;  105.000;  -77.467;    0.000;182.46667
 739.66;  110.733;  -80.267;    0.000;191.00000
 739.92;  112.733;  -80.333;    0.000;193.06667
 740.18;  120.467;  -61.267;    0.000;181.73333
 740.45;   88.267;  -83.333;    0.000;171.60001
 740.71;  110.867;  -37.467;    0.000;148.33334
 740.97;  109.200;  -61.200;    0.000;170.40000
 741.23;  109.000;  -68.600;    0.000;177.60000
 741.49;  117.467;  -75.933;    0.000;193.40000
 741.76;   83.867;  -96.400;    0.000;180.26667
 742.02;  102.533;  -73.867;    0.000;176.40000
 742.28;  112.400;  -50.400;    0.000;162.80000
 742.54;   90.467;  -64.133;    0.000;154.60000
 742.80;   88.133;  -78.400;    0.000;166.53333
 743.06;  102.800;  -70.000;    0.000;172.80000
 743.33;  100.800;  -60.067;    0.000;160.86667
 743.59;   74.467;  -92.000;    0.000;166.46667
 743.85;   69.667;  -63.667;    0.000;133.33333
 744.11;   93.333;  -75.600;    0.000;168.93333
 744.37;   89.400;  -62.000;    0.000;151.40000
 744.63;   96.000;  -66.933;    0.000;162.93333
 744.90;   76.400;  -88.333;    0.000;164.73334
 745.16;   93.600;  -76.933;    0.000;170.53333
 745.42;   72.533;  -72.133;    0.000;144.66666
 745.68;  103.133;  -85.000;    0.000;188.13333
 745.94;   87.667;  -47.333;    0.000;135.00000
 746.20;   81.400;  -68.867;    0.000;150.26667
 746.46;  107.800;  -67.467;    0.000;175.26667
 746.72;   75.533;  -56.533;    0.000;132.06667
 746.99;   58.800;  -66.400;    0.000;125.20000
 747.25;   85.000;  -62.267;    0.000;147.26667
 747.51;   38.200;  -77.667;    0.000;115.86666
 747.77;   69.800;  -81.200;    0.000;151.00000
 748.03;   49.400;  -82.667;    0.000;132.06667
 748.29;   76.733;  -66.200;    0.000;142.93333
 748.55;   72.333;  -79.267;    0.000;151.60001
 748.81;   45.600;  -77.400;    0.000;123.00000
 749.08;   84.933;  -67.600;    0.000;152.53333
 749.34;   87.267;  -57.133;    0.000;144.40001
 749.60;   67.200;  -73.333;    0.000;140.53333
 749.86;   77.200;  -73.333;    0.000;150.53333
 750.12;   70.867;  -63.933;    0.000;134.80000
 750.38;   69.533;  -77.600;    0.000;147.13333
 750.64;   46.867;  -70.800;    0.000;117.66667
 750.90;   61.933;  -70.733;    0.000;132.66666
 751.16;   38.733;  -87.133;    0.000;125.86666
 751.42;   52.333;  -86.467;    0.000;138.80000
 751.68;   63.067;  -49.933;    0.000;113.00000
 751.95;   30.867;  -94.933;    0.000;125.80000
 752.21;   32.333;  -76.800;    0.000;109.13334
 752.47;   39.067;  -97.533;    0.000;136.60000
 752.73;   22.667;  -76.800;    0.000;99.46667
 752.99;   45.600;  -69.267;    0.000;114.86667
 753.25;   34.067;  -80.933;    0.000;115.00000
 753.51;   31.533;  -87.267;    0.000;118.80000
 753.77;   39.933;  -74.600;    0.000;114.53333
 754.03;   31.067;  -88.467;    0.000;119.53333
 754.29;   30.200;  -64.667;    0.000;94.86666
 754.55;   30.200;  -72.267;    0.000;102.46667
 754.81;   21.333;  -64.667;    0.000;86.00000
 755.07;   28.133;  -77.400;    0.000;105.53333
 755.33;   25.267;  -65.067;    0.000;90.33333
 755.59;   21.467;  -79.267;    0.000;100.73334
 755.85;   19.267;  -68.333;    0.000;87.60000
 756.11;   23.400;  -89.667;    0.000;113.06666
 756.37;   33.867;  -85.800;    0.000;119.66667
 756.63;   25.600;  -52.067;    0.000;77.66667
 756.89;   -7.933;  -76.133;    0.000;68.20000
 757.15;   16.000;  -63.600;    0.000;79.60000
 757.41;   52.667;  -38.467;    0.000;91.13334
 757.68;   18.133;  -72.000;    0.000;90.13333
 757.94;   27.267;  -64.667;    0.000;91.93333
 758.20;   26.400;  -62.867;    0.000;89.26666
 758.46;    8.267;  -88.600;    0.000;96.86666
 758.72;   15.533;  -81.600;    0.000;97.13333
 758.98;   23.733;  -52.267;    0.000;76.00000
 759.24;    5.000;  -69.867;    0.000;74.86667
 759.50;   36.933;  -75.400;    0.000;112.33334
 759.76;   28.733;  -59.600;    0.000;88.33333
 760.02;   19.800;  -73.200;    0.000;93.00000
 760.27;   30.933;  -78.400;    0.000;109.33333
 760.53;   37.533;  -59.600;    0.000;97.13333
 760.79;   31.933;  -66.267;    0.000;98.20000
 761.05;   13.000;  -56.200;    0.000;69.20000
 761.31;   31.200;  -63.067;    0.000;94.26667
 761.57;   17.733;  -47.533;    0.000;65.26667
 761.83;    7.600;  -75.333;    0.000;82.93334
 762.09;   -8.067;  -75.933;    0.000;67.86667
 762.35;   10.733;  -82.733;    0.000;93.46666
 762.61;   20.067;  -61.867;    0.000;81.93333
 762.87;   22.800;  -52.933;    0.000;75.73333
 763.13;   -3.267;  -84.867;    0.000;81.60000
 763.39;   66.333;  -63.000;    0.000;129.33334
 763.65;  -11.333;  -80.733;    0.000;69.40000
 763.91;   -9.067;  -69.933;    0.000;60.86667
 764.17;   17.000;  -58.667;    0.000;75.66667
 764.43;    0.267;  -63.933;    0.000;64.20000
 764.69;  -16.467;  -78.933;    0.000;62.46667
 764.95;   21.400;  -62.533;    0.000;83.93333
 765.21;    3.600;  -80.533;    0.000;84.13333
 765.47;   18.600;  -93.000;    0.000;111.60000
 765.73;   16.067;  -71.267;    0.000;87.33334
 765.98;    2.667;  -70.267;    0.000;72.93334
 766.24;  -16.867;  -89.800;    0.000;72.93334
 766.50;  -14.800;  -65.000;    0.000;50.20000
 766.76;    0.533;  -68.933;    0.000;69.46667
 767.02;    0.200;  -76.067;    0.000;76.26667
 767.28;   -1.600;  -72.000;    0.000;70.40000
 767.54;  -11.933;  -70.800;    0.000;58.86667
 767.80;   -6.800;  -74.267;    0.000;67.46667
 768.06;    0.467;  -69.800;    0.000;70.26667
 768.32;    4.000;  -56.467;    0.000;60.46667
 768.58;    2.067;  -68.267;    0.000;70.33334
 768.83;  -21.800;  -79.667;    0.000;57.86666
 769.09;   -6.667;  -80.133;    0.000;73.46666
 769.35;   11.933;  -67.200;    0.000;79.13333
 769.61;    3.400;  -68.600;    0.000;72.00000
 769.87;   -4.067;  -67.200;    0.000;63.13333
 770.13;   -2.133;  -60.200;    0.000;58.06667
 770.39;  -23.467;  -88.000;    0.000;64.53333
 770.65;    4.533;  -68.600;    0.000;73.13333
 770.90;  -27.800;  -92.800;    0.000;65.00000
 771.16;  -11.867;  -65.067;    0.000;53.20000
 771.42;  -13.267;  -86.800;    0.000;73.53334
 771.68;  -26.800;  -91.400;    0.000;64.60000
 771.94;    0.467;  -76.600;    0.000;77.06667
 772.20;  -16.867;  -72.600;    0.000;55.73333
 772.46;  -28.067;  -95.133;    0.000;67.06666
 772.71;  -15.067;  -74.200;    0.000;59.13333
 772.97;  -11.133;  -61.467;    0.000;50.33333
 773.23;  -18.200;  -80.467;    0.000;62.26667
 773.49;   17.733;  -60.800;    0.000;78.53333
 773.75;  -20.067;  -93.467;    0.000;73.40000
 774.01;  -29.067;  -80.000;    0.000;50.93333
 774.26;  -27.800;  -82.733;    0.000;54.93333
 774.52;   16.733;  -55.933;    0.000;72.66667
 774.78;  -20.133;  -68.533;    0.000;48.40000
 775.04;   13.400;  -39.267;    0.000;52.66667
 775.30;   -7.733;  -28.600;    0.000;20.86667
 775.56;  -13.467;  -76.867;    0.000;63.40000
 775.81;  -11.933;  -63.867;    0.000;51.93333
 776.07;  -30.000;  -79.867;    0.000;49.86667
 776.33;  -12.733;  -74.533;    0.000;61.80000
 776.59;  -29.200;  -83.467;    0.000;54.26667
 776.85;  -32.667;  -79.800;    0.000;47.13334
 777.10;  -23.200;  -76.933;    0.000;53.73333
 777.36;  -30.733;  -86.933;    0.000;56.20000
 777.62;  -12.267;  -74.800;    0.000;62.53334
 777.88;  -12.800;  -89.067;    0.000;76.26667
 778.14;  -11.733;  -67.933;    0.000;56.20000
 778.39;  -20.467;  -75.267;    0.000;54.80000
 778.65;  -28.467;  -63.733;    0.000;35.26667
 778.91;  -24.800;  -76.067;    0.000;51.26667
 779.17;  -28.333;  -74.800;    0.000;46.46667
 779.42;  -32.800;  -70.600;    0.000;37.80000
 779.68;  -29.733;  -82.400;    0.000;52.66667
 779.94;   -7.800;  -84.667;    0.000;76.86666
 780.20;  -31.800;  -74.667;    0.000;42.86666
 780.46;  -15.333;  -77.133;    0.000;61.80000
 780.71;    7.133;  -67.000;    0.000;74.13333
 780.97;  -14.733;  -75.533;    0.000;60.80000
 781.23;  -27.533;  -83.733;    0.000;56.20000
 781.49;  -40.133;  -60.267;    0.000;20.13333
 781.74;  -25.400;  -75.333;    0.000;49.93334
 782.00;  -34.200;  -75.867;    0.000;41.66667
 782.26;   -6.000;  -64.067;    0.000;58.06667
 782.52;  -28.533;  -60.800;    0.000;32.26667
 782.77;  -21.733;  -66.733;    0.000;45.00000
 783.03;  -34.600;  -86.467;    0.000;51.86667
 783.29;  -35.800;  -83.333;    0.000;47.53334
 783.54;  -37.600;  -64.067;    0.000;26.46667
 783.80;  -15.867;  -76.000;    0.000;60.13333
 784.06;  -28.333;  -80.800;    0.000;52.46667
 784.32;  -45.867;  -76.467;    0.000;30.60000
 784.57;    9.467;  -61.667;    0.000;71.13333
 784.83;  -48.200;  -81.467;    0.000;33.26667
 785.09;  -40.867;  -92.533;    0.000;51.66667
 785.34;  -42.733;  -95.200;    0.000;52.46666
 785.60;  -17.867;  -66.200;    0.000;48.33333
 785.86;  -45.867;  -83.333;    0.000;37.46667
 786.12;  -12.800;  -77.867;    0.000;65.06667
 786.37;  -15.667;  -48.133;    0.000;32.46667
 786.63;  -50.800;  -76.400;    0.000;25.60000
 786.89;  -25.733;  -63.600;    0.000;37.86666
 787.14;   -4.600;  -70.000;    0.000;65.40000
 787.40;  -35.267;  -71.733;    0.000;36.46666
 787.66;  -41.467;  -63.533;    0.000;22.06667
 787.91;   -4.200;  -40.667;    0.000;36.46667
 788.17;  -29.667;  -78.067;    0.000;48.40000
 788.43;  -34.000;  -81.333;    0.000;47.33334
 788.68;  -56.200;  -95.000;    0.000;38.80000
 788.94;  -24.267;  -56.867;    0.000;32.60000
 789.20;  -14.400;  -71.667;    0.000;57.26666
 789.45;  -47.200;  -84.400;    0.000;37.20000
 789.71;  -58.533;  -70.733;    0.000;12.20000
 789.97;  -24.467;  -61.533;    0.000;37.06667
 790.22;  -29.067;  -68.933;    0.000;39.86667
 790.48;  -37.000;  -93.267;    0.000;56.26667
 790.74;  -24.867;  -78.400;    0.000;53.53333
 790.99;  -34.000;  -80.933;    0.000;46.93333
 791.25;  -44.333;  -80.000;    0.000;35.66667
 791.51;  -28.800;  -74.467;    0.000;45.66667
 791.76;   -7.133;  -52.200;    0.000;45.06667
 792.02;  -26.667;  -75.467;    0.000;48.80000
 792.27;  -39.467;  -57.533;    0.000;18.06667
 792.53;  -33.533;  -59.000;    0.000;25.46667
 792.79;  -22.267;  -66.200;    0.000;43.93333
 793.04;  -46.000;  -83.667;    0.000;37.66666
 793.30;  -53.867;  -89.200;    0.000;35.33333
 793.56;  -43.400;  -65.800;    0.000;22.40000
 793.81;  -37.867;  -59.600;    0.000;21.73333
 794.07;  -33.000;  -84.933;    0.000;51.93333
 794.32;  -47.867;  -78.667;    0.000;30.80000
 794.58;  -55.200;  -96.467;    0.000;41.26667
 794.84;  -38.667;  -84.933;    0.000;46.26667
 795.09;  -43.333;  -54.133;    0.000;10.80000
 795.35;  -12.133;  -69.667;    0.000;57.53333
 795.60;  -18.400;  -49.933;    0.000;31.53333
 795.86;  -12.800;  -53.000;    0.000;40.20000
 796.12;  -44.533;  -85.400;    0.000;40.86667
 796.37;  -38.267;  -89.867;    0.000;51.60000
 796.63;  -38.600;  -61.667;    0.000;23.06667
 796.88;  -29.200;  -68.533;    0.000;39.33333
 797.14;  -36.400;  -71.733;    0.000;35.33333
 797.39;  -28.067;  -56.133;    0.000;28.06667
 797.65;  -54.667;  -79.133;    0.000;24.46666
 797.91;  -41.733;  -80.467;    0.000;38.73333
 798.16;  -54.333;  -66.867;    0.000;12.53334
 798.42;  -39.200;  -83.600;    0.000;44.40000
 798.67;  -34.067;  -85.267;    0.000;51.20000
 798.93;  -49.000;  -90.800;    0.000;41.80000
 799.18;  -53.600;  -79.800;    0.000;26.20000
 799.44;  -34.800;  -88.267;    0.000;53.46667
 799.69;  -38.267;  -76.867;    0.000;38.60000
 799.95;  -52.333;  -97.867;    0.000;45.53334
 800.21;  -62.333;  -72.533;    0.000;10.20000
 800.46;  -21.933;  -67.533;    0.000;45.60000
 800.72;  -58.067;  -78.733;    0.000;20.66666
 800.97;  -46.400;  -74.867;    0.000;28.46667
 801.23;  -55.267;  -66.933;    0.000;11.66667
 801.48;  -61.867;  -89.733;    0.000;27.86666
 801.74;  -70.733;  -81.000;    0.000;10.26667
 801.99;  -48.000;  -76.800;    0.000;28.80000
 802.25;  -52.267;  -71.133;    0.000;18.86666
 802.50;  -46.000;  -78.400;    0.000;32.40000
 802.76;  -53.933;  -66.067;    0.000;12.13333
 803.01;  -70.000;  -74.400;    0.000; 4.40000
 803.27;  -66.600;  -78.667;    0.000;12.06667
 803.52;  -36.800;  -79.333;    0.000;42.53334
 803.78;  -46.467;  -58.133;    0.000;11.66667
 804.03;  -42.933;  -69.067;    0.000;26.13333
 804.29;  -65.467;  -77.667;    0.000;12.20000
 804.54;  -32.400;  -56.267;    0.000;23.86666
 804.80;  -51.133;  -71.867;    0.000;20.73333
 805.05;  -39.133;  -73.067;    0.000;33.93333
 805.31;  -38.667;  -54.133;    0.000;15.46667
 805.56;  -38.867;  -57.200;    0.000;18.33334
 805.82;  -58.000;  -90.733;    0.000;32.73333
 806.07;  -40.867;  -63.400;    0.000;22.53334
 806.33;  -49.133;  -77.600;    0.000;28.46666
 806.58;  -61.533;  -86.533;    0.000;25.00000
 806.84;  -45.000;  -69.333;    0.000;24.33334
 807.09;  -40.867;  -76.667;    0.000;35.80000
 807.34;  -45.733;  -72.733;    0.000;27.00000
 807.60;  -47.000;  -74.067;    0.000;27.06667
 807.85;  -47.000;  -62.800;    0.000;15.80000
 808.11;  -62.467;  -92.933;    0.000;30.46667
 808.36;  -13.200;  -65.600;    0.000;52.40000
 808.62;  -62.933;  -86.667;    0.000;23.73333
 808.87;  -47.333;  -78.733;    0.000;31.40000
 809.13;  -47.000;  -71.467;    0.000;24.46667
 809.38;  -34.267;  -48.200;    0.000;13.93333
 809.63;  -55.533;  -98.067;    0.000;42.53333
 809.89;  -33.533;  -58.667;    0.000;25.13334
 810.14;  -42.200;  -74.333;    0.000;32.13334
 810.40;  -49.467;  -51.267;    0.000; 1.80000
 810.65;  -53.667;  -64.133;    0.000;10.46666
 810.91;  -51.133;  -85.533;    0.000;34.40000
 811.16;  -37.200;  -56.333;    0.000;19.13333
 811.41;  -53.067;  -55.067;    0.000; 2.00000
 811.67;  -47.400;  -71.333;    0.000;23.93333
 811.92;  -41.133;  -82.333;    0.000;41.20000
 812.18;  -44.067;  -70.667;    0.000;26.60000
 812.43;  -39.800;  -60.533;    0.000;20.73333
 812.68;  -36.400;  -80.333;    0.000;43.93333
 812.94;  -52.400;  -76.933;    0.000;24.53333
 813.19;  -65.467;  -99.867;    0.000;34.40000
 813.45;  -13.000;  -33.933;    0.000;20.93333
 813.70;  -39.133;  -74.533;    0.000;35.40000
 813.95;  -36.267;  -70.667;    0.000;34.40000
 814.21;  -44.067;  -75.933;    0.000;31.86667
 814.46;  -42.000;  -88.000;    0.000;46.00000
 814.71;  -71.667;  -81.933;    0.000;10.26667
 814.97;  -53.133;  -77.867;    0.000;24.73333
 815.22;  -57.000;  -88.867;    0.000;31.86667
 815.48;  -52.333;  -85.133;    0.000;32.80000
 815.73;   -5.667;  -20.867;    0.000;15.20000
 815.98;  -61.333;  -74.867;    0.000;13.53334
 816.24;  -50.933;  -79.000;    0.000;28.06667
 816.49;  -49.800;  -72.067;    0.000;22.26667
 816.74;  -53.867;  -74.600;    0.000;20.73333
 817.00;  -36.400;  -43.400;    0.000; 7.00000
 817.25;  -48.400;  -58.000;    0.000; 9.60000
 817.50;  -61.333;  -71.000;    0.000; 9.66667
 817.76;  -48.733;  -91.000;    0.000;42.26667
 818.01;  -59.133;  -93.533;    0.000;34.40000
 818.26;  -54.867;  -97.133;    0.000;42.26667
 818.52;  -57.333;  -85.400;    0.000;28.06667
 818.77;  -42.200;  -78.200;    0.000;36.00000
 819.02;  146.933;  116.467;    0.000;30.46667
 819.28;  -44.067;  -76.867;    0.000;32.80000
 819.53;  -74.867;  -90.467;    0.000;15.60000
 819.78;  -42.933;  -78.600;    0.000;35.66666
 820.04;  -56.533;  -70.333;    0.000;13.80000
 820.29;  -51.000;  -72.533;    0.000;21.53333
 820.54;  -61.000;  -66.800;    0.000; 5.80000
 820.79;  -39.533;  -63.600;    0.000;24.06667
 821.05;  -70.733;  -89.800;    0.000;19.06667
 821.30;  -13.733;  -35.467;    0.000;21.73333
 821.55;  -33.333;  -59.133;    0.000;25.80000
 821.81;  -49.400;  -84.067;    0.000;34.66666
 822.06;  -46.200;  -87.800;    0.000;41.60000
 822.31;  -24.933;  -52.200;    0.000;27.26667
 822.56;  -63.933;  -59.533;    0.000;-4.40000
 822.82;  -61.667;  -75.867;    0.000;14.20000
 823.07;  -48.733;  -72.200;    0.000;23.46666
 823.32;  -67.400;  -88.867;    0.000;21.46667
 823.58;  -44.933;  -47.600;    0.000; 2.66666
 823.83;  -41.933;  -82.200;    0.000;40.26666
 824.08;  -71.733;  -80.867;    0.000; 9.13334
 824.33;  -63.200;  -84.067;    0.000;20.86666
 824.59;  -68.800;  -97.667;    0.000;28.86666
 824.84;  -68.733;  -92.067;    0.000;23.33334
 825.09;  -65.667;  -83.667;    0.000;18.00000
 825.34;  -47.467;  -79.933;    0.000;32.46667
 825.60;  -68.800;  -83.667;    0.000;14.86666
 825.85;  -79.067;  -92.800;    0.000;13.73334
 826.10;  -69.733;  -94.133;    0.000;24.40000
 826.35;  -49.133;  -72.000;    0.000;22.86666
 826.61;  -61.667;  -81.067;    0.000;19.40000
 826.86;  -79.133;  -91.400;    0.000;12.26667
 827.11;  -69.333;  -62.267;    0.000;-7.06667
 827.36;  -53.467;  -81.667;    0.000;28.20000
 827.61;  -87.067;  -75.600;    0.000;-11.46667
 827.87;  -49.867;  -79.933;    0.000;30.06667
 828.12;  -71.933;  -76.733;    0.000; 4.80000
 828.37;  -54.133;  -74.133;    0.000;20.00000
 828.62;  -60.133;  -73.133;    0.000;13.00000
 828.88;  -57.200;  -69.133;    0.000;11.93333
 829.13;  -37.600;  -52.733;    0.000;15.13334
 829.38;  -61.333;  -79.000;    0.000;17.66667
 829.63;  -63.067;  -94.333;    0.000;31.26667
 829.88;  -50.933;  -86.267;    0.000;35.33334
 830.14;  -68.933;  -94.733;    0.000;25.80000
 830.39;  -41.000;  -70.200;    0.000;29.20000
 830.64;  -80.667;  -89.933;    0.000; 9.26667
 830.89;  -41.067;  -50.200;    0.000; 9.13334
 831.14;  -58.133;  -68.067;    0.000; 9.93333
 831.39;  -77.800;  -93.333;    0.000;15.53333
 831.65;  -83.933;  -92.933;    0.000; 9.00000
 831.90;  -66.600;  -88.400;    0.000;21.80000
 832.15;  -54.533;  -77.933;    0.000;23.40000
 832.40;  -31.000;  -75.067;    0.000;44.06667
 832.65;  -62.400;  -79.667;    0.000;17.26666
 832.90;  -62.200;  -83.067;    0.000;20.86666
 833.16;  -47.867;  -79.467;    0.000;31.60000
 833.41;  -62.533;  -72.933;    0.000;10.40000
 833.66;  -70.933;  -84.200;    0.000;13.26666
 833.91;  -59.867;  -63.133;    0.000; 3.26667
 834.16;  -77.800;  -82.600;    0.000; 4.80000
 834.41;  -77.533;  -66.333;    0.000;-11.20000
 834.66;  -66.600;  -72.400;    0.000; 5.80000
 834.92;  -62.400;  -69.933;    0.000; 7.53333
 835.17;  -73.133;  -88.200;    0.000;15.06667
 835.42;  -48.800;  -80.800;    0.000;32.00000
 835.67;  -60.600;  -81.800;    0.000;21.20000
 835.92;  -57.400;  -79.667;    0.000;22.26666
 836.17;  -81.667;  -92.933;    0.000;11.26667
 836.42;  -75.600;  -96.067;    0.000;20.46667
 836.67;  -81.467;  -85.667;    0.000; 4.20000
 836.93;  -71.533;  -83.733;    0.000;12.20000
 837.18;  -66.800;  -69.867;    0.000; 3.06667
 837.43;  -58.467;  -60.667;    0.000; 2.20000
 837.68;  -68.800;  -68.000;    0.000;-0.80000
 837.93;  -59.467;  -96.467;    0.000;37.00000
 838.18;  -79.467;  -71.733;    0.000;-7.73334
 838.43;  -73.800;  -85.600;    0.000;11.80000
 838.68;  -63.733;  -64.067;    0.000; 0.33333
 838.93;  -72.533;  -82.933;    0.000;10.40000
 839.18;  -77.067;  -88.400;    0.000;11.33334
 839.43;  -34.533;  -77.333;    0.000;42.80000
 839.69;  -78.267;  -80.667;    0.000; 2.39999
 839.94;  -74.600;  -98.200;    0.000;23.60000
 840.19;  -56.400;  -69.067;    0.000;12.66666
 840.44;  -69.667;  -73.933;    0.000; 4.26667
 840.69;  -51.267;  -59.533;    0.000; 8.26667
 840.94;  -50.867;  -68.733;    0.000;17.86666
 841.19;  -53.200;  -72.733;    0.000;19.53333
 841.44;  -50.133;  -90.333;    0.000;40.20000
 841.69;  -41.733;  -51.800;    0.000;10.06667
 841.94;  -60.600;  -89.667;    0.000;29.06667
 842.19;  -66.267;  -76.467;    0.000;10.20000
 842.44;  -69.200;  -83.933;    0.000;14.73334
 842.69;  -62.733;  -70.800;    0.000; 8.06667
 842.94;  -63.000;  -86.000;    0.000;23.00000
 843.19;  -79.600;  -90.733;    0.000;11.13333
 843.44;  -81.200;  -81.733;    0.000; 0.53333
 843.69;  -66.533;  -81.533;    0.000;15.00000
 843.94;  -23.000;  -27.133;    0.000; 4.13333
 844.19;  -74.600;  -87.800;    0.000;13.20000
 844.44;  -57.067;  -64.733;    0.000; 7.66666
 844.69;  -71.067;  -81.800;    0.000;10.73334
 844.95;  -64.800;  -88.000;    0.000;23.20000
 845.20;  -91.267;  -96.200;    0.000; 4.93333
 845.45;  -65.267;  -57.067;    0.000;-8.20000
 845.70;  -56.333;  -69.933;    0.000;13.60000
 845.95;  -70.600;  -84.267;    0.000;13.66667
 846.20;  -49.667;  -81.133;    0.000;31.46666
 846.45;  -70.067;  -76.267;    0.000; 6.20000
 846.70;  -79.733;  -90.333;    0.000;10.60001
 846.95;  -69.667;  -88.867;    0.000;19.20000
 847.20;  -44.133;  -77.933;    0.000;33.80000
 847.44;  -34.733;  -40.467;    0.000; 5.73333
 847.69;  -90.733;  -90.467;    0.000;-0.26666
 847.94;  -60.000;  -73.400;    0.000;13.40000
 848.19;  -80.333;  -75.467;    0.000;-4.86667
 848.44;  -56.467;  -61.867;    0.000; 5.40000
 848.69;  -81.933;  -89.533;    0.000; 7.60000
 848.94;  -58.333;  -63.000;    0.000; 4.66667
 849.19;  -78.000;  -85.333;    0.000; 7.33334
 849.44;  -65.533;  -88.333;    0.000;22.80000
 849.69;  -57.200;  -82.667;    0.000;25.46666
 849.94;  -85.200;  -87.933;    0.000; 2.73334
 850.19;  -50.800;  -79.267;    0.000;28.46667
 850.44;  -43.133;  -49.733;    0.000; 6.60000
 850.69;  -77.467;  -80.067;    0.000; 2.60000
 850.94;  -77.133;  -80.800;    0.000; 3.66667
 851.19;  -55.067;  -80.667;    0.000;25.60000
 851.44;  -84.400;  -70.933;    0.000;-13.46667
 851.69;  -70.067;  -51.467;    0.000;-18.60000
 851.94;  -72.267;  -55.733;    0.000;-16.53334
 852.19;  -71.467;  -63.333;    0.000;-8.13334
 852.44;  -70.800;  -76.333;    0.000; 5.53333
 852.68;  -68.400;  -80.800;    0.000;12.40000
 852.93;  -60.733;  -63.133;    0.000; 2.40000
 853.18;  -66.067;  -86.467;    0.000;20.40000
 853.43;  -62.133;  -72.067;    0.000; 9.93333
 853.68;  -70.867;  -79.733;    0.000; 8.86666
 853.93;  -66.400;  -74.267;    0.000; 7.86667
 854.18;  -64.533;  -83.800;    0.000;19.26667
 854.43;  -59.467;  -51.733;    0.000;-7.73333
 854.68;  -55.867;  -58.067;    0.000; 2.20000
 854.93;  -66.667;  -67.667;    0.000; 1.00000
 855.18;  -89.600;  -75.067;    0.000;-14.53333
 855.42;  -49.200;  -65.200;    0.000;16.00000
 855.67;  -83.867;  -78.733;    0.000;-5.13334
 855.92;  -68.467;  -84.067;    0.000;15.60000
 856.17;  -64.600;  -70.067;    0.000; 5.46667
 856.42;  -79.800;  -83.333;    0.000; 3.53333
 856.67;  -72.667;  -78.067;    0.000; 5.40000
 856.92;  -61.600;  -57.200;    0.000;-4.40000
 857.17;  -87.000;  -77.533;    0.000;-9.46667
 857.41;  -56.533;  -63.267;    0.000; 6.73333
 857.66;  -64.600;  -79.400;    0.000;14.80000
 857.91;  -67.133;  -71.467;    0.000; 4.33334
 858.16;  -47.400;  -77.667;    0.000;30.26666
 858.41;  -69.133;  -70.933;    0.000; 1.80000
 858.66;  -64.533;  -74.733;    0.000;10.20000
 858.91;  -55.600;  -69.200;    0.000;13.60000
 859.15;  -74.200;  -71.333;    0.000;-2.86666
 859.40;  -47.000;  -66.400;    0.000;19.40000
 859.65;  -81.000;  -94.733;    0.000;13.73333
 859.90;  -73.533;  -90.867;    0.000;17.33334
 860.15;  -62.067;  -80.400;    0.000;18.33334
 860.40;  -40.933;  -54.200;    0.000;13.26667
 860.64;  -65.667;  -66.733;    0.000; 1.06667
 860.89;  -55.333;  -67.067;    0.000;11.73333
 861.14;  -72.733;  -72.067;    0.000;-0.66666
 861.39;  -50.733;  -49.200;    0.000;-1.53333
 861.64;  -83.867;  -72.533;    0.000;-11.33334
 861.88;  -48.867;  -59.333;    0.000;10.46667
 862.13;  -60.667;  -70.733;    0.000;10.06666
 862.38;  -77.000;  -91.467;    0.000;14.46667
 862.63;  -88.733;  -62.533;    0.000;-26.20000
 862.88;  -58.667;  -64.333;    0.000; 5.66667
 863.12;  -60.000;  -64.267;    0.000; 4.26667
 863.37;  -76.267;  -82.400;    0.000; 6.13333
 863.62;  -74.667;  -57.933;    0.000;-16.73333
 863.87;  -73.200;  -82.133;    0.000; 8.93333
 864.12;  -68.000;  -63.733;    0.000;-4.26667
 864.36;  -58.467;  -79.067;    0.000;20.60000
 864.61;  -85.133;  -86.467;    0.000; 1.33334
 864.86;  -60.200;  -56.000;    0.000;-4.20000
 865.11;  -64.000;  -72.800;    0.000; 8.80000
 865.35;  -54.400;  -53.067;    0.000;-1.33334
 865.60;  -58.333;  -72.200;    0.000;13.86666
 865.85;  -47.133;  -60.067;    0.000;12.93333
 866.10;  -79.933;  -57.400;    0.000;-22.53333
 866.34;  -80.600;  -75.667;    0.000;-4.93333
 866.59;  -52.933;  -65.933;    0.000;13.00000
 866.84;  -56.800;  -67.067;    0.000;10.26667
 867.09;  -69.800;  -69.800;    0.000; 0.00000
 867.33;  -60.400;  -77.067;    0.000;16.66666
 867.58;  -48.000;  -76.667;    0.000;28.66666
 867.83;  -76.467;  -80.067;    0.000; 3.60000
 868.08;  -69.533;  -68.600;    0.000;-0.93333
 868.32;  -55.733;  -56.600;    0.000; 0.86666
 868.57;  -70.533;  -70.333;    0.000;-0.20000
 868.82;  -43.267;  -69.800;    0.000;26.53334
 869.07;  -74.467;  -81.400;    0.000; 6.93333
 869.31;  -67.867;  -51.267;    0.000;-16.60000
 869.56;  -70.733;  -78.867;    0.000; 8.13334
 869.81;  -50.067;  -79.467;    0.000;29.40000
 870.05;  -90.933; -100.400;    0.000; 9.46667
 870.30;  -56.600;  -63.800;    0.000; 7.20000
 870.55;  -48.933;  -43.133;    0.000;-5.80000
 870.80;  -49.000;  -54.933;    0.000; 5.93333
 871.04;  -53.667;  -60.133;    0.000; 6.46667
 871.29;  -49.933;  -73.333;    0.000;23.40000
 871.54;  -64.800;  -73.467;    0.000; 8.66666
 871.78;  -60.533;  -87.800;    0.000;27.26667
 872.03;  -58.400;  -74.467;    0.000;16.06667
 872.28;  -44.333;  -67.733;    0.000;23.40000
 872.52;  -53.667;  -69.133;    0.000;15.46666
 872.77;  -46.533;  -90.133;    0.000;43.60000
 873.02;  -67.667;  -83.000;    0.000;15.33334
 873.26;  -70.533;  -74.200;    0.000; 3.66666
 873.51;  -75.333;  -51.200;    0.000;-24.13334
 873.76;  -65.200;  -79.600;    0.000;14.40000
 874.00;  -65.200;  -52.467;    0.000;-12.73333
 874.25;  -67.867;  -77.800;    0.000; 9.93333
 874.50;  -54.000;  -72.200;    0.000;18.20000
 874.74;  -64.267;  -75.933;    0.000;11.66666
 874.99;  -74.867;  -64.733;    0.000;-10.13334
 875.24;  -45.333;  -31.867;    0.000;-13.46667
 875.48;  -62.600;  -58.667;    0.000;-3.93333
 875.73;  -54.000;  -79.400;    0.000;25.40000
 875.98;  -75.733;  -60.000;    0.000;-15.73333
 876.22;  -50.333;  -54.333;    0.000; 4.00000
 876.47;  -69.000;  -67.867;    0.000;-1.13333
 876.71;  -46.067;  -64.667;    0.000;18.60000
 876.96;  -51.067;  -53.800;    0.000; 2.73333
 877.21;  -57.667;  -65.067;    0.000; 7.40000
 877.45;  -64.800;  -62.133;    0.000;-2.66667
 877.70;  -58.867;  -58.467;    0.000;-0.40000
 877.95;  -63.067;  -52.333;    0.000;-10.73333
 878.19;  -29.200;  -46.933;    0.000;17.73333
 878.44;  -60.600;  -64.667;    0.000; 4.06667
 878.68;  -25.933;  -31.267;    0.000; 5.33333
 878.93;  -54.733;  -42.467;    0.000;-12.26667
 879.18;  -49.933;  -62.267;    0.000;12.33333
 879.42;  -39.800;  -50.200;    0.000;10.40000
 879.67;  -64.267;  -94.267;    0.000;30.00000
 879.91;  -54.600;  -61.467;    0.000; 6.86667
 880.16;  -52.400;  -52.867;    0.000; 0.46666
 880.40;  -58.133;  -74.333;    0.000;16.20000
 880.65;  -49.067;  -66.000;    0.000;16.93333
 880.90;  -39.333;  -51.600;    0.000;12.26667
 881.14;  -57.267;  -42.867;    0.000;-14.40000
 881.39;  -52.867;  -67.533;    0.000;14.66667
 881.63;  -73.867;  -57.200;    0.000;-16.66667
 881.88;  -24.933;  -49.200;    0.000;24.26667
 882.12;  -25.400;  -65.933;    0.000;40.53333
 882.37;  -32.000;  -41.133;    0.000; 9.13334
 882.62;  -60.533;  -60.467;    0.000;-0.06667
 882.86;  -73.733;  -76.867;    0.000; 3.13334
 883.11;  -47.000;  -53.667;    0.000; 6.66667
 883.35;  -60.267;  -57.867;    0.000;-2.40000
 883.60;  -27.333;  -33.000;    0.000; 5.66667
 883.84;  -57.667;  -66.400;    0.000; 8.73333
 884.09;  -32.467;  -54.200;    0.000;21.73333
 884.33;  -44.933;  -55.733;    0.000;10.80000
 884.58;  -29.467;  -54.333;    0.000;24.86666
 884.82;  -49.667;  -53.667;    0.000; 4.00000
 885.07;  -53.933;  -45.333;    0.000;-8.60000
 885.31;  -39.533;  -65.933;    0.000;26.40000
 885.56;  -34.200;  -37.133;    0.000; 2.93333
 885.80;  -49.267;  -53.733;    0.000; 4.46667
 886.05;  -61.133;  -78.867;    0.000;17.73333
 886.29;  -17.000;  -48.400;    0.000;31.40000
 886.54;  -34.600;  -59.800;    0.000;25.20000
 886.78;  -35.600;  -52.133;    0.000;16.53334
 887.03;  -44.667;  -42.867;    0.000;-1.80000
 887.27;  -21.600;  -29.067;    0.000; 7.46667
 887.52;  -55.333;  -80.600;    0.000;25.26667
 887.76;  -47.800;  -53.333;    0.000; 5.53333
 888.01;  -39.333;  -54.533;    0.000;15.20000
 888.25;  -57.600;  -61.400;    0.000; 3.80000
 888.50;  -22.600;  -41.000;    0.000;18.40000
 888.74;  -15.133;  -36.133;    0.000;21.00000
 888.99;  -31.333;  -53.800;    0.000;22.46667
 889.23;  -39.800;  -45.867;    0.000; 6.06667
 889.48;  -46.200;  -61.600;    0.000;15.40000
 889.72;  -26.200;  -33.600;    0.000; 7.40000
 889.97;  -18.867;  -54.000;    0.000;35.13333
 890.21;  -29.133;  -15.533;    0.000;-13.60000
 890.46;   -2.200;  -26.333;    0.000;24.13333
 890.70;  -44.933;  -35.267;    0.000;-9.66667
 890.94;  -30.267;  -38.333;    0.000; 8.06667
 891.19;  -35.667;  -42.733;    0.000; 7.06667
 891.43;  -15.200;  -27.400;    0.000;12.20000
 891.68;   -8.067;  -24.933;    0.000;16.86667
 891.92;   -2.267;  -50.667;    0.000;48.40000
 892.17;  -38.267;  -22.533;    0.000;-15.73333
 892.41;  -30.600;  -34.800;    0.000; 4.20000
 892.66;  -56.400;  -40.933;    0.000;-15.46667
 892.90;   15.200;  -22.800;    0.000;38.00000
 893.14;  -46.000;  -46.800;    0.000; 0.80000
 893.39;  -23.067;  -31.400;    0.000; 8.33333
 893.63;  -12.600;  -46.733;    0.000;34.13333
 893.88;  -44.667;  -52.000;    0.000; 7.33333
 894.12;  -26.667;  -34.333;    0.000; 7.66667
 894.36;   -0.933;  -45.533;    0.000;44.60000
 894.61;  -21.400;  -27.067;    0.000; 5.66667
 894.85;   -8.267;  -26.333;    0.000;18.06667
 895.10;  -25.867;  -23.067;    0.000;-2.80000
 895.34;  -39.200;  -28.467;    0.000;-10.73333
 895.58;  -23.000;  -24.667;    0.000; 1.66667
 895.83;  -30.933;  -29.067;    0.000;-1.86666
 896.07;   -1.467;  -29.067;    0.000;27.60000
 896.32;  -14.200;  -11.267;    0.000;-2.93333
 896.56;  -13.400;  -10.333;    0.000;-3.06667
 896.80;  -10.933;  -32.867;    0.000;21.93333
 897.05;  -17.467;  -32.933;    0.000;15.46667
 897.29;   27.267;   -2.400;    0.000;29.66667
 897.53;   -8.733;  -26.400;    0.000;17.66667
 897.78;  -24.267;   -9.000;    0.000;-15.26667
 898.02;   -3.800;    2.333;    0.000;-6.13333
 898.26;   15.067;  -12.600;    0.000;27.66667
 898.51;   -0.267;  -15.400;    0.000;15.13333
 898.75;    3.200;   -4.667;    0.000; 7.86667
 898.99;  -13.200;   -7.333;    0.000;-5.86667
 899.24;  -10.267;  -23.533;    0.000;13.26667
 899.48;   11.667;   15.533;    0.000;-3.86667
 899.73;    5.000;   -6.867;    0.000;11.86667
 899.97;   21.467;   36.867;    0.000;-15.40000
 900.21;   20.800;   19.400;    0.000; 1.40000
 900.46;   37.800;   21.067;    0.000;16.73333
 900.70;   74.067;   41.467;    0.000;32.60000
 900.94;   37.200;   35.333;    0.000; 1.86667
 901.18;   47.600;   44.600;    0.000; 3.00000
 901.43;   29.267;   26.000;    0.000; 3.26667
 901.67;   53.467;   30.000;    0.000;23.46667
 901.91;   42.667;   49.200;    0.000;-6.53333
 902.16;   56.800;   39.733;    0.000;17.06667
 902.40;   93.200;   84.800;    0.000; 8.39999
 902.64;   61.733;   67.467;    0.000;-5.73333
 902.89;   79.067;   79.867;    0.000;-0.80000
 903.13;  116.133;   84.000;    0.000;32.13333
 903.37;  111.933;  107.200;    0.000; 4.73334
 903.61;  150.200;  139.600;    0.000;10.59999
 903.86;  132.333;  108.733;    0.000;23.60000
 904.10;  164.067;  158.133;    0.000; 5.93333
 904.34;  172.067;  176.000;    0.000;-3.93333
 904.59;  198.133;  180.733;    0.000;17.39999
 904.83;  226.267;  248.267;    0.000;-22.00000
 905.07;  277.267;  258.267;    0.000;19.00000
 905.31;  286.067;  288.067;    0.000;-2.00000
 905.56;  334.067;  317.000;    0.000;17.06668
 905.80;  379.667;  381.067;    0.000;-1.40002

