point5
Integration time [ms]:  15.000
Averaging Nr. [scans]: 15
Smoothing Nr. [pixels]: 0
Data measured with spectrometer [name]: 1307078U2
Wave   ;Sample   ;Dark     ;Reference;Scope Corrected for Dark
[nm]   ;[counts] ;[counts] ;[counts] 

 351.07;   10.867;  -29.133;    0.000;40.00000
 351.37;    5.733;    1.067;    0.000; 4.66667
 351.66;   17.400;    0.600;    0.000;16.80000
 351.95;   19.467;   -9.067;    0.000;28.53333
 352.24;   -8.467;  -24.533;    0.000;16.06667
 352.54;    6.600;    3.533;    0.000; 3.06667
 352.83;    5.867;  -17.533;    0.000;23.40000
 353.12;    4.000;    2.067;    0.000; 1.93333
 353.42;   -8.600;  -14.733;    0.000; 6.13333
 353.71;    3.133;  -14.600;    0.000;17.73333
 354.00;   19.533;  -14.667;    0.000;34.20000
 354.30;    3.933;   -3.533;    0.000; 7.46667
 354.59;   12.200;  -31.933;    0.000;44.13333
 354.88;   11.000;  -11.267;    0.000;22.26667
 355.17;    6.133;  -30.667;    0.000;36.80000
 355.47;    2.933;   -7.667;    0.000;10.60000
 355.76;    4.000;   -6.800;    0.000;10.80000
 356.05;    6.400;    8.733;    0.000;-2.33333
 356.35;   10.733;  -20.467;    0.000;31.20000
 356.64;   23.133;   18.200;    0.000; 4.93333
 356.93;    5.800;  -14.200;    0.000;20.00000
 357.22;   25.133;   14.600;    0.000;10.53333
 357.52;    7.667;  -25.533;    0.000;33.20000
 357.81;    7.533;   19.667;    0.000;-12.13333
 358.10;   -2.333;  -13.467;    0.000;11.13333
 358.39;    9.000;    2.600;    0.000; 6.40000
 358.69;    3.733;    0.200;    0.000; 3.53333
 358.98;   -6.933;   -2.267;    0.000;-4.66667
 359.27;    5.667;  -23.733;    0.000;29.40000
 359.57;   15.667;    9.133;    0.000; 6.53333
 359.86;   -7.000;    0.200;    0.000;-7.20000
 360.15;    5.800;   13.867;    0.000;-8.06667
 360.44;    4.533;  -12.000;    0.000;16.53333
 360.74;   26.133;   -1.733;    0.000;27.86667
 361.03;    9.667;  -25.667;    0.000;35.33333
 361.32;   14.933;    3.800;    0.000;11.13333
 361.61;  -12.667;  -37.733;    0.000;25.06667
 361.91;   20.067;   17.600;    0.000; 2.46667
 362.20;    8.400;  -21.600;    0.000;30.00000
 362.49;   -4.533;    3.800;    0.000;-8.33333
 362.78;   23.333;   -3.933;    0.000;27.26667
 363.08;    3.133;    8.067;    0.000;-4.93333
 363.37;    9.733;  -13.667;    0.000;23.40000
 363.66;    9.733;   27.333;    0.000;-17.60000
 363.95;   -3.933;  -36.733;    0.000;32.80000
 364.24;    5.467;    6.000;    0.000;-0.53333
 364.54;   -5.800;  -14.400;    0.000; 8.60000
 364.83;    3.333;   11.867;    0.000;-8.53333
 365.12;   -2.000;  -19.000;    0.000;17.00000
 365.41;    3.667;   29.200;    0.000;-25.53333
 365.71;    0.733;  -17.333;    0.000;18.06667
 366.00;   -7.133;   -8.267;    0.000; 1.13333
 366.29;    1.067;  -24.133;    0.000;25.20000
 366.58;    7.067;   -8.533;    0.000;15.60000
 366.87;   14.800;   -6.267;    0.000;21.06667
 367.17;   23.533;    1.133;    0.000;22.40000
 367.46;   -3.000;  -21.333;    0.000;18.33333
 367.75;   14.667;    6.333;    0.000; 8.33333
 368.04;    1.667;  -16.200;    0.000;17.86667
 368.34;    1.067;    3.000;    0.000;-1.93333
 368.63;    3.800;  -20.667;    0.000;24.46667
 368.92;   18.533;    2.067;    0.000;16.46667
 369.21;   14.133;    3.067;    0.000;11.06667
 369.50;   10.333;    7.933;    0.000; 2.40000
 369.80;   18.467;  -15.400;    0.000;33.86667
 370.09;   11.333;    5.533;    0.000; 5.80000
 370.38;   16.333;  -22.867;    0.000;39.20000
 370.67;    8.000;   -5.000;    0.000;13.00000
 370.96;    4.933;  -14.067;    0.000;19.00000
 371.26;    7.667;   -6.867;    0.000;14.53333
 371.55;   10.067;  -33.467;    0.000;43.53333
 371.84;   -6.000;   -8.267;    0.000; 2.26667
 372.13;   18.267;   -8.733;    0.000;27.00000
 372.42;   13.000;   -8.733;    0.000;21.73333
 372.71;   -1.200;   -1.800;    0.000; 0.60000
 373.01;   -0.200;   -5.733;    0.000; 5.53333
 373.30;    6.667;  -22.067;    0.000;28.73333
 373.59;    9.133;   -5.400;    0.000;14.53333
 373.88;    7.200;  -15.667;    0.000;22.86667
 374.17;   10.133;   23.400;    0.000;-13.26667
 374.46;    5.533;  -22.067;    0.000;27.60000
 374.76;  -12.200;  -10.733;    0.000;-1.46667
 375.05;    7.467;   -3.067;    0.000;10.53333
 375.34;    0.733;  -14.933;    0.000;15.66667
 375.63;    4.733;  -17.200;    0.000;21.93333
 375.92;   -2.400;   -1.800;    0.000;-0.60000
 376.21;  -13.467;  -28.200;    0.000;14.73333
 376.51;   -6.000;  -18.867;    0.000;12.86667
 376.80;    0.333;  -29.133;    0.000;29.46667
 377.09;   -0.067;   11.733;    0.000;-11.80000
 377.38;    8.600;  -10.067;    0.000;18.66667
 377.67;    7.867;   -1.600;    0.000; 9.46667
 377.96;   -2.267;  -24.000;    0.000;21.73333
 378.25;  -15.467;   11.667;    0.000;-27.13333
 378.55;    4.933;  -23.133;    0.000;28.06667
 378.84;    5.600;   -4.067;    0.000; 9.66667
 379.13;  -11.800;  -22.667;    0.000;10.86667
 379.42;    0.067;   -7.267;    0.000; 7.33333
 379.71;   11.733;  -18.733;    0.000;30.46667
 380.00;   27.800;   23.467;    0.000; 4.33333
 380.29;  -17.733;  -15.733;    0.000;-2.00000
 380.59;   -6.667;    2.133;    0.000;-8.80000
 380.88;   -6.333;  -13.667;    0.000; 7.33333
 381.17;   -6.600;   -5.333;    0.000;-1.26667
 381.46;    9.667;   -2.133;    0.000;11.80000
 381.75;   16.267;   -5.133;    0.000;21.40000
 382.04;   15.533;  -12.533;    0.000;28.06667
 382.33;   -9.733;   14.600;    0.000;-24.33333
 382.62;    0.133;  -32.133;    0.000;32.26667
 382.91;   11.800;    5.533;    0.000; 6.26667
 383.21;  -16.133;  -28.600;    0.000;12.46667
 383.50;    9.800;  -18.067;    0.000;27.86667
 383.79;   -2.133;  -37.533;    0.000;35.40000
 384.08;    0.733;    0.200;    0.000; 0.53333
 384.37;   -4.400;  -32.467;    0.000;28.06667
 384.66;   -1.933;   -4.933;    0.000; 3.00000
 384.95;  -12.333;  -25.867;    0.000;13.53333
 385.24;    8.000;  -17.400;    0.000;25.40000
 385.53;    4.400;   -4.800;    0.000; 9.20000
 385.83;   -7.800;  -14.267;    0.000; 6.46667
 386.12;   18.333;  -13.133;    0.000;31.46667
 386.41;    0.667;   -7.067;    0.000; 7.73333
 386.70;   -7.600;  -28.267;    0.000;20.66667
 386.99;   18.133;    9.667;    0.000; 8.46667
 387.28;   10.333;  -11.200;    0.000;21.53333
 387.57;   -3.000;   -1.200;    0.000;-1.80000
 387.86;    6.800;  -29.667;    0.000;36.46667
 388.15;  -17.267;   10.667;    0.000;-27.93333
 388.44;   -6.600;  -33.933;    0.000;27.33333
 388.73;   -1.933;   -3.800;    0.000; 1.86667
 389.02;    3.400;  -29.867;    0.000;33.26667
 389.31;  -13.333;   -3.400;    0.000;-9.93333
 389.61;    7.800;  -22.600;    0.000;30.40000
 389.90;    7.667;    3.400;    0.000; 4.26667
 390.19;  -16.267;  -35.000;    0.000;18.73333
 390.48;    0.733;   -6.267;    0.000; 7.00000
 390.77;   -3.733;  -17.533;    0.000;13.80000
 391.06;  -17.400;  -17.667;    0.000; 0.26667
 391.35;    4.333;  -27.867;    0.000;32.20000
 391.64;   -1.867;   13.733;    0.000;-15.60000
 391.93;   -7.333;  -24.467;    0.000;17.13333
 392.22;   24.400;    0.933;    0.000;23.46667
 392.51;   35.067;  -20.600;    0.000;55.66667
 392.80;   -7.333;   10.667;    0.000;-18.00000
 393.09;    5.467;  -39.000;    0.000;44.46667
 393.38;   15.667;    2.133;    0.000;13.53333
 393.67;    0.267;  -34.333;    0.000;34.60000
 393.96;   10.467;    4.000;    0.000; 6.46667
 394.25;   10.600;  -19.800;    0.000;30.40000
 394.54;   20.667;  -12.933;    0.000;33.60000
 394.83;    1.400;  -25.867;    0.000;27.26667
 395.13;    4.733;  -10.267;    0.000;15.00000
 395.42;    4.467;  -30.600;    0.000;35.06667
 395.71;   -4.867;   -1.467;    0.000;-3.40000
 396.00;   18.867;  -35.267;    0.000;54.13333
 396.29;   16.400;   -3.133;    0.000;19.53333
 396.58;   -0.067;  -35.533;    0.000;35.46667
 396.87;   -1.067;   -0.733;    0.000;-0.33333
 397.16;   -9.467;  -18.733;    0.000; 9.26667
 397.45;    2.067;   -3.067;    0.000; 5.13333
 397.74;   -8.200;  -38.600;    0.000;30.40000
 398.03;   16.667;  -15.000;    0.000;31.66667
 398.32;    2.133;  -30.333;    0.000;32.46667
 398.61;   12.067;   -2.000;    0.000;14.06667
 398.90;    0.067;  -14.800;    0.000;14.86667
 399.19;   25.333;    7.667;    0.000;17.66667
 399.48;    8.333;  -27.867;    0.000;36.20000
 399.77;   -2.733;    8.600;    0.000;-11.33333
 400.06;   25.800;  -19.867;    0.000;45.66667
 400.35;   -7.000;   -2.067;    0.000;-4.93333
 400.64;   -7.800;  -49.067;    0.000;41.26667
 400.93;   15.867;    5.800;    0.000;10.06667
 401.22;   10.067;  -34.600;    0.000;44.66667
 401.51;   10.667;    3.267;    0.000; 7.40000
 401.80;    9.067;  -19.067;    0.000;28.13333
 402.09;    4.400;  -19.067;    0.000;23.46667
 402.38;   -9.400;  -10.800;    0.000; 1.40000
 402.67;    2.600;   -3.333;    0.000; 5.93333
 402.96;   10.067;  -16.533;    0.000;26.60000
 403.25;   11.267;    7.200;    0.000; 4.06667
 403.54;    0.200;  -19.133;    0.000;19.33333
 403.83;   15.600;    2.200;    0.000;13.40000
 404.12;   15.467;  -28.600;    0.000;44.06667
 404.41;   17.867;    0.400;    0.000;17.46667
 404.70;   19.867;  -39.333;    0.000;59.20000
 404.98;   10.133;    3.400;    0.000; 6.73333
 405.27;   28.800;  -12.533;    0.000;41.33333
 405.56;   37.733;    4.667;    0.000;33.06667
 405.85;   18.067;  -31.267;    0.000;49.33333
 406.14;   34.800;   -6.467;    0.000;41.26667
 406.43;   13.467;   -8.000;    0.000;21.46667
 406.72;   16.800;   -2.600;    0.000;19.40000
 407.01;    0.600;  -38.133;    0.000;38.73334
 407.30;   24.467;  -13.133;    0.000;37.60000
 407.59;   -6.467;  -12.467;    0.000; 6.00000
 407.88;   17.267;   -3.800;    0.000;21.06667
 408.17;   20.200;  -12.267;    0.000;32.46667
 408.46;   19.533;  -19.533;    0.000;39.06667
 408.75;    4.667;  -28.133;    0.000;32.80000
 409.04;   24.067;    0.800;    0.000;23.26667
 409.33;  -11.600;  -27.933;    0.000;16.33333
 409.62;   31.333;   11.733;    0.000;19.60000
 409.91;  -14.200;  -25.467;    0.000;11.26667
 410.20;   13.933;  -17.933;    0.000;31.86667
 410.48;   10.133;  -15.333;    0.000;25.46667
 410.77;   15.000;  -21.533;    0.000;36.53333
 411.06;   22.200;   -5.600;    0.000;27.80000
 411.35;   35.733;    8.667;    0.000;27.06667
 411.64;   27.267;  -21.933;    0.000;49.20000
 411.93;   26.667;   -8.133;    0.000;34.80000
 412.22;   22.400;  -27.267;    0.000;49.66667
 412.51;    1.067;   -9.133;    0.000;10.20000
 412.80;   -3.667;  -15.533;    0.000;11.86667
 413.09;   15.267;   -8.000;    0.000;23.26667
 413.38;   32.400;  -26.400;    0.000;58.80000
 413.67;   12.867;   -9.533;    0.000;22.40000
 413.96;    5.333;  -33.000;    0.000;38.33333
 414.24;   28.267;   11.133;    0.000;17.13333
 414.53;   14.733;   -7.867;    0.000;22.60000
 414.82;   30.267;  -10.400;    0.000;40.66667
 415.11;   36.800;  -13.333;    0.000;50.13333
 415.40;   10.267;   -9.867;    0.000;20.13333
 415.69;    2.667;  -31.933;    0.000;34.60000
 415.98;   18.933;   -4.667;    0.000;23.60000
 416.27;   -3.667;  -43.133;    0.000;39.46667
 416.56;   44.733;   -9.200;    0.000;53.93333
 416.84;   19.533;   -8.467;    0.000;28.00000
 417.13;   17.067;   -9.800;    0.000;26.86667
 417.42;   27.400;  -14.133;    0.000;41.53333
 417.71;   21.067;    2.667;    0.000;18.40000
 418.00;    5.133;  -34.200;    0.000;39.33333
 418.29;   38.467;  -18.667;    0.000;57.13333
 418.58;   26.600;  -45.200;    0.000;71.80000
 418.87;    8.733;  -16.000;    0.000;24.73333
 419.15;   23.600;  -22.800;    0.000;46.40000
 419.44;   25.133;    8.867;    0.000;16.26667
 419.73;   12.867;  -14.267;    0.000;27.13333
 420.02;   40.133;   -5.867;    0.000;46.00000
 420.31;   29.333;  -38.000;    0.000;67.33333
 420.60;   31.067;  -26.067;    0.000;57.13334
 420.89;   16.333;  -36.400;    0.000;52.73334
 421.18;   22.667;    6.067;    0.000;16.60000
 421.46;   40.200;    0.000;    0.000;40.20000
 421.75;   20.067;    3.867;    0.000;16.20000
 422.04;   38.867;  -33.600;    0.000;72.46666
 422.33;   33.067;   -1.200;    0.000;34.26667
 422.62;   45.867;  -26.933;    0.000;72.80000
 422.91;   16.600;    0.733;    0.000;15.86667
 423.19;   15.467;  -30.133;    0.000;45.60000
 423.48;   15.133;   16.667;    0.000;-1.53333
 423.77;   15.133;  -31.933;    0.000;47.06667
 424.06;   36.733;  -14.200;    0.000;50.93333
 424.35;   19.733;  -41.267;    0.000;61.00000
 424.64;   47.333;    9.200;    0.000;38.13333
 424.93;   10.667;  -30.733;    0.000;41.40000
 425.21;    9.200;   -9.000;    0.000;18.20000
 425.50;   38.533;  -35.667;    0.000;74.20000
 425.79;   16.400;  -13.133;    0.000;29.53333
 426.08;   31.933;  -21.400;    0.000;53.33333
 426.37;   24.533;    6.933;    0.000;17.60000
 426.65;   14.800;  -43.467;    0.000;58.26667
 426.94;   25.533;  -15.533;    0.000;41.06667
 427.23;   38.000;  -31.400;    0.000;69.40000
 427.52;   33.200;  -20.733;    0.000;53.93333
 427.81;   21.200;  -27.333;    0.000;48.53333
 428.10;   41.067;  -21.467;    0.000;62.53333
 428.38;   31.600;  -49.067;    0.000;80.66667
 428.67;   31.000;   -3.200;    0.000;34.20000
 428.96;    9.867;  -40.733;    0.000;50.60000
 429.25;   15.200;   -4.867;    0.000;20.06667
 429.54;   26.333;  -35.133;    0.000;61.46667
 429.82;   29.000;    9.067;    0.000;19.93333
 430.11;   30.867;  -15.400;    0.000;46.26667
 430.40;   41.533;  -13.667;    0.000;55.20000
 430.69;   22.933;  -31.467;    0.000;54.40000
 430.98;   20.067;   -4.067;    0.000;24.13333
 431.26;   25.867;  -21.933;    0.000;47.80000
 431.55;   34.000;   -2.133;    0.000;36.13333
 431.84;   16.200;  -38.400;    0.000;54.60000
 432.13;   15.733;  -14.667;    0.000;30.40000
 432.41;   37.200;  -19.000;    0.000;56.20000
 432.70;   22.400;   -2.200;    0.000;24.60000
 432.99;   26.333;  -10.533;    0.000;36.86667
 433.28;   36.800;  -12.267;    0.000;49.06667
 433.57;   36.733;  -16.933;    0.000;53.66667
 433.85;   32.533;  -11.933;    0.000;44.46667
 434.14;   15.467;  -49.200;    0.000;64.66667
 434.43;   38.533;    5.933;    0.000;32.60000
 434.72;   40.733;   -8.533;    0.000;49.26667
 435.00;   19.133;  -30.667;    0.000;49.80000
 435.29;   33.267;  -29.733;    0.000;63.00000
 435.58;   21.867;  -17.267;    0.000;39.13333
 435.87;   26.067;  -31.200;    0.000;57.26667
 436.15;   20.600;  -13.267;    0.000;33.86667
 436.44;   17.867;  -35.267;    0.000;53.13333
 436.73;   42.533;  -11.867;    0.000;54.40000
 437.02;   34.800;  -26.600;    0.000;61.40000
 437.30;   28.133;  -12.933;    0.000;41.06667
 437.59;   51.467;  -34.200;    0.000;85.66667
 437.88;   29.733;  -14.800;    0.000;44.53333
 438.17;   27.133;  -34.800;    0.000;61.93333
 438.45;   24.133;  -25.533;    0.000;49.66667
 438.74;   31.800;  -37.333;    0.000;69.13333
 439.03;   35.267;   -9.000;    0.000;44.26667
 439.32;   22.000;  -40.200;    0.000;62.20000
 439.60;   21.867;    0.600;    0.000;21.26667
 439.89;   26.000;  -30.400;    0.000;56.40000
 440.18;   26.733;  -15.133;    0.000;41.86667
 440.46;   29.267;  -37.133;    0.000;66.40000
 440.75;   21.933;  -18.200;    0.000;40.13333
 441.04;   13.467;  -47.333;    0.000;60.80000
 441.33;   46.333;   -1.600;    0.000;47.93333
 441.61;   19.733;  -30.800;    0.000;50.53333
 441.90;   34.733;    0.333;    0.000;34.40000
 442.19;   11.800;  -26.067;    0.000;37.86667
 442.47;   29.733;  -19.800;    0.000;49.53333
 442.76;    9.000;  -40.067;    0.000;49.06667
 443.05;   34.600;  -11.600;    0.000;46.20000
 443.34;   33.600;  -25.800;    0.000;59.40000
 443.62;   25.200;  -20.733;    0.000;45.93333
 443.91;   30.467;  -45.600;    0.000;76.06667
 444.20;   32.800;   28.600;    0.000; 4.20000
 444.48;   19.467;  -50.467;    0.000;69.93333
 444.77;   43.200;    9.067;    0.000;34.13333
 445.06;   26.267;  -16.600;    0.000;42.86667
 445.34;   32.000;  -20.467;    0.000;52.46667
 445.63;   44.733;  -28.467;    0.000;73.20000
 445.92;   58.333;   21.933;    0.000;36.40000
 446.21;    8.400;  -36.000;    0.000;44.40000
 446.49;   23.933;  -10.133;    0.000;34.06667
 446.78;   31.733;  -23.533;    0.000;55.26667
 447.07;   39.267;   -4.600;    0.000;43.86667
 447.35;   20.667;  -38.933;    0.000;59.60000
 447.64;   36.267;   -6.467;    0.000;42.73333
 447.93;   38.267;  -31.867;    0.000;70.13333
 448.21;    9.133;  -11.800;    0.000;20.93333
 448.50;   44.200;  -16.133;    0.000;60.33333
 448.79;   16.000;  -11.400;    0.000;27.40000
 449.07;   18.867;  -51.800;    0.000;70.66667
 449.36;   10.400;   -0.067;    0.000;10.46667
 449.65;   22.200;  -49.800;    0.000;72.00000
 449.93;   18.467;   -6.133;    0.000;24.60000
 450.22;   46.867;  -22.867;    0.000;69.73333
 450.51;   16.000;  -22.133;    0.000;38.13333
 450.79;   37.800;  -24.067;    0.000;61.86667
 451.08;    8.200;  -11.333;    0.000;19.53333
 451.36;   33.800;  -27.000;    0.000;60.80000
 451.65;   29.333;   -0.133;    0.000;29.46667
 451.94;   26.667;  -21.467;    0.000;48.13333
 452.22;   18.600;   -5.333;    0.000;23.93333
 452.51;   29.533;  -38.133;    0.000;67.66667
 452.80;   24.800;  -20.200;    0.000;45.00000
 453.08;   13.333;  -54.067;    0.000;67.40000
 453.37;   45.267;   -1.533;    0.000;46.80000
 453.66;    9.467;  -67.267;    0.000;76.73334
 453.94;   35.467;  -21.067;    0.000;56.53333
 454.23;   16.800;  -33.467;    0.000;50.26667
 454.51;    8.067;    8.600;    0.000;-0.53333
 454.80;    7.333;  -50.133;    0.000;57.46667
 455.09;   28.400;   15.533;    0.000;12.86667
 455.37;   22.467;   -7.933;    0.000;30.40000
 455.66;   17.533;   -8.600;    0.000;26.13333
 455.95;   35.067;  -15.533;    0.000;50.60000
 456.23;   27.600;   10.200;    0.000;17.40000
 456.52;   37.200;  -37.800;    0.000;75.00000
 456.80;   29.667;  -12.200;    0.000;41.86667
 457.09;   15.533;  -37.600;    0.000;53.13333
 457.38;   40.000;    0.867;    0.000;39.13333
 457.66;   56.667;  -18.533;    0.000;75.20000
 457.95;    7.133;  -27.000;    0.000;34.13333
 458.23;   23.467;  -14.467;    0.000;37.93333
 458.52;   27.867;   -5.533;    0.000;33.40000
 458.81;   18.000;  -48.600;    0.000;66.60000
 459.09;   38.000;  -25.133;    0.000;63.13333
 459.38;   25.867;  -52.800;    0.000;78.66667
 459.66;   24.933;  -11.000;    0.000;35.93333
 459.95;    9.267;  -29.667;    0.000;38.93333
 460.23;   31.867;  -21.533;    0.000;53.40000
 460.52;   32.933;  -24.267;    0.000;57.20000
 460.81;   31.400;  -10.933;    0.000;42.33333
 461.09;   24.600;  -37.400;    0.000;62.00000
 461.38;   31.867;   -1.000;    0.000;32.86667
 461.66;   30.733;  -58.200;    0.000;88.93333
 461.95;   49.000;  -16.600;    0.000;65.60000
 462.23;   17.933;  -34.200;    0.000;52.13333
 462.52;   21.800;  -23.733;    0.000;45.53333
 462.81;    1.067;  -35.667;    0.000;36.73333
 463.09;   16.467;  -16.800;    0.000;33.26667
 463.38;    2.667;  -35.467;    0.000;38.13333
 463.66;   12.400;  -15.867;    0.000;28.26667
 463.95;   53.733;  -25.867;    0.000;79.60000
 464.23;   32.133;  -15.133;    0.000;47.26667
 464.52;   40.733;  -41.800;    0.000;82.53333
 464.80;   12.667;  -23.533;    0.000;36.20000
 465.09;   24.533;  -14.600;    0.000;39.13333
 465.38;   14.933;   -2.000;    0.000;16.93333
 465.66;   25.933;  -27.867;    0.000;53.80000
 465.95;   32.800;  -12.000;    0.000;44.80000
 466.23;   23.333;  -42.333;    0.000;65.66667
 466.52;   35.200;  -17.533;    0.000;52.73333
 466.80;   48.067;  -23.333;    0.000;71.40000
 467.09;   29.333;   -3.533;    0.000;32.86667
 467.37;   39.333;  -23.133;    0.000;62.46667
 467.66;   37.333;    7.667;    0.000;29.66667
 467.94;   28.733;  -44.267;    0.000;73.00000
 468.23;   -7.067;   -7.067;    0.000; 0.00000
 468.51;   28.800;  -33.800;    0.000;62.60000
 468.80;   17.867;  -24.067;    0.000;41.93333
 469.08;   36.667;  -10.333;    0.000;47.00000
 469.37;   57.200;    5.667;    0.000;51.53333
 469.66;   26.533;  -22.067;    0.000;48.60000
 469.94;   22.267;  -14.600;    0.000;36.86667
 470.23;   48.267;  -33.000;    0.000;81.26667
 470.51;   38.267;  -16.467;    0.000;54.73333
 470.80;   46.133;  -18.667;    0.000;64.80000
 471.08;   28.667;  -21.800;    0.000;50.46667
 471.37;   39.267;  -29.533;    0.000;68.80000
 471.65;   52.200;   -6.467;    0.000;58.66667
 471.94;   20.000;  -39.867;    0.000;59.86666
 472.22;   25.067;  -11.800;    0.000;36.86667
 472.51;   30.333;  -34.800;    0.000;65.13333
 472.79;   31.533;   -6.467;    0.000;38.00000
 473.08;   38.133;  -17.400;    0.000;55.53333
 473.36;   38.800;   -0.533;    0.000;39.33333
 473.64;   54.067;  -38.467;    0.000;92.53333
 473.93;   42.333;  -20.333;    0.000;62.66667
 474.21;   68.533;  -18.533;    0.000;87.06667
 474.50;   56.933;  -18.067;    0.000;75.00000
 474.78;   96.467;  -17.533;    0.000;114.00000
 475.07;   37.800;  -25.133;    0.000;62.93333
 475.35;   64.200;  -41.067;    0.000;105.26666
 475.64;   78.000;  -20.400;    0.000;98.40000
 475.92;   82.333;  -35.400;    0.000;117.73334
 476.21;   95.200;    2.000;    0.000;93.20000
 476.49;  102.733;  -26.867;    0.000;129.60000
 476.78;   89.067;  -28.933;    0.000;118.00000
 477.06;  106.867;  -32.667;    0.000;139.53334
 477.35;  128.000;   -5.733;    0.000;133.73333
 477.63;  144.667;  -30.200;    0.000;174.86667
 477.91;  131.000;  -15.400;    0.000;146.40000
 478.20;  160.867;  -38.667;    0.000;199.53334
 478.48;  214.600;   18.533;    0.000;196.06667
 478.77;  180.067;  -20.667;    0.000;200.73333
 479.05;  184.467;  -27.000;    0.000;211.46666
 479.34;  212.867;  -30.333;    0.000;243.20000
 479.62;  240.467;  -23.867;    0.000;264.33333
 479.91;  249.800;  -36.733;    0.000;286.53334
 480.19;  272.733;   -6.800;    0.000;279.53334
 480.47;  271.667;  -44.333;    0.000;315.99999
 480.76;  338.200;  -15.067;    0.000;353.26668
 481.04;  345.400;  -25.267;    0.000;370.66666
 481.33;  368.333;  -12.600;    0.000;380.93334
 481.61;  369.600;  -30.133;    0.000;399.73334
 481.90;  405.800;  -34.733;    0.000;440.53332
 482.18;  449.800;  -37.800;    0.000;487.59999
 482.46;  488.733;   -4.533;    0.000;493.26667
 482.75;  527.067;  -51.333;    0.000;578.39998
 483.03;  559.667;   -4.867;    0.000;564.53335
 483.32;  597.200;  -40.467;    0.000;637.66668
 483.60;  660.600;  -12.733;    0.000;673.33331
 483.88;  674.733;  -46.133;    0.000;720.86667
 484.17;  725.867;  -14.600;    0.000;740.46664
 484.45;  759.200;  -25.800;    0.000;785.00001
 484.74;  827.133;  -28.467;    0.000;855.60003
 485.02;  861.400;  -37.200;    0.000;898.60003
 485.30;  886.000;  -33.267;    0.000;919.26667
 485.59;  996.200;  -37.467;    0.000;1033.66668
 485.87; 1038.667;  -13.333;    0.000;1051.99996
 486.16; 1078.467;  -40.867;    0.000;1119.33334
 486.44; 1128.267;  -25.933;    0.000;1154.20006
 486.72; 1214.200;  -63.467;    0.000;1277.66662
 487.01; 1250.267;  -25.133;    0.000;1275.40006
 487.29; 1329.933;  -32.000;    0.000;1361.93335
 487.58; 1415.467;  -16.400;    0.000;1431.86667
 487.86; 1467.333;  -35.400;    0.000;1502.73338
 488.14; 1591.067;   -8.667;    0.000;1599.73332
 488.43; 1621.133;  -43.267;    0.000;1664.39997
 488.71; 1711.667;  -17.600;    0.000;1729.26663
 488.99; 1766.933;  -47.200;    0.000;1814.13335
 489.28; 1824.267;  -23.067;    0.000;1847.33339
 489.56; 1939.733;  -36.000;    0.000;1975.73328
 489.85; 1985.800;   -8.200;    0.000;1994.00005
 490.13; 2114.733;  -22.933;    0.000;2137.66673
 490.41; 2231.333;  -10.933;    0.000;2242.26659
 490.70; 2250.400;  -38.600;    0.000;2288.99990
 490.98; 2382.533;  -19.267;    0.000;2401.80011
 491.26; 2487.467;  -46.533;    0.000;2533.99989
 491.55; 2582.400;  -30.933;    0.000;2613.33323
 491.83; 2676.333;  -39.600;    0.000;2715.93325
 492.11; 2793.000;  -21.733;    0.000;2814.73333
 492.40; 2850.133;  -46.600;    0.000;2896.73330
 492.68; 3019.933;  -16.200;    0.000;3036.13335
 492.96; 3061.467;  -48.733;    0.000;3110.19989
 493.25; 3181.400;   -2.267;    0.000;3183.66657
 493.53; 3290.267;  -41.467;    0.000;3331.73327
 493.81; 3430.867;  -20.133;    0.000;3451.00003
 494.10; 3536.733;  -28.067;    0.000;3564.80007
 494.38; 3676.600;  -11.867;    0.000;3688.46676
 494.66; 3743.067;  -52.267;    0.000;3795.33332
 494.95; 3907.400;  -23.933;    0.000;3931.33323
 495.23; 3974.733;  -46.600;    0.000;4021.33340
 495.51; 4139.400;   -5.933;    0.000;4145.33324
 495.80; 4246.533;  -45.667;    0.000;4292.19987
 496.08; 4385.400;  -10.467;    0.000;4395.86657
 496.36; 4488.133;  -39.533;    0.000;4527.66663
 496.65; 4661.333;  -27.333;    0.000;4688.66683
 496.93; 4693.067;  -31.800;    0.000;4724.86689
 497.21; 4928.867;  -12.600;    0.000;4941.46670
 497.50; 5092.467;  -34.600;    0.000;5127.06680
 497.78; 5151.333;  -14.733;    0.000;5166.06683
 498.06; 5245.867;  -47.200;    0.000;5293.06670
 498.34; 5538.467;  -15.067;    0.000;5553.53346
 498.63; 5547.667;  -46.800;    0.000;5594.46650
 498.91; 5636.800;  -19.133;    0.000;5655.93314
 499.19; 5785.733;  -43.333;    0.000;5829.06673
 499.48; 6002.867;  -10.867;    0.000;6013.73337
 499.76; 6105.200;  -41.333;    0.000;6146.53353
 500.04; 6201.933;   -9.800;    0.000;6211.73311
 500.32; 6374.333;  -50.933;    0.000;6425.26683
 500.61; 6527.000;  -26.000;    0.000;6553.00000
 500.89; 6626.533;  -35.667;    0.000;6662.19987
 501.17; 6740.933;  -37.467;    0.000;6778.39977
 501.46; 6895.533;  -40.267;    0.000;6935.79987
 501.74; 7087.400;  -33.667;    0.000;7121.06657
 502.02; 7256.667;  -26.067;    0.000;7282.73317
 502.30; 7374.533;   -8.267;    0.000;7382.79987
 502.59; 7377.067;  -45.133;    0.000;7422.20023
 502.87; 7588.267;  -16.733;    0.000;7604.99994
 503.15; 7723.600;  -35.667;    0.000;7759.26677
 503.43; 7813.533;  -13.867;    0.000;7827.39987
 503.72; 7985.867;  -46.800;    0.000;8032.66670
 504.00; 8221.066;   -8.800;    0.000;8229.86641
 504.28; 8284.400;  -46.933;    0.000;8331.33372
 504.56; 8278.000;  -38.733;    0.000;8316.73333
 504.85; 8582.400;  -24.933;    0.000;8607.33372
 505.13; 8708.000;  -16.867;    0.000;8724.86667
 505.41; 8849.467;  -55.000;    0.000;8904.46680
 505.69; 8922.267;  -23.800;    0.000;8946.06660
 505.98; 9150.333;  -37.600;    0.000;9187.93301
 506.26; 9195.267;   -1.667;    0.000;9196.93327
 506.54; 9350.200;  -51.333;    0.000;9401.53353
 506.82; 9489.400;  -26.267;    0.000;9515.66706
 507.11; 9569.467;  -26.867;    0.000;9596.33346
 507.39; 9741.000;  -35.067;    0.000;9776.06667
 507.67; 9895.400;  -47.133;    0.000;9942.53373
 507.95;10050.333;  -28.133;    0.000;10078.46634
 508.23;10078.200;  -30.533;    0.000;10108.73353
 508.52;10316.467;  -11.333;    0.000;10327.80013
 508.80;10407.333;  -49.533;    0.000;10456.86634
 509.08;10515.333;  -14.400;    0.000;10529.73301
 509.36;10736.733;  -44.800;    0.000;10781.53340
 509.65;10792.333;  -26.333;    0.000;10818.66634
 509.93;10990.866;  -62.000;    0.000;11052.86621
 510.21;11189.467;  -14.600;    0.000;11204.06680
 510.49;11159.600;  -29.000;    0.000;11188.59961
 510.77;11249.866;  -16.067;    0.000;11265.93288
 511.06;11413.000;  -60.467;    0.000;11473.46667
 511.34;11603.333;  -31.800;    0.000;11635.13301
 511.62;11731.934;  -38.867;    0.000;11770.80026
 511.90;11667.066;  -27.133;    0.000;11694.19974
 512.18;12001.333;  -30.000;    0.000;12031.33301
 512.47;12137.000;   -4.267;    0.000;12141.26667
 512.75;12109.066;  -59.467;    0.000;12168.53307
 513.03;12300.934;  -38.400;    0.000;12339.33360
 513.31;12351.200;  -34.467;    0.000;12385.66686
 513.59;12554.000;  -14.400;    0.000;12568.40000
 513.87;12611.533;  -49.867;    0.000;12661.39987
 514.16;12858.333;   -6.733;    0.000;12865.06634
 514.44;12840.200;  -26.867;    0.000;12867.06686
 514.72;12952.000;  -22.600;    0.000;12974.60000
 515.00;13136.400;  -23.733;    0.000;13160.13372
 515.28;13245.667;  -20.400;    0.000;13266.06699
 515.56;13346.600;  -42.200;    0.000;13388.79961
 515.85;13394.200;  -25.067;    0.000;13419.26686
 516.13;13583.333;  -48.467;    0.000;13631.79967
 516.41;13714.066;  -24.200;    0.000;13738.26641
 516.69;13854.267;  -45.400;    0.000;13899.66660
 516.97;13868.866;  -22.733;    0.000;13891.59954
 517.25;14048.934;  -51.933;    0.000;14100.86693
 517.54;14098.533;  -23.600;    0.000;14122.13320
 517.82;14156.934;  -38.333;    0.000;14195.26693
 518.10;14383.800;  -20.533;    0.000;14404.33314
 518.38;14407.267;  -50.133;    0.000;14457.39994
 518.66;14543.467;  -26.733;    0.000;14570.20013
 518.94;14657.800;  -30.133;    0.000;14687.93314
 519.22;14742.267;  -18.000;    0.000;14760.26660
 519.51;14844.134;  -45.067;    0.000;14889.20045
 519.79;14939.066;  -24.667;    0.000;14963.73307
 520.07;15017.467;  -33.800;    0.000;15051.26680
 520.35;15130.733;  -32.400;    0.000;15163.13340
 520.63;15296.667;  -32.800;    0.000;15329.46699
 520.91;15461.267;  -22.600;    0.000;15483.86660
 521.19;15397.200;  -53.333;    0.000;15450.53353
 521.47;15598.934;  -13.267;    0.000;15612.20026
 521.75;15629.600;  -47.000;    0.000;15676.59961
 522.04;15719.134;  -23.733;    0.000;15742.86712
 522.32;15813.866;  -45.200;    0.000;15859.06621
 522.60;15932.400;  -11.600;    0.000;15944.00039
 522.88;15944.267;  -36.667;    0.000;15980.93327
 523.16;16035.400;  -28.400;    0.000;16063.80039
 523.44;16325.866;  -14.467;    0.000;16340.33288
 523.72;16298.000;  -13.267;    0.000;16311.26667
 524.00;16338.800;  -40.867;    0.000;16379.66647
 524.28;16433.666;    6.733;    0.000;16426.93268
 524.57;16497.732;  -42.733;    0.000;16540.46576
 524.85;16607.334;  -32.400;    0.000;16639.73399
 525.13;16599.666;  -29.000;    0.000;16628.66602
 525.41;16717.000;  -21.067;    0.000;16738.06667
 525.69;16981.400;  -26.933;    0.000;17008.33372
 525.97;16974.600;    0.533;    0.000;16974.06628
 526.25;17091.533;  -38.933;    0.000;17130.46654
 526.53;17122.732;  -14.667;    0.000;17137.39909
 526.81;17330.199;  -60.333;    0.000;17390.53255
 527.09;17393.000;  -26.667;    0.000;17419.66667
 527.37;17310.133;  -51.133;    0.000;17361.26615
 527.65;17494.801;  -17.400;    0.000;17512.20078
 527.93;17485.066;  -46.067;    0.000;17531.13307
 528.22;17590.199;  -21.333;    0.000;17611.53255
 528.50;17624.600;  -55.600;    0.000;17680.19961
 528.78;17691.600;  -34.200;    0.000;17725.79961
 529.06;17755.867;  -36.733;    0.000;17792.60052
 529.34;17864.467;  -11.867;    0.000;17876.33346
 529.62;17907.934;  -47.733;    0.000;17955.66693
 529.90;17987.600;  -21.133;    0.000;18008.73294
 530.18;18103.066;  -65.600;    0.000;18168.66640
 530.46;18160.732;  -12.400;    0.000;18173.13242
 530.74;18230.732;  -28.067;    0.000;18258.79909
 531.02;18460.268;   -6.067;    0.000;18466.33424
 531.30;18446.334;  -51.800;    0.000;18498.13398
 531.58;18503.666;  -18.467;    0.000;18522.13268
 531.86;18626.400;  -36.867;    0.000;18663.26706
 532.14;18621.600;  -11.133;    0.000;18632.73294
 532.42;18607.934;  -30.600;    0.000;18638.53359
 532.70;18734.666;   -0.133;    0.000;18734.79935
 532.98;18887.268;  -53.867;    0.000;18941.13424
 533.26;18825.600;  -15.467;    0.000;18841.06628
 533.54;18969.467;  -43.467;    0.000;19012.93346
 533.82;19180.334;  -13.333;    0.000;19193.66732
 534.10;19140.666;  -46.267;    0.000;19186.93268
 534.38;19123.666;  -28.467;    0.000;19152.13268
 534.66;19103.066;  -50.933;    0.000;19153.99974
 534.94;19305.334;  -10.667;    0.000;19316.00065
 535.22;19237.066;  -48.800;    0.000;19285.86641
 535.50;19424.133;  -23.733;    0.000;19447.86615
 535.78;19382.934;  -53.200;    0.000;19436.13359
 536.06;19470.533;  -37.733;    0.000;19508.26654
 536.34;19500.934;  -44.333;    0.000;19545.26693
 536.62;19586.801;  -12.533;    0.000;19599.33412
 536.90;19777.600;  -60.200;    0.000;19837.79961
 537.18;19822.268;  -28.467;    0.000;19850.73425
 537.46;19731.666;  -37.067;    0.000;19768.73268
 537.74;19912.801;  -14.933;    0.000;19927.73411
 538.02;19803.666;  -36.333;    0.000;19839.99935
 538.30;19900.066;   -7.333;    0.000;19907.39974
 538.58;20028.334;  -40.467;    0.000;20068.80065
 538.86;20098.934;  -21.133;    0.000;20120.06693
 539.14;20087.467;  -43.467;    0.000;20130.93346
 539.42;20041.666;   -9.800;    0.000;20051.46602
 539.70;20240.467;  -48.867;    0.000;20289.33346
 539.98;20225.334;    3.333;    0.000;20222.00065
 540.26;20406.732;  -64.467;    0.000;20471.19909
 540.54;20365.934;  -40.867;    0.000;20406.80026
 540.82;20330.400;  -55.400;    0.000;20385.80039
 541.10;20388.533;  -45.600;    0.000;20434.13320
 541.38;20574.666;  -66.533;    0.000;20641.19935
 541.66;20546.000;  -19.067;    0.000;20565.06667
 541.94;20560.867;  -55.933;    0.000;20616.80052
 542.22;20666.133;  -25.200;    0.000;20691.33281
 542.50;20672.600;  -18.800;    0.000;20691.39961
 542.78;20772.666;  -40.000;    0.000;20812.66602
 543.06;20956.199;  -41.733;    0.000;20997.93255
 543.34;20780.400;  -15.467;    0.000;20795.86706
 543.62;20813.600;  -41.133;    0.000;20854.73294
 543.90;20862.268;  -33.800;    0.000;20896.06758
 544.17;20859.199;  -40.333;    0.000;20899.53255
 544.45;21045.600;  -32.533;    0.000;21078.13294
 544.73;20974.133;  -39.733;    0.000;21013.86615
 545.01;21021.400;  -19.733;    0.000;21041.13372
 545.29;21086.934;  -50.733;    0.000;21137.66693
 545.57;21180.268;  -23.733;    0.000;21204.00091
 545.85;21095.732;  -34.867;    0.000;21130.59909
 546.13;21035.334;   -6.267;    0.000;21041.60065
 546.41;21172.867;  -32.067;    0.000;21204.93385
 546.69;21283.467;  -37.467;    0.000;21320.93346
 546.97;21257.666;  -44.000;    0.000;21301.66602
 547.25;21177.801;  -42.733;    0.000;21220.53411
 547.52;21401.467;  -50.667;    0.000;21452.13346
 547.80;21470.533;  -17.400;    0.000;21487.93320
 548.08;21424.533;  -42.133;    0.000;21466.66654
 548.36;21385.199;  -25.067;    0.000;21410.26589
 548.64;21375.199;  -39.400;    0.000;21414.59922
 548.92;21405.000;  -25.667;    0.000;21430.66667
 549.20;21514.666;  -52.067;    0.000;21566.73268
 549.48;21445.000;   -5.200;    0.000;21450.20000
 549.76;21571.533;  -44.800;    0.000;21616.33320
 550.04;21485.133;  -11.400;    0.000;21496.53281
 550.31;21616.600;  -32.800;    0.000;21649.39961
 550.59;21617.334;  -22.600;    0.000;21639.93398
 550.87;21589.533;  -48.133;    0.000;21637.66654
 551.15;21666.867;  -24.600;    0.000;21691.46719
 551.43;21636.732;  -45.200;    0.000;21681.93242
 551.71;21637.066;  -31.067;    0.000;21668.13307
 551.99;21717.334;  -23.600;    0.000;21740.93398
 552.27;21632.400;  -25.133;    0.000;21657.53372
 552.54;21650.000;  -45.600;    0.000;21695.60000
 552.82;21786.934;  -36.600;    0.000;21823.53359
 553.10;21721.066;  -48.200;    0.000;21769.26641
 553.38;21626.000;  -24.400;    0.000;21650.40000
 553.66;21819.000;  -39.533;    0.000;21858.53333
 553.94;21839.533;   -9.667;    0.000;21849.19987
 554.22;21661.732;  -32.000;    0.000;21693.73242
 554.49;21840.801;  -14.933;    0.000;21855.73411
 554.77;21683.268;  -43.400;    0.000;21726.66758
 555.05;21764.334;  -22.200;    0.000;21786.53399
 555.33;21858.867;  -60.533;    0.000;21919.40052
 555.61;21770.199;  -20.600;    0.000;21790.79922
 555.89;21761.666;  -74.400;    0.000;21836.06602
 556.16;21801.533;  -38.267;    0.000;21839.79987
 556.44;21875.400;  -38.600;    0.000;21914.00039
 556.72;21703.666;  -18.867;    0.000;21722.53268
 557.00;21698.867;  -55.733;    0.000;21754.60052
 557.28;21861.334;  -21.133;    0.000;21882.46732
 557.56;21667.867;  -58.533;    0.000;21726.40052
 557.83;21629.801;  -10.533;    0.000;21640.33412
 558.11;21694.533;  -45.733;    0.000;21740.26654
 558.39;21768.334;  -24.067;    0.000;21792.40065
 558.67;21644.066;  -43.267;    0.000;21687.33307
 558.95;21762.000;  -43.267;    0.000;21805.26667
 559.23;21703.000;  -47.267;    0.000;21750.26667
 559.50;21565.066;  -46.000;    0.000;21611.06641
 559.78;21809.600;  -52.200;    0.000;21861.79961
 560.06;21738.066;  -27.067;    0.000;21765.13307
 560.34;21696.066;  -54.200;    0.000;21750.26641
 560.62;21771.133;  -40.467;    0.000;21811.59948
 560.89;21680.600;  -30.333;    0.000;21710.93294
 561.17;21593.000;  -20.333;    0.000;21613.33333
 561.45;21511.066;  -47.533;    0.000;21558.59974
 561.73;21636.000;  -45.200;    0.000;21681.20000
 562.00;21438.600;  -32.133;    0.000;21470.73294
 562.28;21508.533;  -21.200;    0.000;21529.73320
 562.56;21424.732;  -52.733;    0.000;21477.46576
 562.84;21466.268;  -27.800;    0.000;21494.06758
 563.12;21482.867;  -60.067;    0.000;21542.93385
 563.39;21299.000;  -36.000;    0.000;21335.00000
 563.67;21277.867;  -40.267;    0.000;21318.13385
 563.95;21309.066;  -29.733;    0.000;21338.79974
 564.23;21277.934;  -34.267;    0.000;21312.20026
 564.50;21338.867;  -28.333;    0.000;21367.20052
 564.78;21245.400;  -43.867;    0.000;21289.26706
 565.06;21186.666;  -21.133;    0.000;21207.79935
 565.34;21295.934;  -29.267;    0.000;21325.20026
 565.61;21099.666;  -24.333;    0.000;21123.99935
 565.89;21164.199;  -39.800;    0.000;21203.99922
 566.17;21019.066;  -22.867;    0.000;21041.93307
 566.45;21082.000;  -36.267;    0.000;21118.26667
 566.73;21010.600;  -43.067;    0.000;21053.66628
 567.00;20916.600;  -53.600;    0.000;20970.19961
 567.28;21019.467;  -38.533;    0.000;21058.00013
 567.56;20878.801;  -66.200;    0.000;20945.00078
 567.83;20787.133;  -15.267;    0.000;20802.39948
 568.11;20765.400;  -58.800;    0.000;20824.20039
 568.39;20731.334;  -16.333;    0.000;20747.66732
 568.67;20608.666;  -49.867;    0.000;20658.53268
 568.94;20505.666;  -40.733;    0.000;20546.39935
 569.22;20669.600;  -39.733;    0.000;20709.33294
 569.50;20532.934;  -41.800;    0.000;20574.73359
 569.78;20663.400;  -31.733;    0.000;20695.13372
 570.05;20564.600;  -59.667;    0.000;20624.26628
 570.33;20430.467;  -57.133;    0.000;20487.60013
 570.61;20279.268;  -30.067;    0.000;20309.33425
 570.88;20174.268;  -61.133;    0.000;20235.40091
 571.16;20261.801;  -33.800;    0.000;20295.60078
 571.44;20154.732;  -58.867;    0.000;20213.59909
 571.72;20220.533;  -25.267;    0.000;20245.79987
 571.99;20270.400;  -35.400;    0.000;20305.80039
 572.27;19985.268;  -30.267;    0.000;20015.53424
 572.55;19980.533;  -62.800;    0.000;20043.33320
 572.82;19893.867;  -27.133;    0.000;19921.00052
 573.10;19800.133;  -41.067;    0.000;19841.19948
 573.38;19743.066;  -39.733;    0.000;19782.79974
 573.65;19869.867;  -20.533;    0.000;19890.40052
 573.93;19624.268;  -18.467;    0.000;19642.73425
 574.21;19691.600;  -48.867;    0.000;19740.46627
 574.48;19445.467;  -26.667;    0.000;19472.13346
 574.76;19549.867;  -36.267;    0.000;19586.13385
 575.04;19517.732;  -21.800;    0.000;19539.53242
 575.32;19384.600;  -33.733;    0.000;19418.33294
 575.59;19280.801;  -31.000;    0.000;19311.80078
 575.87;19372.199;  -57.333;    0.000;19429.53255
 576.15;19193.133;  -26.067;    0.000;19219.19948
 576.42;19168.666;  -57.533;    0.000;19226.19935
 576.70;18942.000;  -43.800;    0.000;18985.80000
 576.98;18895.600;  -61.933;    0.000;18957.53294
 577.25;18887.867;  -31.733;    0.000;18919.60052
 577.53;18843.400;  -45.533;    0.000;18888.93372
 577.80;18702.400;  -24.133;    0.000;18726.53372
 578.08;18550.801;  -58.333;    0.000;18609.13411
 578.36;18538.268;  -26.333;    0.000;18564.60091
 578.63;18601.000;  -59.600;    0.000;18660.60000
 578.91;18337.867;  -16.533;    0.000;18354.40052
 579.19;18305.467;  -31.133;    0.000;18336.60013
 579.46;18379.867;  -36.933;    0.000;18416.80052
 579.74;18254.732;  -37.200;    0.000;18291.93242
 580.02;18057.467;  -15.267;    0.000;18072.73346
 580.29;17931.133;  -44.933;    0.000;17976.06615
 580.57;17976.934;  -32.933;    0.000;18009.86693
 580.84;17929.400;  -45.067;    0.000;17974.46706
 581.12;17801.867;  -25.467;    0.000;17827.33385
 581.40;17788.000;  -65.800;    0.000;17853.80000
 581.67;17662.400;   -5.933;    0.000;17668.33372
 581.95;17508.400;  -53.467;    0.000;17561.86706
 582.23;17428.268;  -29.533;    0.000;17457.80091
 582.50;17429.268;  -59.400;    0.000;17488.66758
 582.78;17298.199;  -34.733;    0.000;17332.93255
 583.05;17254.400;  -49.933;    0.000;17304.33372
 583.33;17058.666;  -24.733;    0.000;17083.39935
 583.61;17069.199;  -59.000;    0.000;17128.19922
 583.88;16978.666;  -37.933;    0.000;17016.59935
 584.16;16911.666;  -49.733;    0.000;16961.39935
 584.43;16886.199;  -30.933;    0.000;16917.13255
 584.71;16740.666;  -50.067;    0.000;16790.73268
 584.99;16712.533;  -19.133;    0.000;16731.66654
 585.26;16482.732;  -49.667;    0.000;16532.39909
 585.54;16452.600;  -42.533;    0.000;16495.13294
 585.81;16391.600;  -50.600;    0.000;16442.19961
 586.09;16350.134;  -22.800;    0.000;16372.93379
 586.37;16163.866;  -45.400;    0.000;16209.26621
 586.64;16102.733;  -37.600;    0.000;16140.33340
 586.92;16076.667;  -47.467;    0.000;16124.13366
 587.19;15966.333;  -32.400;    0.000;15998.73301
 587.47;15959.267;  -59.467;    0.000;16018.73327
 587.74;15842.467;  -47.533;    0.000;15890.00013
 588.02;15734.866;  -49.533;    0.000;15784.39954
 588.30;15664.000;  -21.600;    0.000;15685.60000
 588.57;15531.600;  -56.733;    0.000;15588.33294
 588.85;15593.800;  -23.667;    0.000;15617.46647
 589.12;15367.000;  -54.600;    0.000;15421.60000
 589.40;15371.934;  -30.133;    0.000;15402.06693
 589.67;15290.934;  -45.400;    0.000;15336.33360
 589.95;15166.267;  -41.067;    0.000;15207.33327
 590.22;15071.066;  -63.467;    0.000;15134.53307
 590.50;14897.934;  -33.133;    0.000;14931.06693
 590.77;14975.134;  -47.400;    0.000;15022.53379
 591.05;14816.333;  -41.933;    0.000;14858.26634
 591.33;14741.533;  -46.667;    0.000;14788.19987
 591.60;14600.333;  -57.533;    0.000;14657.86634
 591.88;14633.934;  -55.933;    0.000;14689.86693
 592.15;14487.800;  -45.267;    0.000;14533.06647
 592.43;14387.066;  -53.733;    0.000;14440.79974
 592.70;14276.733;  -33.133;    0.000;14309.86673
 592.98;14297.000;  -42.733;    0.000;14339.73333
 593.25;14053.800;  -22.333;    0.000;14076.13314
 593.53;13996.200;  -58.200;    0.000;14054.40020
 593.80;13927.800;  -42.067;    0.000;13969.86647
 594.08;13789.134;  -51.200;    0.000;13840.33379
 594.35;13710.333;  -28.667;    0.000;13738.99967
 594.63;13647.333;  -33.800;    0.000;13681.13301
 594.90;13458.134;  -37.600;    0.000;13495.73379
 595.18;13423.200;  -43.867;    0.000;13467.06686
 595.45;13401.000;  -11.933;    0.000;13412.93333
 595.73;13249.467;  -37.933;    0.000;13287.40013
 596.00;13099.934;  -36.600;    0.000;13136.53359
 596.28;13061.333;  -69.133;    0.000;13130.46634
 596.55;12951.800;  -37.067;    0.000;12988.86647
 596.83;13011.200;  -50.267;    0.000;13061.46686
 597.10;12848.866;  -19.667;    0.000;12868.53288
 597.38;12777.000;  -42.800;    0.000;12819.80000
 597.65;12700.934;  -40.133;    0.000;12741.06693
 597.93;12669.667;  -55.800;    0.000;12725.46699
 598.20;12595.467;  -42.467;    0.000;12637.93346
 598.48;12459.600;  -47.600;    0.000;12507.19961
 598.75;12260.134;  -32.133;    0.000;12292.26712
 599.03;12191.267;  -47.800;    0.000;12239.06660
 599.30;12185.934;  -38.600;    0.000;12224.53359
 599.58;11979.134;  -54.467;    0.000;12033.60046
 599.85;12041.733;  -21.333;    0.000;12063.06673
 600.12;11854.866;  -45.733;    0.000;11900.59954
 600.40;11831.733;  -32.067;    0.000;11863.80006
 600.67;11715.066;  -56.200;    0.000;11771.26641
 600.95;11549.134;  -26.000;    0.000;11575.13379
 601.22;11482.667;  -43.800;    0.000;11526.46699
 601.50;11500.333;  -25.467;    0.000;11525.79967
 601.77;11329.800;  -48.933;    0.000;11378.73314
 602.05;11280.333;   -1.667;    0.000;11281.99967
 602.32;11192.134;  -31.400;    0.000;11223.53379
 602.59;11075.667;  -27.667;    0.000;11103.33366
 602.87;11016.267;  -44.400;    0.000;11060.66660
 603.14;10960.866;  -34.000;    0.000;10994.86621
 603.42;10831.400;  -56.733;    0.000;10888.13372
 603.69;10857.200;  -55.200;    0.000;10912.40020
 603.97;10709.667;  -65.533;    0.000;10775.20033
 604.24;10655.667;  -35.933;    0.000;10691.60033
 604.51;10612.733;  -46.333;    0.000;10659.06673
 604.79;10489.267;  -48.600;    0.000;10537.86660
 605.06;10422.800;  -39.667;    0.000;10462.46647
 605.34;10386.866;  -24.600;    0.000;10411.46621
 605.61;10217.600;  -58.000;    0.000;10275.59961
 605.89;10321.667;  -28.867;    0.000;10350.53366
 606.16;10112.333;  -49.333;    0.000;10161.66634
 606.43;10097.934;  -36.133;    0.000;10134.06693
 606.71; 9975.134;  -40.533;    0.000;10015.66712
 606.98; 9941.200;  -41.867;    0.000;9983.06686
 607.26; 9954.866;  -50.333;    0.000;10005.19954
 607.53; 9801.667;  -54.333;    0.000;9856.00032
 607.80; 9872.066;  -56.867;    0.000;9928.93307
 608.08; 9742.467;  -19.867;    0.000;9762.33346
 608.35; 9631.733;  -74.133;    0.000;9705.86673
 608.62; 9555.600;  -38.067;    0.000;9593.66628
 608.90; 9526.400;  -52.800;    0.000;9579.20039
 609.17; 9459.400;  -37.533;    0.000;9496.93372
 609.45; 9467.667;  -36.200;    0.000;9503.86699
 609.72; 9288.800;  -46.800;    0.000;9335.59980
 609.99; 9315.134;  -53.200;    0.000;9368.33379
 610.27; 9199.200;  -36.133;    0.000;9235.33353
 610.54; 9210.134;  -68.133;    0.000;9278.26712
 610.81; 9175.200;  -37.600;    0.000;9212.80019
 611.09; 9030.134;  -51.533;    0.000;9081.66712
 611.36; 9042.667;  -29.200;    0.000;9071.86699
 611.64; 8929.600;  -59.867;    0.000;8989.46627
 611.91; 8965.800;  -32.800;    0.000;8998.59980
 612.18; 8856.467;  -41.600;    0.000;8898.06680
 612.46; 8776.333;  -28.533;    0.000;8804.86634
 612.73; 8779.000;  -66.000;    0.000;8845.00000
 613.00; 8678.200;  -49.333;    0.000;8727.53353
 613.28; 8668.467;  -52.667;    0.000;8721.13346
 613.55; 8490.134;  -38.733;    0.000;8528.86712
 613.82; 8461.866;  -55.733;    0.000;8517.59954
 614.10; 8478.934;  -28.467;    0.000;8507.40026
 614.37; 8348.267;  -71.600;    0.000;8419.86660
 614.64; 8145.933;  -60.400;    0.000;8206.33311
 614.92; 8055.333;  -47.533;    0.000;8102.86683
 615.19; 7980.467;  -17.667;    0.000;7998.13346
 615.46; 7871.733;  -50.867;    0.000;7922.60006
 615.74; 7763.467;  -31.867;    0.000;7795.33346
 616.01; 7712.333;  -82.267;    0.000;7794.60017
 616.28; 7610.733;  -25.533;    0.000;7636.26673
 616.56; 7401.400;  -50.467;    0.000;7451.86657
 616.83; 7290.467;  -22.933;    0.000;7313.40013
 617.10; 7264.200;  -60.533;    0.000;7324.73353
 617.37; 7269.733;  -40.933;    0.000;7310.66673
 617.65; 7265.667;  -53.933;    0.000;7319.59984
 617.92; 7333.000;  -18.867;    0.000;7351.86667
 618.19; 7269.600;  -65.933;    0.000;7335.53343
 618.47; 7323.533;  -38.800;    0.000;7362.33320
 618.74; 7268.200;  -72.067;    0.000;7340.26686
 619.01; 7153.067;  -46.133;    0.000;7199.20023
 619.28; 7128.600;  -51.267;    0.000;7179.86676
 619.56; 7043.933;  -42.733;    0.000;7086.66644
 619.83; 7083.467;  -46.200;    0.000;7129.66680
 620.10; 7047.933;  -19.400;    0.000;7067.33311
 620.38; 7006.867;  -58.933;    0.000;7065.80003
 620.65; 6907.667;  -45.333;    0.000;6952.99984
 620.92; 6920.200;  -58.867;    0.000;6979.06686
 621.19; 6882.600;  -33.667;    0.000;6916.26677
 621.47; 6890.133;  -57.333;    0.000;6947.46663
 621.74; 6995.067;  -37.000;    0.000;7032.06689
 622.01; 6949.400;  -58.933;    0.000;7008.33324
 622.28; 6970.467;  -46.800;    0.000;7017.26680
 622.56; 6955.600;  -46.667;    0.000;7002.26677
 622.83; 6877.467;  -41.067;    0.000;6918.53346
 623.10; 6753.267;  -66.400;    0.000;6819.66660
 623.38; 6840.733;  -40.467;    0.000;6881.20007
 623.65; 6866.067;  -37.600;    0.000;6903.66689
 623.92; 6687.067;  -40.333;    0.000;6727.40023
 624.19; 6720.600;  -71.333;    0.000;6791.93343
 624.46; 6695.067;  -29.133;    0.000;6724.20023
 624.74; 6689.000;  -48.867;    0.000;6737.86666
 625.01; 6565.333;  -27.933;    0.000;6593.26683
 625.28; 6627.667;  -59.200;    0.000;6686.86650
 625.55; 6628.533;  -34.667;    0.000;6663.19987
 625.83; 6528.200;  -46.267;    0.000;6574.46686
 626.10; 6484.000;  -31.733;    0.000;6515.73333
 626.37; 6454.600;  -56.000;    0.000;6510.60010
 626.64; 6410.600;  -52.067;    0.000;6462.66676
 626.92; 6455.133;  -47.000;    0.000;6502.13330
 627.19; 6362.133;  -42.067;    0.000;6404.19997
 627.46; 6419.200;  -47.800;    0.000;6467.00019
 627.73; 6323.667;  -43.467;    0.000;6367.13317
 628.00; 6261.400;  -78.000;    0.000;6339.39990
 628.28; 6261.667;  -40.933;    0.000;6302.59984
 628.55; 6224.867;  -58.933;    0.000;6283.80003
 628.82; 6247.533;  -37.867;    0.000;6285.39987
 629.09; 6237.800;  -66.733;    0.000;6304.53313
 629.36; 6191.933;  -41.667;    0.000;6233.59977
 629.64; 6165.333;  -46.600;    0.000;6211.93349
 629.91; 6152.200;  -41.667;    0.000;6193.86686
 630.18; 6056.867;  -49.067;    0.000;6105.93336
 630.45; 6087.667;  -44.067;    0.000;6131.73317
 630.72; 5938.400;  -63.267;    0.000;6001.66657
 631.00; 6022.467;  -53.400;    0.000;6075.86680
 631.27; 5998.000;  -51.600;    0.000;6049.60000
 631.54; 5931.533;  -37.400;    0.000;5968.93320
 631.81; 5892.800;  -57.467;    0.000;5950.26647
 632.08; 5875.800;  -32.533;    0.000;5908.33314
 632.35; 5882.133;  -38.200;    0.000;5920.33330
 632.63; 5839.467;  -45.533;    0.000;5885.00013
 632.90; 5852.133;  -69.600;    0.000;5921.73330
 633.17; 5837.133;  -41.933;    0.000;5879.06664
 633.44; 5770.800;  -71.667;    0.000;5842.46647
 633.71; 5790.533;  -41.933;    0.000;5832.46654
 633.98; 5787.867;  -44.400;    0.000;5832.26670
 634.25; 5755.000;  -54.333;    0.000;5809.33333
 634.53; 5716.067;  -51.267;    0.000;5767.33356
 634.80; 5660.000;  -46.000;    0.000;5706.00000
 635.07; 5703.933;  -57.467;    0.000;5761.39977
 635.34; 5683.467;  -22.200;    0.000;5705.66680
 635.61; 5726.800;  -52.933;    0.000;5779.73314
 635.88; 5667.333;  -29.600;    0.000;5696.93350
 636.15; 5761.933;  -57.867;    0.000;5819.79977
 636.43; 5667.667;  -30.933;    0.000;5698.59984
 636.70; 5719.333;  -63.000;    0.000;5782.33350
 636.97; 5688.533;  -22.200;    0.000;5710.73320
 637.24; 5563.200;  -53.333;    0.000;5616.53353
 637.51; 5512.733;  -17.200;    0.000;5529.93340
 637.78; 5478.800;  -59.733;    0.000;5538.53314
 638.05; 5399.667;  -43.067;    0.000;5442.73317
 638.32; 5512.000;  -62.733;    0.000;5574.73333
 638.60; 5456.267;  -31.133;    0.000;5487.39993
 638.87; 5324.667;  -75.133;    0.000;5399.79984
 639.14; 5291.133;  -20.533;    0.000;5311.66663
 639.41; 5199.400;  -29.000;    0.000;5228.39990
 639.68; 5231.200;  -38.467;    0.000;5269.66686
 639.95; 5171.333;  -73.867;    0.000;5245.20016
 640.22; 5094.467;  -28.000;    0.000;5122.46680
 640.49; 5111.467;  -48.733;    0.000;5160.20013
 640.76; 5100.800;  -50.267;    0.000;5151.06647
 641.03; 4986.200;  -55.067;    0.000;5041.26686
 641.30; 4913.800;  -31.733;    0.000;4945.53314
 641.58; 4892.200;  -50.733;    0.000;4942.93353
 641.85; 4831.133;  -39.200;    0.000;4870.33330
 642.12; 4777.733;  -69.200;    0.000;4846.93340
 642.39; 4801.267;  -41.467;    0.000;4842.73327
 642.66; 4760.600;  -59.200;    0.000;4819.80010
 642.93; 4696.067;  -27.533;    0.000;4723.60023
 643.20; 4639.867;  -58.467;    0.000;4698.33337
 643.47; 4668.467;  -45.400;    0.000;4713.86680
 643.74; 4578.867;  -71.067;    0.000;4649.93336
 644.01; 4538.067;  -44.667;    0.000;4582.73356
 644.28; 4518.933;  -62.667;    0.000;4581.59977
 644.55; 4432.933;  -43.267;    0.000;4476.19977
 644.82; 4538.800;  -38.400;    0.000;4577.19981
 645.09; 4479.400;  -26.733;    0.000;4506.13324
 645.36; 4423.467;  -62.733;    0.000;4486.20013
 645.63; 4356.667;  -37.733;    0.000;4394.39984
 645.91; 4336.533;  -52.333;    0.000;4388.86654
 646.18; 4280.533;  -17.267;    0.000;4297.79987
 646.45; 4289.800;  -63.000;    0.000;4352.79980
 646.72; 4273.467;  -36.933;    0.000;4310.40013
 646.99; 4267.133;  -63.667;    0.000;4330.79997
 647.26; 4216.867;  -26.200;    0.000;4243.06670
 647.53; 4201.067;  -67.733;    0.000;4268.80022
 647.80; 4152.400;  -19.200;    0.000;4171.59990
 648.07; 4099.867;  -62.467;    0.000;4162.33337
 648.34; 4115.200;  -36.067;    0.000;4151.26686
 648.61; 4053.000;  -69.133;    0.000;4122.13333
 648.88; 4039.533;  -34.067;    0.000;4073.60011
 649.15; 4025.067;  -75.600;    0.000;4100.66665
 649.42; 4048.400;  -37.800;    0.000;4086.19990
 649.69; 3992.867;  -39.200;    0.000;4032.06670
 649.96; 3969.933;  -41.800;    0.000;4011.73335
 650.23; 3910.533;  -60.667;    0.000;3971.20012
 650.50; 3861.533;  -58.200;    0.000;3919.73345
 650.77; 3858.800;  -55.667;    0.000;3914.46672
 651.04; 3870.467;  -46.467;    0.000;3916.93322
 651.31; 3768.733;  -85.000;    0.000;3853.73340
 651.58; 3800.667;  -36.267;    0.000;3836.93341
 651.85; 3741.867;  -62.733;    0.000;3804.60003
 652.12; 3751.067;  -42.000;    0.000;3793.06665
 652.39; 3716.800;  -81.467;    0.000;3798.26672
 652.66; 3692.800;  -32.067;    0.000;3724.86671
 652.93; 3637.733;  -61.800;    0.000;3699.53340
 653.20; 3703.867;  -41.600;    0.000;3745.46670
 653.47; 3611.933;  -72.867;    0.000;3684.80002
 653.74; 3618.867;  -49.267;    0.000;3668.13337
 654.01; 3633.867;  -67.933;    0.000;3701.80003
 654.28; 3576.800;  -41.800;    0.000;3618.60005
 654.55; 3560.800;  -63.600;    0.000;3624.40005
 654.81; 3462.467;  -38.133;    0.000;3500.59989
 655.08; 3469.133;  -69.600;    0.000;3538.73330
 655.35; 3511.800;  -39.867;    0.000;3551.66671
 655.62; 3437.933;  -60.933;    0.000;3498.86668
 655.89; 3425.400;  -27.800;    0.000;3453.19990
 656.16; 3377.400;  -66.133;    0.000;3443.53323
 656.43; 3379.600;  -53.267;    0.000;3432.86676
 656.70; 3423.333;  -67.133;    0.000;3490.46658
 656.97; 3297.400;  -49.267;    0.000;3346.66657
 657.24; 3294.333;  -65.133;    0.000;3359.46658
 657.51; 3291.867;  -46.867;    0.000;3338.73336
 657.78; 3296.533;  -67.533;    0.000;3364.06678
 658.05; 3238.733;  -39.267;    0.000;3278.00006
 658.32; 3229.800;  -61.800;    0.000;3291.60005
 658.59; 3215.200;  -47.867;    0.000;3263.06662
 658.86; 3131.267;  -58.400;    0.000;3189.66660
 659.12; 3132.533;  -49.733;    0.000;3182.26678
 659.39; 3112.933;  -63.400;    0.000;3176.33335
 659.66; 3110.333;  -34.667;    0.000;3144.99992
 659.93; 3080.467;  -49.467;    0.000;3129.93322
 660.20; 3017.667;  -39.733;    0.000;3057.40008
 660.47; 3054.400;  -67.067;    0.000;3121.46657
 660.74; 2997.800;  -44.733;    0.000;3042.53338
 661.01; 2981.200;  -57.067;    0.000;3038.26662
 661.28; 3024.333;  -33.067;    0.000;3057.39992
 661.55; 2988.333;  -17.400;    0.000;3005.73325
 661.81; 2910.533;  -65.267;    0.000;2975.80012
 662.08; 2922.333;  -57.933;    0.000;2980.26659
 662.35; 2869.400;  -49.133;    0.000;2918.53324
 662.62; 2868.000;  -75.000;    0.000;2943.00000
 662.89; 2819.200;  -42.867;    0.000;2862.06662
 663.16; 2822.800;  -57.400;    0.000;2880.20005
 663.43; 2785.600;  -32.400;    0.000;2818.00010
 663.70; 2830.133;  -69.667;    0.000;2899.79996
 663.96; 2747.200;  -38.533;    0.000;2785.73328
 664.23; 2740.000;  -66.733;    0.000;2806.73333
 664.50; 2728.800;  -50.467;    0.000;2779.26672
 664.77; 2709.933;  -72.133;    0.000;2782.06668
 665.04; 2643.267;  -39.667;    0.000;2682.93327
 665.31; 2641.533;  -61.067;    0.000;2702.60011
 665.58; 2614.533;  -70.400;    0.000;2684.93345
 665.84; 2580.667;  -69.000;    0.000;2649.66675
 666.11; 2597.133;  -51.000;    0.000;2648.13330
 666.38; 2568.133;  -63.667;    0.000;2631.79997
 666.65; 2545.200;  -42.333;    0.000;2587.53328
 666.92; 2551.867;  -57.267;    0.000;2609.13337
 667.19; 2478.067;  -29.333;    0.000;2507.39998
 667.46; 2525.800;  -51.933;    0.000;2577.73338
 667.72; 2489.333;  -49.533;    0.000;2538.86658
 667.99; 2424.333;  -56.667;    0.000;2480.99992
 668.26; 2419.733;  -14.267;    0.000;2434.00006
 668.53; 2433.667;  -86.333;    0.000;2520.00008
 668.80; 2407.533;  -47.467;    0.000;2455.00011
 669.06; 2416.000;  -52.467;    0.000;2468.46667
 669.33; 2382.667;  -38.467;    0.000;2421.13342
 669.60; 2313.133;  -60.067;    0.000;2373.19997
 669.87; 2312.400;  -43.667;    0.000;2356.06657
 670.14; 2305.933;  -66.133;    0.000;2372.06668
 670.41; 2291.200;  -46.933;    0.000;2338.13329
 670.67; 2286.800;  -69.800;    0.000;2356.60005
 670.94; 2276.067;  -38.667;    0.000;2314.73332
 671.21; 2277.333;  -45.200;    0.000;2322.53325
 671.48; 2209.933;  -45.733;    0.000;2255.66668
 671.75; 2187.600;  -70.067;    0.000;2257.66676
 672.01; 2170.267;  -63.667;    0.000;2233.93327
 672.28; 2142.333;  -65.333;    0.000;2207.66659
 672.55; 2159.200;  -32.533;    0.000;2191.73328
 672.82; 2094.000;  -77.533;    0.000;2171.53333
 673.08; 2168.867;  -37.533;    0.000;2206.40003
 673.35; 2140.933;  -74.067;    0.000;2215.00002
 673.62; 2097.600;  -34.133;    0.000;2131.73343
 673.89; 2009.267;  -73.000;    0.000;2082.26672
 674.16; 2052.467;  -55.533;    0.000;2107.99989
 674.42; 2027.200;  -75.400;    0.000;2102.59995
 674.69; 1987.067;  -32.800;    0.000;2019.86665
 674.96; 2010.333;  -51.867;    0.000;2062.20004
 675.23; 1980.333;  -47.333;    0.000;2027.66671
 675.49; 1946.600;  -62.800;    0.000;2009.39997
 675.76; 1945.200;  -39.467;    0.000;1984.66662
 676.03; 1915.867;  -61.200;    0.000;1977.06670
 676.30; 1953.000;  -44.733;    0.000;1997.73333
 676.56; 1893.267;  -48.467;    0.000;1941.73339
 676.83; 1870.133;  -50.933;    0.000;1921.06664
 677.10; 1880.200;  -73.133;    0.000;1953.33328
 677.37; 1858.467;  -34.467;    0.000;1892.93334
 677.63; 1845.867;  -52.000;    0.000;1897.86670
 677.90; 1882.667;  -49.800;    0.000;1932.46663
 678.17; 1793.667;  -70.600;    0.000;1864.26662
 678.44; 1837.733;  -40.067;    0.000;1877.79994
 678.70; 1789.933;  -71.133;    0.000;1861.06668
 678.97; 1769.867;  -33.933;    0.000;1803.80003
 679.24; 1754.733;  -65.867;    0.000;1820.59995
 679.50; 1722.533;  -29.800;    0.000;1752.33332
 679.77; 1705.667;  -70.600;    0.000;1776.26662
 680.04; 1637.933;  -52.533;    0.000;1690.46668
 680.31; 1687.400;  -75.733;    0.000;1763.13335
 680.57; 1677.933;  -38.067;    0.000;1716.00002
 680.84; 1674.733;  -63.200;    0.000;1737.93328
 681.11; 1641.933;  -43.667;    0.000;1685.60002
 681.37; 1647.200;  -71.667;    0.000;1718.86662
 681.64; 1634.867;  -44.800;    0.000;1679.66670
 681.91; 1620.400;  -99.267;    0.000;1719.66669
 682.17; 1648.533;  -29.667;    0.000;1678.19999
 682.44; 1581.333;  -78.800;    0.000;1660.13338
 682.71; 1571.200;   -8.267;    0.000;1579.46662
 682.98; 1577.133;  -56.067;    0.000;1633.19997
 683.24; 1552.400;  -68.000;    0.000;1620.40002
 683.51; 1512.467;  -77.267;    0.000;1589.73335
 683.78; 1503.000;  -53.733;    0.000;1556.73333
 684.04; 1506.467;  -57.000;    0.000;1563.46667
 684.31; 1514.533;  -45.267;    0.000;1559.79999
 684.58; 1448.533;  -77.800;    0.000;1526.33333
 684.84; 1423.267;  -35.333;    0.000;1458.60006
 685.11; 1430.400;  -71.467;    0.000;1501.86669
 685.38; 1425.933;  -46.667;    0.000;1472.60002
 685.64; 1450.533;  -65.533;    0.000;1516.06666
 685.91; 1456.667;  -42.000;    0.000;1498.66663
 686.17; 1393.333;  -65.733;    0.000;1459.06670
 686.44; 1374.267;  -33.067;    0.000;1407.33339
 686.71; 1408.733;  -68.200;    0.000;1476.93327
 686.97; 1353.333;  -48.600;    0.000;1401.93337
 687.24; 1353.600;  -69.267;    0.000;1422.86665
 687.51; 1348.400;  -32.400;    0.000;1380.80003
 687.77; 1359.067;  -60.600;    0.000;1419.66665
 688.04; 1299.867;  -60.267;    0.000;1360.13337
 688.31; 1285.200;  -79.267;    0.000;1364.46662
 688.57; 1291.600;  -39.267;    0.000;1330.86664
 688.84; 1276.000;  -66.467;    0.000;1342.46667
 689.10; 1310.267;  -50.933;    0.000;1361.20006
 689.37; 1284.000;  -64.800;    0.000;1348.80000
 689.64; 1239.867;  -68.200;    0.000;1308.06670
 689.90; 1238.533;  -66.000;    0.000;1304.53333
 690.17; 1237.267;  -58.400;    0.000;1295.66673
 690.44; 1232.667;  -71.733;    0.000;1304.39996
 690.70; 1191.333;  -37.533;    0.000;1228.86671
 690.97; 1208.467;  -74.933;    0.000;1283.40001
 691.23; 1202.200;  -37.000;    0.000;1239.19995
 691.50; 1193.333;  -84.000;    0.000;1277.33337
 691.77; 1171.867;  -44.800;    0.000;1216.66670
 692.03; 1148.533;  -66.733;    0.000;1215.26665
 692.30; 1104.933;  -45.667;    0.000;1150.60002
 692.56; 1122.933;  -83.467;    0.000;1206.40002
 692.83; 1149.867;  -52.600;    0.000;1202.46670
 693.10; 1055.133;  -57.200;    0.000;1112.33330
 693.36; 1078.733;  -46.600;    0.000;1125.33327
 693.63; 1064.333;  -72.200;    0.000;1136.53337
 693.89; 1052.667;  -46.467;    0.000;1099.13329
 694.16; 1066.333;  -70.800;    0.000;1137.13338
 694.42; 1039.200;  -51.733;    0.000;1090.93328
 694.69; 1038.467;  -46.400;    0.000;1084.86668
 694.96; 1052.133;  -16.200;    0.000;1068.33330
 695.22; 1005.133;  -59.467;    0.000;1064.60003
 695.49; 1031.200;  -14.400;    0.000;1045.59995
 695.75;  983.133;  -83.267;    0.000;1066.40003
 696.02;  996.467;  -47.333;    0.000;1043.80001
 696.28;  959.933;  -67.733;    0.000;1027.66668
 696.55;  939.333;  -48.333;    0.000;987.66665
 696.81;  950.333;  -65.800;    0.000;1016.13332
 697.08;  919.133;  -51.800;    0.000;970.93336
 697.34;  901.800;  -69.067;    0.000;970.86665
 697.61;  912.467;  -51.867;    0.000;964.33334
 697.88;  913.067;  -51.267;    0.000;964.33332
 698.14;  874.267;  -50.067;    0.000;924.33333
 698.41;  885.400;  -69.800;    0.000;955.20003
 698.67;  883.067;  -53.200;    0.000;936.26665
 698.94;  875.733;  -78.000;    0.000;953.73334
 699.20;  842.467;  -33.533;    0.000;876.00001
 699.47;  805.467;  -58.067;    0.000;863.53334
 699.73;  794.467;  -36.600;    0.000;831.06667
 700.00;  785.000;  -87.200;    0.000;872.20000
 700.26;  780.333;  -51.267;    0.000;831.59998
 700.53;  785.067;  -54.000;    0.000;839.06665
 700.79;  766.600;  -43.667;    0.000;810.26664
 701.06;  743.200;  -68.600;    0.000;811.80001
 701.32;  783.533;  -47.333;    0.000;830.86666
 701.59;  738.400;  -73.267;    0.000;811.66669
 701.85;  747.733;  -41.733;    0.000;789.46667
 702.12;  717.733;  -78.333;    0.000;796.06667
 702.38;  707.533;  -32.933;    0.000;740.46666
 702.65;  687.933;  -60.267;    0.000;748.20002
 702.91;  719.867;  -39.533;    0.000;759.39997
 703.18;  689.067;  -72.267;    0.000;761.33332
 703.44;  648.667;  -59.400;    0.000;708.06669
 703.71;  653.600;  -78.067;    0.000;731.66664
 703.97;  646.467;  -63.000;    0.000;709.46667
 704.24;  654.867;  -81.733;    0.000;736.59997
 704.50;  610.400;  -53.000;    0.000;663.40002
 704.76;  628.467;  -72.933;    0.000;701.40001
 705.03;  605.200;  -47.467;    0.000;652.66668
 705.29;  577.133;  -57.333;    0.000;634.46669
 705.56;  597.400;  -64.867;    0.000;662.26669
 705.82;  595.667;  -62.267;    0.000;657.93335
 706.09;  588.067;  -19.200;    0.000;607.26665
 706.35;  565.600;  -70.933;    0.000;636.53331
 706.62;  559.467;  -27.533;    0.000;587.00001
 706.88;  560.400;  -76.733;    0.000;637.13335
 707.15;  525.133;  -45.467;    0.000;570.60003
 707.41;  535.467;  -83.400;    0.000;618.86668
 707.67;  512.533;  -39.000;    0.000;551.53333
 707.94;  541.600;  -55.733;    0.000;597.33331
 708.20;  488.200;  -79.133;    0.000;567.33334
 708.47;  475.467;  -55.000;    0.000;530.46667
 708.73;  488.400;  -54.133;    0.000;542.53333
 709.00;  483.200;  -83.267;    0.000;566.46668
 709.26;  497.533;  -37.933;    0.000;535.46666
 709.52;  446.067;  -57.533;    0.000;503.60001
 709.79;  468.333;  -59.533;    0.000;527.86668
 710.05;  459.733;  -61.200;    0.000;520.93334
 710.32;  444.133;  -32.800;    0.000;476.93333
 710.58;  439.400;  -76.533;    0.000;515.93333
 710.84;  406.867;  -55.600;    0.000;462.46667
 711.11;  431.333;  -69.200;    0.000;500.53334
 711.37;  388.133;  -34.467;    0.000;422.60000
 711.64;  397.867;  -77.267;    0.000;475.13334
 711.90;  407.600;  -41.333;    0.000;448.93334
 712.16;  407.333;  -66.000;    0.000;473.33334
 712.43;  372.067;  -43.000;    0.000;415.06668
 712.69;  375.067;  -65.867;    0.000;440.93335
 712.96;  389.400;  -61.733;    0.000;451.13333
 713.22;  398.333;  -75.400;    0.000;473.73335
 713.48;  362.667;  -50.533;    0.000;413.19999
 713.75;  369.467;  -75.000;    0.000;444.46667
 714.01;  358.467;  -66.000;    0.000;424.46667
 714.27;  343.000;  -55.000;    0.000;398.00000
 714.54;  368.133;  -49.200;    0.000;417.33333
 714.80;  341.467;  -67.933;    0.000;409.40001
 715.06;  326.600;  -24.533;    0.000;351.13334
 715.33;  306.533;  -94.267;    0.000;400.80000
 715.59;  321.667;  -52.000;    0.000;373.66666
 715.86;  317.333;  -70.000;    0.000;387.33334
 716.12;  310.333;  -54.200;    0.000;364.53334
 716.38;  342.333;  -69.733;    0.000;412.06667
 716.65;  329.400;  -62.133;    0.000;391.53333
 716.91;  297.000;  -70.467;    0.000;367.46667
 717.17;  325.267;  -35.133;    0.000;360.40000
 717.44;  317.200;  -70.000;    0.000;387.20001
 717.70;  309.867;  -36.800;    0.000;346.66667
 717.96;  301.667;  -76.533;    0.000;378.19999
 718.23;  305.667;  -42.267;    0.000;347.93332
 718.49;  275.267;  -62.200;    0.000;337.46666
 718.75;  312.467;  -44.267;    0.000;356.73334
 719.02;  270.467;  -81.800;    0.000;352.26668
 719.28;  262.000;  -57.067;    0.000;319.06667
 719.54;  280.267;  -62.267;    0.000;342.53333
 719.80;  297.600;  -34.067;    0.000;331.66667
 720.07;  262.800;  -79.467;    0.000;342.26665
 720.33;  276.800;  -33.933;    0.000;310.73332
 720.59;  274.133;  -72.800;    0.000;346.93333
 720.86;  280.133;  -56.733;    0.000;336.86666
 721.12;  282.067;  -59.000;    0.000;341.06668
 721.38;  275.267;  -44.200;    0.000;319.46666
 721.65;  281.733;  -54.600;    0.000;336.33334
 721.91;  255.400;  -42.867;    0.000;298.26666
 722.17;  283.133;  -80.067;    0.000;363.20000
 722.43;  260.867;  -53.467;    0.000;314.33334
 722.70;  251.667;  -77.800;    0.000;329.46667
 722.96;  255.600;  -31.400;    0.000;287.00001
 723.22;  267.467;  -75.800;    0.000;343.26668
 723.48;  241.400;  -69.267;    0.000;310.66666
 723.75;  252.600;  -77.867;    0.000;330.46667
 724.01;  252.200;  -57.200;    0.000;309.40000
 724.27;  263.200;  -85.733;    0.000;348.93334
 724.54;  262.000;  -42.933;    0.000;304.93333
 724.80;  274.733;  -84.133;    0.000;358.86667
 725.06;  267.267;  -67.000;    0.000;334.26666
 725.32;  260.667;  -62.600;    0.000;323.26665
 725.59;  267.000;  -44.267;    0.000;311.26667
 725.85;  257.000;  -65.933;    0.000;322.93333
 726.11;  250.400;  -51.933;    0.000;302.33333
 726.37;  258.200;  -55.467;    0.000;313.66668
 726.64;  265.600;  -28.867;    0.000;294.46667
 726.90;  257.867;  -64.467;    0.000;322.33334
 727.16;  268.333;  -46.333;    0.000;314.66668
 727.42;  251.133;  -82.467;    0.000;333.60000
 727.68;  268.267;  -42.133;    0.000;310.40000
 727.95;  252.200;  -67.133;    0.000;319.33333
 728.21;  273.133;  -40.067;    0.000;313.20000
 728.47;  260.200;  -75.933;    0.000;336.13335
 728.73;  272.467;  -40.667;    0.000;313.13334
 729.00;  249.067;  -70.800;    0.000;319.86667
 729.26;  251.467;  -52.667;    0.000;304.13333
 729.52;  238.667;  -75.333;    0.000;314.00001
 729.78;  235.400;  -61.800;    0.000;297.19999
 730.04;  222.267;  -63.600;    0.000;285.86666
 730.31;  234.200;  -63.733;    0.000;297.93333
 730.57;  237.000;  -83.400;    0.000;320.40000
 730.83;  233.400;  -46.200;    0.000;279.59999
 731.09;  258.733;  -65.600;    0.000;324.33334
 731.35;  248.267;  -49.733;    0.000;298.00000
 731.62;  219.000;  -94.467;    0.000;313.46667
 731.88;  260.533;  -43.200;    0.000;303.73333
 732.14;  226.067;  -83.133;    0.000;309.20000
 732.40;  232.733;  -46.400;    0.000;279.13334
 732.66;  217.933;  -70.733;    0.000;288.66666
 732.92;  212.667;  -67.800;    0.000;280.46667
 733.19;  207.733;  -76.867;    0.000;284.60001
 733.45;  212.667;  -55.400;    0.000;268.06667
 733.71;  203.133;  -62.867;    0.000;266.00000
 733.97;  251.733;  -10.400;    0.000;262.13334
 734.23;  208.533;  -73.067;    0.000;281.60001
 734.49;  233.333;  -50.333;    0.000;283.66666
 734.76;  247.733;  -78.133;    0.000;325.86667
 735.02;  216.200;  -67.667;    0.000;283.86666
 735.28;  213.467;  -56.200;    0.000;269.66666
 735.54;  233.533;  -52.733;    0.000;286.26667
 735.80;  195.267;  -84.200;    0.000;279.46666
 736.06;  171.533;  -54.933;    0.000;226.46667
 736.32;  205.267;  -85.800;    0.000;291.06667
 736.59;  187.667;  -42.067;    0.000;229.73334
 736.85;  201.667;  -84.067;    0.000;285.73334
 737.11;  222.467;  -60.200;    0.000;282.66666
 737.37;  181.133;  -69.933;    0.000;251.06667
 737.63;  203.800;  -53.200;    0.000;257.00000
 737.89;  208.267;  -72.533;    0.000;280.80000
 738.15;  198.533;  -32.467;    0.000;231.00001
 738.41;  181.200;  -74.000;    0.000;255.20000
 738.67;  186.333;  -64.133;    0.000;250.46666
 738.94;  156.800;  -86.267;    0.000;243.06667
 739.20;  198.333;  -49.467;    0.000;247.80000
 739.46;  189.867;  -64.600;    0.000;254.46667
 739.72;  172.400;  -63.000;    0.000;235.39999
 739.98;  174.600;  -72.000;    0.000;246.60001
 740.24;  161.400;  -52.800;    0.000;214.19999
 740.50;  167.933;  -59.800;    0.000;227.73333
 740.76;  169.533;  -37.800;    0.000;207.33334
 741.02;  175.000;  -84.867;    0.000;259.86667
 741.28;  176.333;  -52.600;    0.000;228.93333
 741.54;  174.867;  -74.200;    0.000;249.06667
 741.81;  161.000;  -47.133;    0.000;208.13334
 742.07;  135.533;  -92.600;    0.000;228.13334
 742.33;  190.400;  -28.800;    0.000;219.19999
 742.59;  158.600;  -60.000;    0.000;218.60001
 742.85;  167.067;  -54.400;    0.000;221.46667
 743.11;  148.467;  -97.533;    0.000;245.99999
 743.37;  160.133;  -56.200;    0.000;216.33333
 743.63;  161.467;  -82.133;    0.000;243.59999
 743.89;  158.200;  -52.133;    0.000;210.33333
 744.15;  161.600;  -75.800;    0.000;237.40001
 744.41;  142.467;  -64.267;    0.000;206.73333
 744.67;  139.667;  -72.800;    0.000;212.46667
 744.93;  144.333;  -51.067;    0.000;195.39999
 745.19;  128.267;  -84.133;    0.000;212.39999
 745.45;  146.400;  -60.467;    0.000;206.86666
 745.71;  136.467;  -79.133;    0.000;215.59999
 745.97;  124.333;  -32.067;    0.000;156.40000
 746.23;  124.400;  -66.200;    0.000;190.60000
 746.49;  121.867;  -58.200;    0.000;180.06667
 746.75;  127.400;  -78.000;    0.000;205.40000
 747.02;  109.733;  -38.667;    0.000;148.40000
 747.28;  143.800;  -79.400;    0.000;223.20000
 747.54;  136.800;  -54.000;    0.000;190.80000
 747.80;  112.067;  -80.867;    0.000;192.93333
 748.06;  115.533;  -64.733;    0.000;180.26666
 748.32;  118.867;  -91.333;    0.000;210.20000
 748.58;  115.000;  -47.000;    0.000;162.00000
 748.84;  102.800;  -66.933;    0.000;169.73334
 749.10;  195.400;   19.133;    0.000;176.26666
 749.36;  113.400;  -76.067;    0.000;189.46667
 749.62;   90.000;  -47.133;    0.000;137.13334
 749.88;  108.333;  -73.133;    0.000;181.46667
 750.14;   90.067;  -50.800;    0.000;140.86666
 750.40;   86.867;  -75.667;    0.000;162.53333
 750.66;   99.000;  -40.333;    0.000;139.33333
 750.91;   83.733;  -67.400;    0.000;151.13333
 751.17;   97.533;  -46.467;    0.000;144.00000
 751.43;   87.267;  -98.267;    0.000;185.53334
 751.69;   80.200;  -32.333;    0.000;112.53333
 751.95;   74.600;  -65.000;    0.000;139.60000
 752.21;   85.267;  -53.733;    0.000;139.00000
 752.47;   89.533;  -68.400;    0.000;157.93333
 752.73;   86.000;  -46.200;    0.000;132.20000
 752.99;   48.000;  -87.933;    0.000;135.93333
 753.25;   78.067;  -47.200;    0.000;125.26667
 753.51;   88.400;  -61.467;    0.000;149.86667
 753.77;   72.133;  -58.400;    0.000;130.53333
 754.03;   67.600;  -64.600;    0.000;132.20000
 754.29;   74.267;  -71.867;    0.000;146.13334
 754.55;   76.933;  -67.867;    0.000;144.80000
 754.81;   46.800;  -62.600;    0.000;109.40000
 755.07;   62.867;  -70.067;    0.000;132.93333
 755.33;   71.200;  -67.800;    0.000;139.00000
 755.59;   69.800;  -78.600;    0.000;148.40000
 755.85;   54.667;  -42.200;    0.000;96.86667
 756.10;   64.667;  -72.867;    0.000;137.53333
 756.36;   69.467;  -65.067;    0.000;134.53333
 756.62;   69.600;  -77.333;    0.000;146.93333
 756.88;   61.600;  -60.667;    0.000;122.26667
 757.14;   73.667;  -73.600;    0.000;147.26666
 757.40;   43.267;  -35.200;    0.000;78.46667
 757.66;   64.600;  -69.267;    0.000;133.86667
 757.92;   50.267;  -54.667;    0.000;104.93333
 758.18;   59.000;  -74.267;    0.000;133.26667
 758.44;   39.667;  -59.867;    0.000;99.53333
 758.70;   36.400;  -54.533;    0.000;90.93333
 758.95;   59.467;  -41.200;    0.000;100.66667
 759.21;   28.067;  -79.067;    0.000;107.13333
 759.47;   52.133;  -45.267;    0.000;97.40000
 759.73;   22.267;  -75.867;    0.000;98.13334
 759.99;   37.733;  -56.133;    0.000;93.86667
 760.25;   34.467;  -65.400;    0.000;99.86667
 760.51;   40.667;  -54.400;    0.000;95.06667
 760.77;   47.867;  -88.400;    0.000;136.26667
 761.02;   51.333;  -63.000;    0.000;114.33333
 761.28;   36.667;  -80.200;    0.000;116.86666
 761.54;   50.333;  -57.867;    0.000;108.20000
 761.80;   46.733;  -95.533;    0.000;142.26667
 762.06;   32.600;  -43.667;    0.000;76.26667
 762.32;   28.200;  -81.467;    0.000;109.66667
 762.58;   37.600;  -80.600;    0.000;118.20000
 762.83;   39.333;  -64.733;    0.000;104.06666
 763.09;   42.467;  -42.133;    0.000;84.60000
 763.35;   24.667;  -77.067;    0.000;101.73333
 763.61;   46.200;  -65.200;    0.000;111.40000
 763.87;   32.333;  -58.733;    0.000;91.06667
 764.13;   19.467;  -51.133;    0.000;70.60000
 764.38;   35.000;  -80.067;    0.000;115.06667
 764.64;   22.067;  -65.867;    0.000;87.93334
 764.90;   34.200;  -92.067;    0.000;126.26667
 765.16;   40.267;  -39.667;    0.000;79.93333
 765.42;   22.733;  -72.200;    0.000;94.93333
 765.68;   32.200;  -67.200;    0.000;99.40000
 765.93;    5.067;  -82.067;    0.000;87.13333
 766.19;   28.933;  -88.800;    0.000;117.73334
 766.45;   10.333;  -82.333;    0.000;92.66667
 766.71;   25.400;  -53.200;    0.000;78.60000
 766.97;   17.267;  -74.000;    0.000;91.26667
 767.22;   33.267;  -57.067;    0.000;90.33333
 767.48;    9.600;  -84.333;    0.000;93.93334
 767.74;   23.533;  -56.533;    0.000;80.06667
 768.00;    9.400;  -87.133;    0.000;96.53333
 768.26;   18.600;  -39.867;    0.000;58.46667
 768.51;    9.733;  -73.800;    0.000;83.53334
 768.77;   13.600;  -36.000;    0.000;49.60000
 769.03;    4.600;  -86.533;    0.000;91.13333
 769.29;   17.667;  -53.933;    0.000;71.60000
 769.54;   11.667;  -83.333;    0.000;95.00000
 769.80;   13.600;  -68.467;    0.000;82.06667
 770.06;    1.400;  -95.600;    0.000;97.00000
 770.32;    8.267;  -57.000;    0.000;65.26667
 770.57;   16.800;  -86.867;    0.000;103.66667
 770.83;    6.867;  -59.333;    0.000;66.20000
 771.09;    9.667;  -72.933;    0.000;82.60000
 771.35;   15.867;  -65.133;    0.000;81.00000
 771.61;   -9.667;  -79.533;    0.000;69.86667
 771.86;   10.867;  -49.933;    0.000;60.80000
 772.12;   -4.867;  -88.000;    0.000;83.13333
 772.38;   -5.533;  -55.933;    0.000;50.40000
 772.63;   -2.800;  -91.400;    0.000;88.60000
 772.89;    0.933;  -62.600;    0.000;63.53333
 773.15;   17.200;  -82.533;    0.000;99.73333
 773.41;   -3.867;  -79.067;    0.000;75.20000
 773.66;  -10.200; -102.533;    0.000;92.33333
 773.92;   12.467;  -47.133;    0.000;59.60000
 774.18;   13.600;  -76.400;    0.000;90.00000
 774.44;    5.000;  -79.933;    0.000;84.93333
 774.69;    4.333;  -76.467;    0.000;80.80000
 774.95;    1.000;  -55.467;    0.000;56.46667
 775.21;   17.067;  -58.600;    0.000;75.66667
 775.46;   -1.667;  -76.867;    0.000;75.20000
 775.72;    2.467;  -77.467;    0.000;79.93333
 775.98;   20.333;  -52.200;    0.000;72.53333
 776.24;  -14.600;  -69.800;    0.000;55.20000
 776.49;   -6.267;  -64.667;    0.000;58.40000
 776.75;   -9.867;  -89.200;    0.000;79.33333
 777.01;    2.000;  -51.467;    0.000;53.46667
 777.26;  -14.067;  -71.067;    0.000;57.00000
 777.52;   -1.733;  -58.733;    0.000;57.00000
 777.78;   12.267;  -91.733;    0.000;104.00000
 778.03;    5.067;  -42.933;    0.000;48.00000
 778.29;  -21.600;  -82.733;    0.000;61.13333
 778.55;   13.400;  -49.800;    0.000;63.20000
 778.80;   -0.533;  -84.400;    0.000;83.86667
 779.06;    1.467;  -57.667;    0.000;59.13333
 779.32;   -6.533;  -95.467;    0.000;88.93333
 779.57;  -21.667;  -49.133;    0.000;27.46667
 779.83;  -14.600;  -80.067;    0.000;65.46667
 780.09;   -9.467;  -63.267;    0.000;53.80000
 780.34;    3.000;  -78.467;    0.000;81.46667
 780.60;    1.533;  -43.867;    0.000;45.40000
 780.86;    2.000;  -82.600;    0.000;84.60000
 781.11;   -8.000;  -54.000;    0.000;46.00000
 781.37;  -34.733;  -87.800;    0.000;53.06667
 781.63;   -3.533;  -62.267;    0.000;58.73333
 781.88;   -5.267;  -94.600;    0.000;89.33333
 782.14;  -17.000;  -70.133;    0.000;53.13333
 782.39;  -21.067;  -88.133;    0.000;67.06666
 782.65;  -12.867;  -88.467;    0.000;75.60000
 782.91;  -32.667;  -82.867;    0.000;50.20000
 783.16;  -13.200;  -49.533;    0.000;36.33333
 783.42;  -16.067;  -95.667;    0.000;79.60000
 783.67;  -14.733;  -63.333;    0.000;48.60000
 783.93;  -20.600;  -62.467;    0.000;41.86667
 784.19;   -6.467;  -61.400;    0.000;54.93333
 784.44;  -10.467;  -65.400;    0.000;54.93334
 784.70;  -26.400;  -54.267;    0.000;27.86667
 784.96;  -23.067;  -86.933;    0.000;63.86667
 785.21;  -17.933;  -72.867;    0.000;54.93334
 785.47;    6.800;  -57.267;    0.000;64.06667
 785.72;  -24.133;  -44.867;    0.000;20.73333
 785.98;  -25.000;  -94.333;    0.000;69.33334
 786.23;  -28.000;  -65.133;    0.000;37.13333
 786.49;  -40.333;  -74.333;    0.000;34.00000
 786.75;  -29.267;  -49.133;    0.000;19.86667
 787.00;  -38.333;  -93.733;    0.000;55.40000
 787.26;  -39.267;  -60.600;    0.000;21.33333
 787.51;  -10.000;  -64.267;    0.000;54.26667
 787.77;  -24.533;  -53.800;    0.000;29.26667
 788.02;  -11.333;  -81.800;    0.000;70.46667
 788.28;  -28.533;  -71.467;    0.000;42.93333
 788.54;  -30.000;  -73.067;    0.000;43.06667
 788.79;  -20.133;  -61.800;    0.000;41.66667
 789.05;  -26.067;  -80.733;    0.000;54.66666
 789.30;  -16.333;  -54.067;    0.000;37.73333
 789.56;  -41.333;  -86.600;    0.000;45.26667
 789.81;  -42.533;  -56.800;    0.000;14.26667
 790.07;  -46.200; -102.667;    0.000;56.46666
 790.32;  -29.933;  -63.667;    0.000;33.73334
 790.58;  -25.733;  -67.333;    0.000;41.60000
 790.83;   -8.533;  -45.067;    0.000;36.53333
 791.09;  -36.200;  -83.733;    0.000;47.53333
 791.35;  -45.200;  -57.000;    0.000;11.80000
 791.60;  -45.933;  -68.867;    0.000;22.93333
 791.86;  -13.467;  -48.267;    0.000;34.80000
 792.11;  -21.333;  -87.933;    0.000;66.60000
 792.37;   -9.733;  -72.133;    0.000;62.40000
 792.62;  -12.400;  -67.800;    0.000;55.40000
 792.88;  -15.067;  -63.467;    0.000;48.40000
 793.13;  -32.400;  -62.800;    0.000;30.40000
 793.39;  -10.867;  -55.800;    0.000;44.93333
 793.64;  -58.933;  -70.333;    0.000;11.40000
 793.90;   -8.667;  -55.467;    0.000;46.80000
 794.15;  -26.067;  -76.800;    0.000;50.73334
 794.41;  -31.600;  -56.933;    0.000;25.33333
 794.66;  -44.667;  -84.933;    0.000;40.26667
 794.92;  -34.200;  -65.267;    0.000;31.06667
 795.17;  -36.867;  -90.200;    0.000;53.33333
 795.43;  -52.600;  -84.200;    0.000;31.60000
 795.68;  -40.333;  -80.933;    0.000;40.60000
 795.94;  -10.467;  -54.667;    0.000;44.20000
 796.19;  -26.200;  -73.800;    0.000;47.60000
 796.44;  -22.200;  -69.867;    0.000;47.66667
 796.70;  -34.733;  -89.200;    0.000;54.46666
 796.95;  -23.067;  -45.400;    0.000;22.33333
 797.21;  -41.733;  -71.867;    0.000;30.13334
 797.46;  -39.000;  -71.333;    0.000;32.33334
 797.72;  -40.067;  -96.733;    0.000;56.66666
 797.97;  -36.200;  -64.200;    0.000;28.00000
 798.23;  -43.533;  -81.933;    0.000;38.40000
 798.48;  -28.800;  -61.400;    0.000;32.60000
 798.74;  -29.000;  -88.333;    0.000;59.33334
 798.99;  -32.067;  -63.533;    0.000;31.46667
 799.24;  -23.267;  -82.933;    0.000;59.66667
 799.50;  -21.067;  -50.000;    0.000;28.93333
 799.75;  -23.933;  -86.933;    0.000;63.00000
 800.01;  -48.000;  -54.467;    0.000; 6.46667
 800.26;  -45.667;  -82.467;    0.000;36.80000
 800.52;  -41.867;  -56.067;    0.000;14.20000
 800.77;  -55.467;  -72.667;    0.000;17.20000
 801.02;  -36.067;  -69.933;    0.000;33.86667
 801.28;  -33.533;  -81.733;    0.000;48.20000
 801.53;  -32.133;  -37.267;    0.000; 5.13333
 801.79;  -46.467; -100.067;    0.000;53.60000
 802.04;  -54.800;  -38.667;    0.000;-16.13333
 802.29;  -37.667;  -72.867;    0.000;35.20000
 802.55;  -40.067;  -51.333;    0.000;11.26667
 802.80;  -26.933;  -72.733;    0.000;45.80000
 803.06;  -29.733;  -52.400;    0.000;22.66667
 803.31;  -42.533;  -88.200;    0.000;45.66666
 803.56;  -19.267;  -65.667;    0.000;46.40000
 803.82;  -40.467;  -66.533;    0.000;26.06667
 804.07;  -30.467;  -72.800;    0.000;42.33334
 804.32;  -37.800;  -71.533;    0.000;33.73333
 804.58;  -56.667;  -63.867;    0.000; 7.20000
 804.83;  -66.533;  -83.867;    0.000;17.33334
 805.09;  -32.067;  -67.400;    0.000;35.33334
 805.34;  -32.333;  -80.267;    0.000;47.93334
 805.59;  -35.133;  -64.467;    0.000;29.33333
 805.85;  -52.933;  -92.267;    0.000;39.33334
 806.10;  -52.467;  -48.733;    0.000;-3.73333
 806.35;  -39.800;  -70.267;    0.000;30.46667
 806.61;  -22.267;  -53.067;    0.000;30.80000
 806.86;  -50.133;  -91.600;    0.000;41.46666
 807.11;  -34.000;  -66.467;    0.000;32.46667
 807.37;  -46.867;  -62.600;    0.000;15.73333
 807.62;  -49.800;  -53.467;    0.000; 3.66667
 807.87;  -61.600;  -81.933;    0.000;20.33334
 808.13;  -52.400;  -67.267;    0.000;14.86667
 808.38;  -41.133;  -85.467;    0.000;44.33333
 808.63;  -37.667;  -65.133;    0.000;27.46666
 808.89;  -65.200;  -86.133;    0.000;20.93333
 809.14;  -48.733;  -60.533;    0.000;11.80000
 809.39;  -44.667;  -71.800;    0.000;27.13334
 809.65;  -71.533;  -54.200;    0.000;-17.33333
 809.90;  -47.533;  -97.800;    0.000;50.26667
 810.15;  -58.867;  -59.600;    0.000; 0.73333
 810.41;  -52.800;  -91.133;    0.000;38.33333
 810.66;  -63.600;  -75.200;    0.000;11.60000
 810.91;  -58.933;  -77.000;    0.000;18.06667
 811.16;  -40.200;  -56.867;    0.000;16.66666
 811.42;  -20.267;  -87.067;    0.000;66.80000
 811.67;  -39.067;  -71.933;    0.000;32.86667
 811.92;  -34.333;  -98.000;    0.000;63.66667
 812.18;  -52.800;  -60.533;    0.000; 7.73333
 812.43;  -49.333;  -80.267;    0.000;30.93334
 812.68;  -62.467;  -54.600;    0.000;-7.86667
 812.93;  -35.200;  -92.933;    0.000;57.73333
 813.19;  -48.200;  -42.800;    0.000;-5.40000
 813.44;  -51.133;  -83.400;    0.000;32.26667
 813.69;  -55.400;  -44.800;    0.000;-10.60000
 813.95;  -56.733;  -87.800;    0.000;31.06667
 814.20;  -38.733;  -63.200;    0.000;24.46667
 814.45;  -59.533;  -97.733;    0.000;38.20000
 814.70;  -67.333;  -75.600;    0.000; 8.26666
 814.96;  -40.800;  -79.000;    0.000;38.20000
 815.21;  -51.667;  -62.733;    0.000;11.06667
 815.46;  -67.667; -105.733;    0.000;38.06667
 815.71;  -44.200;  -66.200;    0.000;22.00000
 815.96;  -33.467;  -79.400;    0.000;45.93333
 816.22;  -48.600;  -66.733;    0.000;18.13333
 816.47;  -48.800;  -93.867;    0.000;45.06667
 816.72;  -57.133;  -48.400;    0.000;-8.73333
 816.97;  -59.267;  -71.000;    0.000;11.73333
 817.23;  -42.400;  -58.267;    0.000;15.86666
 817.48;  -33.267;  -88.667;    0.000;55.40000
 817.73;  -39.467;  -74.400;    0.000;34.93333
 817.98;  -50.200;  -93.200;    0.000;43.00000
 818.23;  -56.400;  -60.733;    0.000; 4.33333
 818.49;  -29.667;  -63.933;    0.000;34.26667
 818.74;  -34.600;  -54.400;    0.000;19.80000
 818.99;  -56.867;  -81.667;    0.000;24.80000
 819.24;  -43.133;  -42.933;    0.000;-0.20000
 819.50;  -40.733;  -87.600;    0.000;46.86666
 819.75;  -43.333;  -58.333;    0.000;15.00000
 820.00;  -16.600;  -70.467;    0.000;53.86667
 820.25;  -31.533;  -53.933;    0.000;22.40000
 820.50;  -61.733;  -84.933;    0.000;23.20000
 820.75;  -45.733;  -62.600;    0.000;16.86666
 821.01;  -44.133;  -79.267;    0.000;35.13334
 821.26;  -40.867;  -58.400;    0.000;17.53334
 821.51;  -51.333;  -73.800;    0.000;22.46667
 821.76;  -56.000;  -74.333;    0.000;18.33334
 822.01;  -40.133;  -82.933;    0.000;42.80000
 822.26;  -56.867;  -55.667;    0.000;-1.20000
 822.52;  -53.667;  -79.667;    0.000;26.00000
 822.77;  -58.533;  -61.067;    0.000; 2.53333
 823.02;  -55.267;  -92.867;    0.000;37.60000
 823.27;  -56.200;  -59.933;    0.000; 3.73333
 823.52;  -49.333;  -79.000;    0.000;29.66667
 823.77;  -46.067;  -67.667;    0.000;21.60000
 824.03;  -42.933;  -71.867;    0.000;28.93333
 824.28;  -52.533;  -62.267;    0.000; 9.73333
 824.53;  -52.000;  -84.333;    0.000;32.33334
 824.78;  -36.667;  -47.000;    0.000;10.33333
 825.03;  -79.533;  -90.467;    0.000;10.93333
 825.28;  -62.333;  -57.467;    0.000;-4.86666
 825.53;  -56.333;  -74.800;    0.000;18.46667
 825.78;  -44.400;  -49.267;    0.000; 4.86666
 826.04;  -64.333;  -92.667;    0.000;28.33333
 826.29;  -68.333;  -72.533;    0.000; 4.20000
 826.54;  -49.600;  -85.267;    0.000;35.66667
 826.79;  -47.933;  -51.200;    0.000; 3.26667
 827.04;  -57.133;  -92.867;    0.000;35.73333
 827.29;  -55.200;  -64.000;    0.000; 8.80000
 827.54;  -70.800;  -77.267;    0.000; 6.46667
 827.79;  -44.467;  -57.867;    0.000;13.40000
 828.04;  -66.133;  -75.267;    0.000; 9.13334
 828.29;  -54.667;  -67.067;    0.000;12.40000
 828.55;  -73.800;  -74.600;    0.000; 0.80000
 828.80;  -50.000;  -60.267;    0.000;10.26667
 829.05;  -56.200;  -85.333;    0.000;29.13334
 829.30;  -66.667;  -82.533;    0.000;15.86667
 829.55;  -76.000;  -78.133;    0.000; 2.13333
 829.80;  -42.667;  -63.133;    0.000;20.46667
 830.05;  -58.400;  -73.800;    0.000;15.40000
 830.30;  -46.533;  -69.533;    0.000;23.00000
 830.55;  -71.467;  -91.600;    0.000;20.13333
 830.80;  -57.133;  -68.467;    0.000;11.33333
 831.05;  -61.600;  -75.200;    0.000;13.60000
 831.30;  -46.867;  -54.933;    0.000; 8.06667
 831.55;  -49.133; -110.333;    0.000;61.20000
 831.80;  -33.467;  -70.267;    0.000;36.80000
 832.05;  -43.800;  -75.533;    0.000;31.73333
 832.30;  -33.333;  -55.333;    0.000;22.00000
 832.56;  -75.800;  -75.467;    0.000;-0.33334
 832.81;  -59.867;  -69.667;    0.000; 9.80000
 833.06;  -66.667;  -88.267;    0.000;21.60001
 833.31;  -84.000;  -78.200;    0.000;-5.80000
 833.56;  -60.867;  -74.533;    0.000;13.66667
 833.81;  -58.667;  -47.133;    0.000;-11.53333
 834.06;  -53.800;  -83.600;    0.000;29.80000
 834.31;  -71.200;  -79.133;    0.000; 7.93333
 834.56;  -60.000;  -79.933;    0.000;19.93333
 834.81;  -47.400;  -72.867;    0.000;25.46667
 835.06;  -63.133;  -79.533;    0.000;16.40000
 835.31;  -43.667;  -51.000;    0.000; 7.33333
 835.56;  -43.133;  -71.333;    0.000;28.20000
 835.81;  -45.467;  -72.333;    0.000;26.86667
 836.06;  -45.267;  -64.800;    0.000;19.53334
 836.31;  -58.867;  -71.200;    0.000;12.33333
 836.56;  -54.600;  -78.933;    0.000;24.33334
 836.81;  -57.667;  -74.400;    0.000;16.73333
 837.06;  -45.267;  -71.667;    0.000;26.40000
 837.31;  -78.933;  -79.200;    0.000; 0.26666
 837.56;  -59.800;  -93.733;    0.000;33.93333
 837.81;  -73.400;  -52.467;    0.000;-20.93333
 838.06;  -58.667;  -77.267;    0.000;18.60000
 838.31;  -67.533;  -74.000;    0.000; 6.46667
 838.56;  -85.133;  -79.400;    0.000;-5.73333
 838.80;  -54.733;  -73.933;    0.000;19.20000
 839.05;  -59.600;  -90.533;    0.000;30.93333
 839.30;  -54.133;  -48.067;    0.000;-6.06667
 839.55;  -62.133;  -95.733;    0.000;33.59999
 839.80;  -49.000;  -63.400;    0.000;14.40000
 840.05;  -76.733;  -93.000;    0.000;16.26667
 840.30;  -65.867;  -57.667;    0.000;-8.20000
 840.55;  -40.800;  -63.267;    0.000;22.46667
 840.80;  -62.733;  -42.000;    0.000;-20.73333
 841.05;  -51.267;  -77.867;    0.000;26.60000
 841.30;  -42.333;  -67.600;    0.000;25.26667
 841.55;  -59.267;  -83.733;    0.000;24.46666
 841.80;  -38.267;  -62.000;    0.000;23.73333
 842.05;  -68.933;  -79.600;    0.000;10.66666
 842.30;  -56.667;  -76.667;    0.000;20.00000
 842.55;  -56.333;  -92.667;    0.000;36.33333
 842.79;  -74.467;  -82.400;    0.000; 7.93333
 843.04;  -55.533;  -71.800;    0.000;16.26667
 843.29;  -66.667;  -50.000;    0.000;-16.66666
 843.54;  -59.400;  -64.533;    0.000; 5.13333
 843.79;  -58.800;  -57.200;    0.000;-1.60000
 844.04;  -47.800;  -79.400;    0.000;31.60000
 844.29;  -51.000;  -84.400;    0.000;33.40000
 844.54;  -65.067;  -86.467;    0.000;21.40000
 844.79;  -48.067;  -65.200;    0.000;17.13333
 845.04;  -71.333;  -84.133;    0.000;12.80000
 845.28;  -73.667;  -56.067;    0.000;-17.60000
 845.53;  -63.200;  -90.333;    0.000;27.13334
 845.78;  -59.600;  -51.400;    0.000;-8.20000
 846.03;  -56.800;  -73.267;    0.000;16.46667
 846.28;  -78.133;  -73.400;    0.000;-4.73333
 846.53;  -40.000;  -82.133;    0.000;42.13333
 846.78;  -61.800;  -74.067;    0.000;12.26667
 847.02;  -74.067;  -86.600;    0.000;12.53333
 847.27;  -46.867;  -82.133;    0.000;35.26667
 847.52;  -54.667;  -97.400;    0.000;42.73333
 847.77;  -50.733;  -68.800;    0.000;18.06667
 848.02;  -59.733;  -69.667;    0.000; 9.93333
 848.27;  -64.600;  -54.133;    0.000;-10.46666
 848.52;  -67.600;  -99.333;    0.000;31.73334
 848.76;  -41.667;  -66.533;    0.000;24.86666
 849.01;  -49.667;  -64.733;    0.000;15.06666
 849.26;  -65.933;  -52.333;    0.000;-13.60000
 849.51;  -57.867;  -70.533;    0.000;12.66667
 849.76;  -85.467;  -62.133;    0.000;-23.33333
 850.01;  -59.533;  -87.867;    0.000;28.33334
 850.25;  -58.400;  -73.133;    0.000;14.73333
 850.50;  -83.333;  -75.800;    0.000;-7.53333
 850.75;  -64.467;  -51.600;    0.000;-12.86667
 851.00;  -68.933;  -88.267;    0.000;19.33334
 851.25;  -52.667;  -46.733;    0.000;-5.93333
 851.49;  -62.800;  -67.667;    0.000; 4.86666
 851.74;  -80.533;  -72.133;    0.000;-8.40000
 851.99;  -76.067;  -96.133;    0.000;20.06667
 852.24;  -67.933;  -64.267;    0.000;-3.66666
 852.49;  -66.667;  -96.067;    0.000;29.40000
 852.73;  -90.867;  -64.533;    0.000;-26.33334
 852.98;  -72.267;  -86.200;    0.000;13.93333
 853.23;  -64.800;  -65.800;    0.000; 1.00000
 853.48;  -63.867;  -79.333;    0.000;15.46667
 853.73;  -79.933;  -69.400;    0.000;-10.53333
 853.97;  -60.000;  -94.600;    0.000;34.60000
 854.22;  -69.400;  -63.267;    0.000;-6.13334
 854.47;  -80.867;  -88.400;    0.000; 7.53333
 854.72;  -63.533;  -62.067;    0.000;-1.46667
 854.96;  -68.933;  -87.933;    0.000;19.00000
 855.21;  -47.000;  -53.000;    0.000; 6.00000
 855.46;  -55.267;  -77.467;    0.000;22.20000
 855.71;  -72.267;  -73.400;    0.000; 1.13333
 855.95;  -53.133;  -70.933;    0.000;17.80000
 856.20;  -84.533;  -64.933;    0.000;-19.60000
 856.45;  -66.333; -101.067;    0.000;34.73333
 856.70;  -64.667;  -62.800;    0.000;-1.86666
 856.94;  -86.533;  -78.000;    0.000;-8.53333
 857.19;  -70.400;  -57.333;    0.000;-13.06667
 857.44;  -65.867;  -82.800;    0.000;16.93333
 857.69;  -67.000;  -51.000;    0.000;-16.00000
 857.93;  -65.933;  -75.467;    0.000; 9.53333
 858.18;  -52.667;  -34.533;    0.000;-18.13334
 858.43;  -89.600;  -67.200;    0.000;-22.40000
 858.67;  -47.200;  -46.933;    0.000;-0.26667
 858.92;  -63.867;  -79.133;    0.000;15.26667
 859.17;  -58.733;  -42.267;    0.000;-16.46667
 859.42;  -57.133;  -91.933;    0.000;34.80000
 859.66;  -69.400;  -51.533;    0.000;-17.86667
 859.91;  -55.933;  -84.800;    0.000;28.86667
 860.16;  -82.200;  -74.133;    0.000;-8.06667
 860.40;  -52.933;  -88.733;    0.000;35.80000
 860.65;  -75.333;  -81.267;    0.000; 5.93333
 860.90;  -93.933; -117.600;    0.000;23.66666
 861.14;  -62.133;  -56.400;    0.000;-5.73333
 861.39;  -68.467;  -79.200;    0.000;10.73333
 861.64;  -80.733;  -63.067;    0.000;-17.66666
 861.88;  -71.733;  -93.467;    0.000;21.73334
 862.13;  -45.800;  -59.067;    0.000;13.26667
 862.38;  -70.467; -103.800;    0.000;33.33334
 862.62;  -70.467;  -56.667;    0.000;-13.80000
 862.87;  -67.533;  -77.133;    0.000; 9.60000
 863.12;  -58.733;  -67.000;    0.000; 8.26667
 863.36;  -70.800;  -85.933;    0.000;15.13333
 863.61;  -51.867;  -57.200;    0.000; 5.33334
 863.86;  -78.667;  -74.667;    0.000;-4.00000
 864.10;  -76.733;  -62.933;    0.000;-13.80000
 864.35;  -81.400;  -90.400;    0.000; 9.00000
 864.60;  -68.200;  -64.800;    0.000;-3.39999
 864.84;  -78.400;  -82.533;    0.000; 4.13333
 865.09;  -72.067;  -54.667;    0.000;-17.40000
 865.33;  -82.200;  -84.733;    0.000; 2.53333
 865.58;  -53.600;  -54.333;    0.000; 0.73333
 865.83;  -80.133;  -81.933;    0.000; 1.80000
 866.07;  -74.600;  -64.467;    0.000;-10.13333
 866.32;  -53.000;  -61.800;    0.000; 8.80000
 866.57;  -77.333;  -52.067;    0.000;-25.26667
 866.81;  -65.067;  -85.200;    0.000;20.13333
 867.06;  -88.133;  -78.133;    0.000;-10.00000
 867.30;  -63.000;  -83.267;    0.000;20.26667
 867.55;  -61.333;  -62.000;    0.000; 0.66667
 867.80;  -56.467;  -73.067;    0.000;16.60000
 868.04;  -63.800;  -66.133;    0.000; 2.33333
 868.29;  -68.733;  -87.067;    0.000;18.33334
 868.53;  -47.467;  -42.000;    0.000;-5.46667
 868.78;  -64.267;  -99.200;    0.000;34.93333
 869.03;  -76.200;  -67.400;    0.000;-8.80000
 869.27;  -83.333;  -58.800;    0.000;-24.53334
 869.52;  -75.133;  -67.800;    0.000;-7.33333
 869.76;  -56.267;  -80.200;    0.000;23.93333
 870.01;  -59.133;  -62.533;    0.000; 3.40000
 870.25;  -45.333;  -81.933;    0.000;36.60000
 870.50;  -55.733;  -67.467;    0.000;11.73333
 870.75;  -69.933;  -69.067;    0.000;-0.86667
 870.99;  -71.067;  -52.467;    0.000;-18.60000
 871.24;  -67.733;  -73.467;    0.000; 5.73334
 871.48;  -38.933;  -48.933;    0.000;10.00000
 871.73;  -59.067;  -74.467;    0.000;15.40000
 871.97;  -68.667;  -62.267;    0.000;-6.40000
 872.22;  -85.867;  -90.267;    0.000; 4.40000
 872.46;  -59.133;  -67.000;    0.000; 7.86666
 872.71;  -92.400;  -82.600;    0.000;-9.80000
 872.95;  -82.800;  -56.667;    0.000;-26.13334
 873.20;  -58.933;  -77.000;    0.000;18.06667
 873.44;  -50.400;  -74.333;    0.000;23.93333
 873.69;  -61.733;  -79.933;    0.000;18.20000
 873.94;  -71.267;  -39.067;    0.000;-32.20000
 874.18;  -76.267;  -95.400;    0.000;19.13333
 874.43;  -60.000;  -48.867;    0.000;-11.13334
 874.67;  -44.200;  -92.733;    0.000;48.53333
 874.92;  -68.333;  -45.267;    0.000;-23.06667
 875.16;  -80.800;  -77.267;    0.000;-3.53333
 875.41;  -79.400;  -62.267;    0.000;-17.13334
 875.65;  -75.467;  -77.533;    0.000; 2.06667
 875.90;  -53.467;  -48.467;    0.000;-5.00000
 876.14;  -72.600;  -91.267;    0.000;18.66667
 876.39;  -57.333;  -44.933;    0.000;-12.40000
 876.63;  -75.667;  -85.667;    0.000;10.00000
 876.88;  -59.000;  -72.533;    0.000;13.53333
 877.12;  -77.267;  -55.533;    0.000;-21.73334
 877.36;  -65.467;  -60.267;    0.000;-5.20000
 877.61;  -64.867;  -95.533;    0.000;30.66666
 877.85;  -72.200;  -57.733;    0.000;-14.46666
 878.10;  -51.800;  -75.333;    0.000;23.53334
 878.34;  -67.733;  -41.600;    0.000;-26.13333
 878.59;  -58.533;  -46.600;    0.000;-11.93333
 878.83;  -68.000;  -69.467;    0.000; 1.46667
 879.08;  -71.000;  -51.467;    0.000;-19.53333
 879.32;  -73.400;  -47.400;    0.000;-26.00000
 879.57;  -50.600;  -67.667;    0.000;17.06667
 879.81;  -59.200;  -48.000;    0.000;-11.20000
 880.05;  -49.133;  -69.200;    0.000;20.06666
 880.30;  -63.933;  -58.000;    0.000;-5.93333
 880.54;  -83.933;  -86.733;    0.000; 2.80000
 880.79;  -63.467;  -61.000;    0.000;-2.46667
 881.03;  -71.733;  -91.933;    0.000;20.20000
 881.28;  -50.400;  -36.267;    0.000;-14.13334
 881.52;  -69.000;  -78.000;    0.000; 9.00000
 881.76;  -60.667;  -62.867;    0.000; 2.20000
 882.01;  -68.000;  -75.933;    0.000; 7.93333
 882.25;  -64.667;  -60.600;    0.000;-4.06667
 882.50;  -86.800;  -77.067;    0.000;-9.73334
 882.74;  -53.133;  -38.600;    0.000;-14.53334
 882.98;  -64.067;  -72.800;    0.000; 8.73334
 883.23;  -65.467;  -55.133;    0.000;-10.33333
 883.47;  -48.000;  -75.400;    0.000;27.40000
 883.72;  -41.400;  -52.467;    0.000;11.06667
 883.96;  -60.133;  -72.800;    0.000;12.66667
 884.20;  -65.667;  -52.400;    0.000;-13.26666
 884.45;  -59.333;  -66.200;    0.000; 6.86666
 884.69;  -46.733;  -50.533;    0.000; 3.80000
 884.94;  -17.867;  -54.533;    0.000;36.66667
 885.18;  -70.200;  -44.400;    0.000;-25.80000
 885.42;  -62.467;  -83.333;    0.000;20.86667
 885.67;  -63.867;  -44.200;    0.000;-19.66666
 885.91;  -69.333;  -75.467;    0.000; 6.13333
 886.15;  -54.867;  -59.133;    0.000; 4.26667
 886.40;  -51.600;  -52.800;    0.000; 1.20000
 886.64;  -58.867;  -47.667;    0.000;-11.20000
 886.88;  -68.533;  -53.333;    0.000;-15.20000
 887.13;  -57.467;  -38.400;    0.000;-19.06667
 887.37;  -59.533;  -81.600;    0.000;22.06667
 887.62;  -27.933;  -42.867;    0.000;14.93333
 887.86;  -46.600;  -60.933;    0.000;14.33334
 888.10;  -44.067;  -46.000;    0.000; 1.93333
 888.35;  -44.800;  -61.467;    0.000;16.66667
 888.59;  -53.333;  -58.200;    0.000; 4.86667
 888.83;  -47.200;  -61.000;    0.000;13.80000
 889.07;  -41.467;  -49.133;    0.000; 7.66667
 889.32;  -33.400;  -78.133;    0.000;44.73333
 889.56;  -59.667;  -22.467;    0.000;-37.20000
 889.80;  -52.533;  -57.267;    0.000; 4.73333
 890.05;  -55.800;  -65.600;    0.000; 9.80000
 890.29;  -41.867;  -52.200;    0.000;10.33334
 890.53;  -64.733;  -46.200;    0.000;-18.53333
 890.78;  -55.133;  -86.867;    0.000;31.73333
 891.02;  -47.200;  -39.000;    0.000;-8.20000
 891.26;  -41.600;  -72.600;    0.000;31.00000
 891.51;  -43.600;  -46.600;    0.000; 3.00000
 891.75;  -46.067;  -59.067;    0.000;13.00000
 891.99;  -52.867;  -36.467;    0.000;-16.40000
 892.23;  -54.533;  -54.133;    0.000;-0.40000
 892.48;  -26.400;  -42.267;    0.000;15.86667
 892.72;  -61.000;  -44.933;    0.000;-16.06667
 892.96;  -31.400;  -28.333;    0.000;-3.06667
 893.20;  -41.467;  -37.533;    0.000;-3.93333
 893.45;  -54.400;  -40.933;    0.000;-13.46667
 893.69;  -41.467;  -60.133;    0.000;18.66667
 893.93;  -36.867;  -18.067;    0.000;-18.80000
 894.17;  -36.533;  -71.067;    0.000;34.53333
 894.42;  -32.800;  -30.067;    0.000;-2.73333
 894.66;  -34.267;  -54.267;    0.000;20.00000
 894.90;  -30.600;  -40.267;    0.000; 9.66667
 895.14;  -46.067;  -29.533;    0.000;-16.53333
 895.39;  -43.600;  -48.267;    0.000; 4.66667
 895.63;  -43.600;  -44.333;    0.000; 0.73333
 895.87;  -48.333;  -42.000;    0.000;-6.33333
 896.11;  -21.933;  -34.667;    0.000;12.73334
 896.36;  -23.733;  -26.000;    0.000; 2.26667
 896.60;  -45.600;  -37.800;    0.000;-7.80000
 896.84;  -13.800;  -17.333;    0.000; 3.53333
 897.08;  -31.867;  -43.867;    0.000;12.00000
 897.32;  -30.600;  -13.067;    0.000;-17.53333
 897.57;  -40.600;  -42.800;    0.000; 2.20000
 897.81;  -26.600;  -30.000;    0.000; 3.40000
 898.05;   -3.667;  -46.533;    0.000;42.86667
 898.29;   -3.000;  -11.667;    0.000; 8.66667
 898.53;  -18.467;  -24.000;    0.000; 5.53333
 898.78;  -18.600;   -1.333;    0.000;-17.26667
 899.02;  -14.533;  -25.600;    0.000;11.06667
 899.26;  -16.200;   -2.400;    0.000;-13.80000
 899.50;   26.067;   15.933;    0.000;10.13333
 899.74;   10.533;   13.400;    0.000;-2.86667
 899.99;    4.933;  -20.400;    0.000;25.33333
 900.23;   17.533;   12.400;    0.000; 5.13333
 900.47;   -2.400;   -2.067;    0.000;-0.33333
 900.71;   12.800;   37.067;    0.000;-24.26667
 900.95;   19.067;   21.200;    0.000;-2.13333
 901.19;   38.267;   43.800;    0.000;-5.53333
 901.44;   52.000;   44.733;    0.000; 7.26667
 901.68;   89.467;   90.733;    0.000;-1.26666
 901.92;   81.333;   66.133;    0.000;15.20000
 902.16;   85.467;   85.867;    0.000;-0.40000
 902.40;  140.600;   91.933;    0.000;48.66667
 902.64;  152.333;  139.933;    0.000;12.39999
 902.88;  144.733;  136.067;    0.000; 8.66667
 903.13;  189.400;  183.600;    0.000; 5.79999

