point5
Integration time [ms]:  30.000
Averaging Nr. [scans]: 15
Smoothing Nr. [pixels]: 0
Data measured with spectrometer [name]: 1307077U2
Wave   ;Sample   ;Dark     ;Reference;Scope Corrected for Dark
[nm]   ;[counts] ;[counts] ;[counts] 

 350.80;    4.200;   10.133;    0.000;-5.93333
 351.10;    6.067;  -15.000;    0.000;21.06667
 351.39;   39.867;   32.600;    0.000; 7.26667
 351.69;   11.867;  -19.200;    0.000;31.06667
 351.99;  -12.533;  -12.200;    0.000;-0.33333
 352.28;   -5.067;  -30.667;    0.000;25.60000
 352.58;  -11.467;   -7.133;    0.000;-4.33333
 352.88;    1.467;  -28.067;    0.000;29.53333
 353.17;    4.600;    3.600;    0.000; 1.00000
 353.47;  -15.400;  -22.600;    0.000; 7.20000
 353.76;   12.533;  -20.000;    0.000;32.53333
 354.06;   13.200;   13.200;    0.000; 0.00000
 354.36;   11.000;    5.933;    0.000; 5.06667
 354.65;   17.200;    6.667;    0.000;10.53333
 354.95;   10.933;   -7.667;    0.000;18.60000
 355.24;    9.200;    5.400;    0.000; 3.80000
 355.54;   -7.333;   -2.133;    0.000;-5.20000
 355.84;   17.200;  -11.533;    0.000;28.73333
 356.13;   27.600;   19.667;    0.000; 7.93333
 356.43;    0.400;  -18.400;    0.000;18.80000
 356.72;   -5.133;  -15.000;    0.000; 9.86667
 357.02;   21.333;   -8.933;    0.000;30.26667
 357.31;   36.867;   11.867;    0.000;25.00000
 357.61;   19.000;  -12.667;    0.000;31.66667
 357.91;  -20.933;  -28.800;    0.000; 7.86667
 358.20;    6.200;  -10.067;    0.000;16.26667
 358.50;   -0.733;   -5.533;    0.000; 4.80000
 358.79;   12.667;   -7.867;    0.000;20.53333
 359.09;   13.067;   -3.200;    0.000;16.26667
 359.38;   15.733;    2.333;    0.000;13.40000
 359.68;  -14.867;  -25.533;    0.000;10.66667
 359.98;   27.667;  -24.867;    0.000;52.53333
 360.27;   -8.267;   10.533;    0.000;-18.80000
 360.57;   -2.333;  -11.000;    0.000; 8.66667
 360.86;   14.667;    0.467;    0.000;14.20000
 361.16;   12.667;  -17.267;    0.000;29.93333
 361.45;    0.800;  -12.133;    0.000;12.93333
 361.75;   -5.933;  -13.133;    0.000; 7.20000
 362.04;   26.667;   24.333;    0.000; 2.33333
 362.34;    3.333;  -16.467;    0.000;19.80000
 362.64;   -5.067;   -9.000;    0.000; 3.93333
 362.93;   13.067;   -3.133;    0.000;16.20000
 363.23;  -29.400;  -18.333;    0.000;-11.06667
 363.52;   -5.733;   -8.400;    0.000; 2.66667
 363.82;   -4.867;  -18.733;    0.000;13.86667
 364.11;   26.533;    1.067;    0.000;25.46667
 364.41;    1.467;  -12.867;    0.000;14.33333
 364.70;   -7.467;   -7.333;    0.000;-0.13333
 365.00;   -1.867;    8.667;    0.000;-10.53333
 365.29;   -2.000;   -7.533;    0.000; 5.53333
 365.59;  -10.333;  -25.600;    0.000;15.26667
 365.88;   -1.667;  -30.867;    0.000;29.20000
 366.18;   -3.267;   -6.800;    0.000; 3.53333
 366.47;    2.467;  -14.533;    0.000;17.00000
 366.77;   -7.867;   -3.067;    0.000;-4.80000
 367.06;    2.533;  -25.000;    0.000;27.53333
 367.36;    2.733;   14.200;    0.000;-11.46667
 367.65;   25.333;   -8.800;    0.000;34.13333
 367.95;   11.933;  -15.733;    0.000;27.66667
 368.24;   12.733;  -12.867;    0.000;25.60000
 368.54;  -18.800;  -14.200;    0.000;-4.60000
 368.83;   21.600;   -9.733;    0.000;31.33333
 369.13;    3.933;   -2.333;    0.000; 6.26667
 369.42;    1.867;   -4.467;    0.000; 6.33333
 369.72;  -17.933;  -15.000;    0.000;-2.93333
 370.01;   19.067;  -19.067;    0.000;38.13334
 370.31;    7.800;    3.267;    0.000; 4.53333
 370.60;   35.533;  -10.000;    0.000;45.53333
 370.90;  -11.067;   -9.067;    0.000;-2.00000
 371.19;  -18.067;  -29.200;    0.000;11.13333
 371.49;   -1.200;  -21.133;    0.000;19.93333
 371.78;   15.467;  -20.867;    0.000;36.33333
 372.08;    3.267;    1.400;    0.000; 1.86667
 372.37;   -4.067;  -23.467;    0.000;19.40000
 372.67;    9.133;   -1.600;    0.000;10.73333
 372.96;   -2.267;   -9.667;    0.000; 7.40000
 373.26;   -5.800;   -9.200;    0.000; 3.40000
 373.55;   -2.067;  -10.400;    0.000; 8.33333
 373.85;  -34.800;  -28.400;    0.000;-6.40000
 374.14;   16.000;   -8.467;    0.000;24.46667
 374.43;  -19.133;  -16.267;    0.000;-2.86667
 374.73;   13.200;  -16.333;    0.000;29.53333
 375.02;   -7.067;   -0.533;    0.000;-6.53333
 375.32;   11.400;  -28.733;    0.000;40.13333
 375.61;    1.467;   -5.267;    0.000; 6.73333
 375.91;   15.067;  -13.000;    0.000;28.06667
 376.20;  -36.733;  -40.533;    0.000; 3.80000
 376.50;   -0.200;  -23.733;    0.000;23.53333
 376.79;  -12.333;  -28.200;    0.000;15.86667
 377.08;  -11.600;  -22.000;    0.000;10.40000
 377.38;  -19.733;  -24.467;    0.000; 4.73333
 377.67;   -6.533;   -6.800;    0.000; 0.26667
 377.97;  -19.933;  -19.067;    0.000;-0.86666
 378.26;    2.000;  -27.733;    0.000;29.73333
 378.56;  -20.533;  -37.067;    0.000;16.53333
 378.85;    5.800;    8.000;    0.000;-2.20000
 379.14;   -7.800;  -13.733;    0.000; 5.93333
 379.44;   -8.333;  -12.733;    0.000; 4.40000
 379.73;  -29.733;  -25.000;    0.000;-4.73333
 380.03;    3.733;   -8.867;    0.000;12.60000
 380.32;    8.667;    7.600;    0.000; 1.06667
 380.62;   -4.733;   -7.733;    0.000; 3.00000
 380.91;   14.667;  -11.533;    0.000;26.20000
 381.20;    6.933;  -13.200;    0.000;20.13333
 381.50;   -8.933;  -11.333;    0.000; 2.40000
 381.79;  -13.467;  -22.800;    0.000; 9.33333
 382.09;  -27.067;  -31.667;    0.000; 4.60000
 382.38;   10.933;  -27.867;    0.000;38.80000
 382.67;  -16.400;  -12.000;    0.000;-4.40000
 382.97;    4.867;  -19.867;    0.000;24.73333
 383.26;  -25.400;  -10.200;    0.000;-15.20000
 383.56;   13.400;    1.400;    0.000;12.00000
 383.85;    5.667;  -29.467;    0.000;35.13333
 384.14;   13.400;    2.267;    0.000;11.13333
 384.44;    4.067;  -15.933;    0.000;20.00000
 384.73;   -1.867;  -18.667;    0.000;16.80000
 385.02;    0.133;  -11.400;    0.000;11.53333
 385.32;   17.200;   -1.133;    0.000;18.33333
 385.61;  -17.000;  -40.067;    0.000;23.06667
 385.91;    2.867;   -8.667;    0.000;11.53333
 386.20;  -13.000;  -14.533;    0.000; 1.53333
 386.49;  -12.067;  -27.600;    0.000;15.53333
 386.79;  -12.467;   -1.733;    0.000;-10.73333
 387.08;    2.867;  -22.000;    0.000;24.86667
 387.37;   -4.533;   -8.333;    0.000; 3.80000
 387.67;    8.133;  -18.333;    0.000;26.46667
 387.96;   -1.533;  -21.933;    0.000;20.40000
 388.25;   18.667;    7.733;    0.000;10.93333
 388.55;  -15.067;   -9.867;    0.000;-5.20000
 388.84;    8.267;  -15.400;    0.000;23.66667
 389.14;  -12.667;   -9.000;    0.000;-3.66667
 389.43;    2.867;  -21.867;    0.000;24.73333
 389.72;   -5.400;  -27.333;    0.000;21.93333
 390.02;  -11.000;  -34.000;    0.000;23.00000
 390.31;   -0.533;  -17.133;    0.000;16.60000
 390.60;    1.467;  -17.200;    0.000;18.66667
 390.90;  -12.267;  -24.467;    0.000;12.20000
 391.19;    2.733;  -29.133;    0.000;31.86667
 391.48;  -22.733;  -33.467;    0.000;10.73333
 391.78;    3.800;  -28.333;    0.000;32.13333
 392.07;   49.800;   28.800;    0.000;21.00000
 392.36;   18.467;    7.067;    0.000;11.40000
 392.66;  -15.667;  -20.933;    0.000; 5.26667
 392.95;  -10.133;  -27.067;    0.000;16.93333
 393.24;  -26.267;  -35.000;    0.000; 8.73333
 393.53;   -0.800;  -29.133;    0.000;28.33333
 393.83;  -13.800;  -20.400;    0.000; 6.60000
 394.12;   10.467;  -17.200;    0.000;27.66667
 394.41;  -14.000;  -25.867;    0.000;11.86667
 394.71;   -5.600;  -21.600;    0.000;16.00000
 395.00;   -2.800;  -24.000;    0.000;21.20000
 395.29;    5.267;   -0.733;    0.000; 6.00000
 395.59;  -38.533;  -19.067;    0.000;-19.46667
 395.88;   -6.067;  -11.533;    0.000; 5.46667
 396.17;   -5.800;  -37.600;    0.000;31.80000
 396.46;   19.800;  -22.000;    0.000;41.80000
 396.76;  -22.467;  -33.600;    0.000;11.13333
 397.05;   17.533;   11.933;    0.000; 5.60000
 397.34;  -26.733;  -18.800;    0.000;-7.93333
 397.64;    3.267;  -13.533;    0.000;16.80000
 397.93;  -20.467;  -17.667;    0.000;-2.80000
 398.22;   -6.600;  -34.467;    0.000;27.86667
 398.51;    7.067;  -17.600;    0.000;24.66667
 398.81;   11.333;  -25.933;    0.000;37.26667
 399.10;   -3.200;  -31.067;    0.000;27.86667
 399.39;   -8.867;  -10.867;    0.000; 2.00000
 399.69;   -6.733;  -14.933;    0.000; 8.20000
 399.98;   12.333;   -1.067;    0.000;13.40000
 400.27;  -18.600;  -36.600;    0.000;18.00000
 400.56;   -7.267;  -21.067;    0.000;13.80000
 400.86;  -18.267;  -19.467;    0.000; 1.20000
 401.15;   17.000;  -13.133;    0.000;30.13333
 401.44;  -17.667;  -27.400;    0.000; 9.73333
 401.73;   18.600;   -7.733;    0.000;26.33333
 402.03;   -4.400;   -2.200;    0.000;-2.20000
 402.32;  -24.200;  -26.133;    0.000; 1.93333
 402.61;  -15.733;  -10.400;    0.000;-5.33333
 402.90;   -3.400;  -44.200;    0.000;40.80000
 403.20;   -0.667;  -17.067;    0.000;16.40000
 403.49;    4.533;   -8.933;    0.000;13.46667
 403.78;  -12.400;  -20.867;    0.000; 8.46667
 404.07;   -1.733;  -16.800;    0.000;15.06667
 404.37;   -6.133;  -10.867;    0.000; 4.73333
 404.66;   -4.800;  -10.933;    0.000; 6.13333
 404.95;   15.000;  -18.400;    0.000;33.40000
 405.24;   -1.000;  -19.800;    0.000;18.80000
 405.53;   -3.400;  -28.267;    0.000;24.86667
 405.83;    5.533;   -1.733;    0.000; 7.26667
 406.12;  -15.267;  -31.867;    0.000;16.60000
 406.41;   12.333;   -8.600;    0.000;20.93333
 406.70;   -3.067;  -30.600;    0.000;27.53333
 407.00;  -15.067;   -5.267;    0.000;-9.80000
 407.29;   -3.267;  -19.133;    0.000;15.86667
 407.58;  -10.533;  -31.533;    0.000;21.00000
 407.87;  -24.400;  -32.933;    0.000; 8.53333
 408.16;   -2.467;  -20.733;    0.000;18.26667
 408.46;  -31.533;  -28.467;    0.000;-3.06667
 408.75;   -4.267;  -23.067;    0.000;18.80000
 409.04;    0.467;  -23.133;    0.000;23.60000
 409.33;    2.200;  -14.333;    0.000;16.53333
 409.62;    8.067;  -16.467;    0.000;24.53333
 409.92;   12.667;   -8.733;    0.000;21.40000
 410.21;  -30.067;  -28.600;    0.000;-1.46667
 410.50;   -5.600;  -19.933;    0.000;14.33333
 410.79;   -6.400;    1.333;    0.000;-7.73333
 411.08;   -5.733;  -16.400;    0.000;10.66667
 411.37;  -10.200;  -21.267;    0.000;11.06667
 411.67;   -2.067;  -26.333;    0.000;24.26667
 411.96;   -2.600;  -31.800;    0.000;29.20000
 412.25;   -4.533;  -20.467;    0.000;15.93333
 412.54;  -16.800;  -19.867;    0.000; 3.06667
 412.83;   -1.733;  -36.267;    0.000;34.53333
 413.13;  -14.867;  -22.133;    0.000; 7.26667
 413.42;   -2.467;  -20.933;    0.000;18.46667
 413.71;   -5.467;  -12.467;    0.000; 7.00000
 414.00;  -12.267;  -20.467;    0.000; 8.20000
 414.29;  -10.133;  -12.400;    0.000; 2.26667
 414.58;  -11.733;  -31.000;    0.000;19.26667
 414.87;  -22.733;  -38.067;    0.000;15.33333
 415.17;    5.067;  -27.533;    0.000;32.60000
 415.46;  -18.133;  -19.667;    0.000; 1.53333
 415.75;   10.400;  -27.400;    0.000;37.80000
 416.04;  -12.733;  -23.867;    0.000;11.13333
 416.33;  -14.467;  -27.800;    0.000;13.33333
 416.62;  -12.400;  -37.667;    0.000;25.26667
 416.91;    3.667;  -25.800;    0.000;29.46667
 417.21;  -24.800;  -31.467;    0.000; 6.66667
 417.50;  -23.933;  -31.867;    0.000; 7.93333
 417.79;  -13.267;  -23.933;    0.000;10.66667
 418.08;   -6.733;  -26.267;    0.000;19.53333
 418.37;  -24.733;  -38.400;    0.000;13.66667
 418.66;    6.867;  -24.600;    0.000;31.46667
 418.95;   15.400;  -16.133;    0.000;31.53333
 419.24;   -9.933;  -28.667;    0.000;18.73333
 419.54;   -5.533;  -23.467;    0.000;17.93333
 419.83;   -7.400;  -35.267;    0.000;27.86667
 420.12;  -23.600;  -34.933;    0.000;11.33333
 420.41;   15.400;    3.467;    0.000;11.93333
 420.70;  -20.867;  -35.000;    0.000;14.13333
 420.99;   -2.000;   -0.333;    0.000;-1.66667
 421.28;    4.733;  -16.867;    0.000;21.60000
 421.57;   -5.067;   -9.333;    0.000; 4.26667
 421.86;    1.467;  -11.533;    0.000;13.00000
 422.16;    4.333;  -17.933;    0.000;22.26667
 422.45;    0.733;  -37.333;    0.000;38.06667
 422.74;  -26.333;  -36.600;    0.000;10.26666
 423.03;   -1.200;  -13.933;    0.000;12.73333
 423.32;    4.533;  -27.200;    0.000;31.73333
 423.61;   -0.867;  -25.467;    0.000;24.60000
 423.90;    4.067;  -20.667;    0.000;24.73333
 424.19;   27.467;   27.000;    0.000; 0.46667
 424.48;    8.200;   -5.400;    0.000;13.60000
 424.77;   -6.533;   -3.933;    0.000;-2.60000
 425.06;   20.400;  -18.733;    0.000;39.13333
 425.35;   13.200;  -13.400;    0.000;26.60000
 425.65;   -4.267;  -33.800;    0.000;29.53333
 425.94;   -6.800;  -19.867;    0.000;13.06667
 426.23;  -14.133;  -39.467;    0.000;25.33333
 426.52;  -20.467;  -38.067;    0.000;17.60000
 426.81;   40.133;    3.933;    0.000;36.20000
 427.10;  -32.267;  -33.400;    0.000; 1.13334
 427.39;  -12.933;  -21.467;    0.000; 8.53333
 427.68;  -13.600;  -17.733;    0.000; 4.13333
 427.97;    7.533;  -13.067;    0.000;20.60000
 428.26;   -5.600;  -24.600;    0.000;19.00000
 428.55;   32.667;   -4.733;    0.000;37.40000
 428.84;  -12.200;  -15.800;    0.000; 3.60000
 429.13;  -14.467;  -15.800;    0.000; 1.33333
 429.42;  -14.467;  -20.733;    0.000; 6.26667
 429.71;    4.200;  -10.200;    0.000;14.40000
 430.00;  -20.267;  -38.667;    0.000;18.40000
 430.29;    1.133;  -41.867;    0.000;43.00000
 430.58;  -16.800;  -23.867;    0.000; 7.06667
 430.87;  -17.067;  -24.267;    0.000; 7.20000
 431.16;   -8.200;  -40.533;    0.000;32.33333
 431.46;   21.467;  -15.133;    0.000;36.60000
 431.75;  -22.200;  -16.067;    0.000;-6.13333
 432.04;    0.667;  -20.600;    0.000;21.26667
 432.33;   -9.333;  -28.133;    0.000;18.80000
 432.62;    9.067;  -37.200;    0.000;46.26667
 432.91;  -16.600;  -35.933;    0.000;19.33333
 433.20;   -1.200;  -32.400;    0.000;31.20000
 433.49;  -24.533;  -30.400;    0.000; 5.86667
 433.78;   -9.533;  -43.733;    0.000;34.20000
 434.07;  -13.200;  -24.267;    0.000;11.06667
 434.36;  -13.400;  -30.933;    0.000;17.53333
 434.65;  -21.067;  -27.867;    0.000; 6.80000
 434.94;  -12.133;  -14.667;    0.000; 2.53333
 435.23;  -12.400;  -18.933;    0.000; 6.53333
 435.52;    4.067;  -22.067;    0.000;26.13333
 435.81;  -26.600;  -19.133;    0.000;-7.46667
 436.10;   -6.267;   -3.400;    0.000;-2.86667
 436.39;  -15.133;   -6.000;    0.000;-9.13333
 436.68;    8.667;    2.533;    0.000; 6.13333
 436.97;   -8.200;  -29.067;    0.000;20.86667
 437.26;    5.200;    0.200;    0.000; 5.00000
 437.55;   -2.133;  -28.067;    0.000;25.93333
 437.83;  -11.333;  -38.800;    0.000;27.46667
 438.12;  -14.600;  -49.333;    0.000;34.73333
 438.41;    7.533;   -8.933;    0.000;16.46667
 438.70;   21.733;   12.267;    0.000; 9.46667
 438.99;   25.000;    3.200;    0.000;21.80000
 439.28;  -25.933;  -13.800;    0.000;-12.13333
 439.57;  -12.400;  -28.600;    0.000;16.20000
 439.86;   12.667;  -32.067;    0.000;44.73333
 440.15;    3.467;   -9.733;    0.000;13.20000
 440.44;  -14.667;    5.267;    0.000;-19.93333
 440.73;  -16.867;  -30.467;    0.000;13.60000
 441.02;   -1.133;  -25.933;    0.000;24.80000
 441.31;  -10.000;  -29.133;    0.000;19.13333
 441.60;   -2.467;   -1.667;    0.000;-0.80000
 441.89;  -18.067;  -36.400;    0.000;18.33333
 442.18;  -22.200;  -27.200;    0.000; 5.00000
 442.47;   -0.533;  -22.533;    0.000;22.00000
 442.76;  -21.867;  -18.667;    0.000;-3.20000
 443.05;   16.600;   -5.600;    0.000;22.20000
 443.34;  -18.067;   -4.400;    0.000;-13.66667
 443.63;  -17.133;  -30.000;    0.000;12.86667
 443.91;  -11.067;  -25.333;    0.000;14.26667
 444.20;    0.867;  -15.000;    0.000;15.86667
 444.49;  -14.467;  -34.667;    0.000;20.20000
 444.78;    0.600;  -20.267;    0.000;20.86667
 445.07;    4.800;  -24.333;    0.000;29.13333
 445.36;  -25.200;  -23.267;    0.000;-1.93333
 445.65;  -11.467;  -21.067;    0.000; 9.60000
 445.94;   -8.000;  -21.467;    0.000;13.46667
 446.23;   -7.800;  -22.933;    0.000;15.13333
 446.52;   10.467;  -25.200;    0.000;35.66667
 446.81;   -6.133;  -17.800;    0.000;11.66667
 447.10;  -10.067;  -19.133;    0.000; 9.06667
 447.38;  -25.000;  -61.067;    0.000;36.06667
 447.67;   13.200;  -25.000;    0.000;38.20000
 447.96;  -25.467;  -50.333;    0.000;24.86666
 448.25;  -10.133;  -28.933;    0.000;18.80000
 448.54;  104.200;   82.533;    0.000;21.66666
 448.83;    1.133;  -23.200;    0.000;24.33333
 449.12;  -27.933;  -51.000;    0.000;23.06667
 449.41;   10.133;  -14.333;    0.000;24.46667
 449.70;  -31.400;  -20.867;    0.000;-10.53333
 449.98;   -9.533;  -25.533;    0.000;16.00000
 450.27;  -11.800;  -24.867;    0.000;13.06667
 450.56;  -10.133;  -29.067;    0.000;18.93333
 450.85;  -11.067;  -35.400;    0.000;24.33333
 451.14;   -5.800;  -40.733;    0.000;34.93333
 451.43;  -24.200;  -22.333;    0.000;-1.86667
 451.72;   -7.800;  -27.333;    0.000;19.53333
 452.01;   -3.533;  -26.333;    0.000;22.80000
 452.29;  -15.333;  -38.533;    0.000;23.20000
 452.58;  -30.333;  -30.000;    0.000;-0.33333
 452.87;    3.800;  -11.933;    0.000;15.73333
 453.16;  -15.600;  -29.067;    0.000;13.46667
 453.45;   -3.200;   -9.600;    0.000; 6.40000
 453.74;  -32.800;  -24.200;    0.000;-8.60000
 454.03;   -8.267;  -32.867;    0.000;24.60000
 454.31;  -18.733;  -31.133;    0.000;12.40000
 454.60;   -1.933;  -29.667;    0.000;27.73333
 454.89;  -20.067;  -14.400;    0.000;-5.66667
 455.18;   -0.333;  -48.000;    0.000;47.66667
 455.47;  -22.600;  -46.800;    0.000;24.20000
 455.76;    6.200;  -28.400;    0.000;34.60000
 456.04;  -11.067;  -26.800;    0.000;15.73333
 456.33;   -8.800;  -20.733;    0.000;11.93333
 456.62;  -22.867;  -25.533;    0.000; 2.66667
 456.91;  -11.667;  -43.067;    0.000;31.40000
 457.20;   -3.667;  -20.200;    0.000;16.53333
 457.49;   -4.800;  -20.067;    0.000;15.26667
 457.77;  -18.333;  -47.200;    0.000;28.86667
 458.06;    0.600;  -33.200;    0.000;33.80000
 458.35;  -10.267;  -37.667;    0.000;27.40000
 458.64;    8.600;  -26.800;    0.000;35.40000
 458.93;  -19.333;  -27.933;    0.000; 8.60000
 459.21;   -6.000;  -24.600;    0.000;18.60000
 459.50;   -0.400;  -25.533;    0.000;25.13333
 459.79;   -6.333;  -44.867;    0.000;38.53333
 460.08;  -20.867;  -28.067;    0.000; 7.20000
 460.37;   -8.133;  -33.467;    0.000;25.33333
 460.65;  -17.000;  -35.467;    0.000;18.46667
 460.94;   -9.267;  -32.467;    0.000;23.20000
 461.23;   -1.533;  -46.400;    0.000;44.86667
 461.52;    4.400;  -24.933;    0.000;29.33333
 461.81;    1.467;  -32.267;    0.000;33.73333
 462.09;   -2.667;  -39.800;    0.000;37.13333
 462.38;  -12.600;  -48.200;    0.000;35.60000
 462.67;   -6.867;  -44.533;    0.000;37.66667
 462.96;  -26.400;  -34.400;    0.000; 8.00000
 463.24;    2.733;  -31.400;    0.000;34.13333
 463.53;   -9.533;  -17.933;    0.000; 8.40000
 463.82;   13.000;  -38.067;    0.000;51.06667
 464.11;   -8.267;  -44.600;    0.000;36.33333
 464.40;   -3.867;  -28.533;    0.000;24.66667
 464.68;  -45.467;  -43.667;    0.000;-1.80000
 464.97;   13.333;  -30.733;    0.000;44.06667
 465.26;  -19.400;  -23.600;    0.000; 4.20000
 465.55;  -15.200;  -26.867;    0.000;11.66667
 465.83;    3.267;  -36.533;    0.000;39.80000
 466.12;  -20.200;  -25.400;    0.000; 5.20000
 466.41;    4.867;  -25.800;    0.000;30.66667
 466.70;  -23.733;  -17.067;    0.000;-6.66667
 466.98;  -19.067;  -45.067;    0.000;26.00000
 467.27;   14.000;  -33.133;    0.000;47.13334
 467.56;   27.667;  -12.733;    0.000;40.40000
 467.85;    3.800;  -22.200;    0.000;26.00000
 468.13;   -6.867;  -36.400;    0.000;29.53333
 468.42;   -9.133;  -27.333;    0.000;18.20000
 468.71;   -5.267;  -27.600;    0.000;22.33333
 468.99;   -2.200;  -23.533;    0.000;21.33333
 469.28;  -14.000;  -26.267;    0.000;12.26667
 469.57;  -15.867;  -30.067;    0.000;14.20000
 469.86;  -16.000;  -24.000;    0.000; 8.00000
 470.14;  -25.533;  -55.067;    0.000;29.53333
 470.43;   -3.800;  -37.267;    0.000;33.46667
 470.72;  -15.267;  -43.200;    0.000;27.93333
 471.00;  -34.333;  -47.267;    0.000;12.93333
 471.29;    9.067;    6.733;    0.000; 2.33333
 471.58;   -3.000;  -21.800;    0.000;18.80000
 471.87;   -1.867;  -18.467;    0.000;16.60000
 472.15;  -17.533;  -29.200;    0.000;11.66667
 472.44;   -5.333;   -4.933;    0.000;-0.40000
 472.73;  -24.600;  -40.467;    0.000;15.86667
 473.01;   -4.333;  -44.733;    0.000;40.40000
 473.30;    5.267;  -32.800;    0.000;38.06667
 473.59;    0.867;  -49.667;    0.000;50.53333
 473.87;  -14.200;  -26.133;    0.000;11.93333
 474.16;  -11.933;  -40.133;    0.000;28.20000
 474.45;  -14.733;  -34.933;    0.000;20.20000
 474.74;  -25.867;  -51.200;    0.000;25.33333
 475.02;   -8.400;  -40.000;    0.000;31.60000
 475.31;    0.133;  -19.600;    0.000;19.73333
 475.60;   -5.667;  -20.467;    0.000;14.80000
 475.88;   -0.333;   -9.600;    0.000; 9.26667
 476.17;   -3.400;  -17.333;    0.000;13.93333
 476.46;    0.067;  -36.067;    0.000;36.13333
 476.74;  -23.133;  -37.400;    0.000;14.26667
 477.03;  -22.067;  -50.200;    0.000;28.13333
 477.32;  -11.600;  -22.667;    0.000;11.06667
 477.60;  -11.800;  -24.867;    0.000;13.06667
 477.89;  -10.000;  -12.267;    0.000; 2.26667
 478.18;  -10.067;  -28.733;    0.000;18.66667
 478.46;   -7.000;  -38.933;    0.000;31.93333
 478.75;   -9.800;  -35.333;    0.000;25.53333
 479.03;  -18.733;  -31.000;    0.000;12.26667
 479.32;    0.667;  -24.933;    0.000;25.60000
 479.61;  -13.667;  -35.800;    0.000;22.13333
 479.89;  -10.667;  -24.467;    0.000;13.80000
 480.18;   -9.333;  -41.600;    0.000;32.26667
 480.47;  -11.333;  -44.600;    0.000;33.26667
 480.75;  -21.467;  -37.467;    0.000;16.00000
 481.04;   -1.267;  -20.600;    0.000;19.33333
 481.33;    5.133;  -20.467;    0.000;25.60000
 481.61;   13.667;  -20.867;    0.000;34.53333
 481.90;  -39.667;  -49.200;    0.000; 9.53333
 482.18;   17.267;  -24.467;    0.000;41.73333
 482.47;    2.067;  -17.133;    0.000;19.20000
 482.76;   -9.067;  -34.867;    0.000;25.80000
 483.04;  -30.933;  -37.733;    0.000; 6.80000
 483.33;  -22.933;  -41.200;    0.000;18.26667
 483.61;  -25.400;  -30.667;    0.000; 5.26667
 483.90;  -13.467;  -13.133;    0.000;-0.33333
 484.19;  -20.467;  -46.667;    0.000;26.20000
 484.47;   -7.000;  -27.600;    0.000;20.60000
 484.76;  -25.600;  -50.000;    0.000;24.40000
 485.05;    0.333;  -25.133;    0.000;25.46667
 485.33;  -11.867;  -23.133;    0.000;11.26667
 485.62;   -4.467;  -36.200;    0.000;31.73333
 485.90;   -4.133;  -29.467;    0.000;25.33333
 486.19;    0.200;  -48.067;    0.000;48.26667
 486.47;   11.467;   -8.467;    0.000;19.93333
 486.76;   -6.733;  -12.867;    0.000; 6.13333
 487.05;    7.200;  -10.533;    0.000;17.73333
 487.33;   -3.000;  -28.133;    0.000;25.13333
 487.62;    0.200;  -38.600;    0.000;38.80000
 487.90;    3.800;  -26.000;    0.000;29.80000
 488.19;    4.667;  -22.000;    0.000;26.66667
 488.47;   30.133;  -30.067;    0.000;60.20000
 488.76;    0.533;  -23.933;    0.000;24.46667
 489.05;   17.400;  -30.933;    0.000;48.33333
 489.33;  -12.867;  -29.600;    0.000;16.73333
 489.62;   15.000;  -13.600;    0.000;28.60000
 489.90;  -10.067;  -62.933;    0.000;52.86667
 490.19;    0.400;  -33.333;    0.000;33.73333
 490.47;   23.933;  -27.400;    0.000;51.33333
 490.76;    0.800;  -38.067;    0.000;38.86667
 491.05;   33.867;  -18.533;    0.000;52.40000
 491.33;   45.867;  -30.133;    0.000;76.00000
 491.62;   28.067;  -42.267;    0.000;70.33333
 491.90;   42.067;  -43.600;    0.000;85.66666
 492.19;   31.000;  -41.200;    0.000;72.20000
 492.47;   33.000;  -40.200;    0.000;73.20000
 492.76;   43.267;  -43.800;    0.000;87.06667
 493.04;   79.133;  -19.733;    0.000;98.86666
 493.33;   61.933;  -50.800;    0.000;112.73333
 493.61;  104.733;  -34.933;    0.000;139.66666
 493.90;  101.467;  -25.667;    0.000;127.13333
 494.18;  121.533;  -17.133;    0.000;138.66667
 494.47;  132.067;  -25.800;    0.000;157.86666
 494.75;  139.667;  -54.467;    0.000;194.13334
 495.04;  161.667;  -33.867;    0.000;195.53334
 495.32;  195.800;  -31.133;    0.000;226.93334
 495.61;  168.200;  -24.800;    0.000;193.00000
 495.89;  218.333;  -18.000;    0.000;236.33333
 496.18;  232.400;  -23.000;    0.000;255.39999
 496.46;  263.800;  -35.133;    0.000;298.93332
 496.75;  280.800;  -19.600;    0.000;300.39999
 497.03;  300.333;  -40.267;    0.000;340.60001
 497.32;  349.867;  -36.200;    0.000;386.06667
 497.60;  366.600;  -44.267;    0.000;410.86667
 497.89;  398.067;  -23.733;    0.000;421.80001
 498.17;  465.267;  -31.400;    0.000;496.66666
 498.46;  472.867;  -47.000;    0.000;519.86667
 498.74;  520.800;  -27.067;    0.000;547.86666
 499.03;  563.733;  -32.533;    0.000;596.26667
 499.31;  595.200;  -44.867;    0.000;640.06668
 499.60;  668.133;  -23.067;    0.000;691.20003
 499.88;  716.267;  -20.667;    0.000;736.93333
 500.17;  709.800;  -51.067;    0.000;760.86665
 500.45;  802.000;  -29.733;    0.000;831.73333
 500.74;  842.933;  -30.800;    0.000;873.73335
 501.02;  899.933;  -25.933;    0.000;925.86668
 501.31;  949.067;  -39.333;    0.000;988.39998
 501.59; 1026.133;  -36.867;    0.000;1062.99997
 501.88; 1102.133;  -34.667;    0.000;1136.79997
 502.16; 1164.667;  -35.000;    0.000;1199.66663
 502.45; 1211.267;  -40.867;    0.000;1252.13339
 502.73; 1292.667;  -39.067;    0.000;1331.73329
 503.01; 1345.000;  -44.467;    0.000;1389.46667
 503.30; 1397.267;  -59.600;    0.000;1456.86672
 503.58; 1493.400;  -49.400;    0.000;1542.80003
 503.87; 1578.467;  -34.067;    0.000;1612.53334
 504.15; 1640.667;  -41.800;    0.000;1682.46663
 504.44; 1774.067;  -18.467;    0.000;1792.53332
 504.72; 1844.267;  -21.733;    0.000;1866.00006
 505.00; 1990.067;  -35.133;    0.000;2025.19999
 505.29; 2019.133;  -14.533;    0.000;2033.66663
 505.57; 2066.733;  -49.933;    0.000;2116.66673
 505.86; 2173.200;  -44.600;    0.000;2217.79995
 506.14; 2281.333;  -40.200;    0.000;2321.53325
 506.43; 2365.267;  -35.333;    0.000;2400.59993
 506.71; 2480.800;  -43.133;    0.000;2523.93338
 506.99; 2557.067;  -42.333;    0.000;2599.39998
 507.28; 2704.000;  -26.133;    0.000;2730.13333
 507.56; 2816.400;  -49.667;    0.000;2866.06657
 507.85; 2877.067;  -50.800;    0.000;2927.86665
 508.13; 3030.200;  -22.267;    0.000;3052.46662
 508.41; 3062.933;  -12.267;    0.000;3075.20002
 508.70; 3160.200;  -50.600;    0.000;3210.79995
 508.98; 3308.133;  -39.800;    0.000;3347.93330
 509.27; 3378.867;  -45.133;    0.000;3424.00003
 509.55; 3488.133;  -30.800;    0.000;3518.93330
 509.83; 3613.000;  -58.933;    0.000;3671.93333
 510.12; 3753.867;  -33.400;    0.000;3787.26670
 510.40; 3880.200;  -29.067;    0.000;3909.26662
 510.69; 3943.067;  -52.733;    0.000;3995.79998
 510.97; 3977.533;  -30.667;    0.000;4008.20011
 511.25; 4172.600;  -52.733;    0.000;4225.33343
 511.54; 4288.000;  -27.200;    0.000;4315.20000
 511.82; 4428.067;  -22.933;    0.000;4451.00023
 512.11; 4577.933;  -27.267;    0.000;4605.19977
 512.39; 4617.533;  -34.667;    0.000;4652.19987
 512.67; 4708.933;  -39.467;    0.000;4748.39977
 512.96; 4877.600;  -42.467;    0.000;4920.06676
 513.24; 4955.333;  -19.667;    0.000;4975.00016
 513.52; 5145.800;  -25.000;    0.000;5170.79980
 513.81; 5175.467;  -16.333;    0.000;5191.80013
 514.09; 5256.933;  -49.200;    0.000;5306.13311
 514.37; 5390.333;  -48.600;    0.000;5438.93349
 514.66; 5480.800;  -24.933;    0.000;5505.73314
 514.94; 5630.333;  -41.200;    0.000;5671.53350
 515.22; 5733.267;  -49.467;    0.000;5782.73327
 515.51; 5795.933;  -42.133;    0.000;5838.06644
 515.79; 5893.533;  -32.133;    0.000;5925.66654
 516.07; 6107.267;  -47.067;    0.000;6154.33327
 516.36; 6126.200;  -47.133;    0.000;6173.33353
 516.64; 6257.267;  -31.267;    0.000;6288.53327
 516.92; 6353.267;  -49.200;    0.000;6402.46660
 517.21; 6511.933;  -51.733;    0.000;6563.66644
 517.49; 6704.667;  -44.400;    0.000;6749.06651
 517.77; 6778.533;  -31.467;    0.000;6809.99987
 518.06; 6909.200;  -55.133;    0.000;6964.33353
 518.34; 7058.933;  -33.400;    0.000;7092.33311
 518.62; 7143.400;  -27.667;    0.000;7171.06657
 518.91; 7390.733;  133.400;    0.000;7257.33340
 519.19; 7300.067;  -33.800;    0.000;7333.86689
 519.47; 7418.200;  -37.467;    0.000;7455.66686
 519.76; 7488.867;  -26.400;    0.000;7515.26670
 520.04; 7599.200;  -33.667;    0.000;7632.86686
 520.32; 7778.533;  -25.733;    0.000;7804.26654
 520.61; 7795.067;   -7.133;    0.000;7802.20023
 520.89; 7906.533;  -61.200;    0.000;7967.73320
 521.17; 8048.600;  -36.600;    0.000;8085.20010
 521.45; 8123.600;  -31.600;    0.000;8155.20010
 521.74; 8154.333;  -36.467;    0.000;8190.80016
 522.02; 8272.667;  -27.533;    0.000;8300.20033
 522.30; 8354.934;  -39.133;    0.000;8394.06693
 522.59; 8510.134;  -28.133;    0.000;8538.26712
 522.87; 8574.934;  -28.400;    0.000;8603.33359
 523.15; 8661.600;  -29.667;    0.000;8691.26628
 523.43; 8720.000;  -45.733;    0.000;8765.73333
 523.72; 8800.600;  -41.600;    0.000;8842.19961
 524.00; 8963.667;  -31.400;    0.000;8995.06699
 524.28; 8983.800;  -31.600;    0.000;9015.39981
 524.57; 9069.733;  -36.933;    0.000;9106.66673
 524.85; 9111.533;  -43.067;    0.000;9154.59987
 525.13; 9206.733;  -30.600;    0.000;9237.33340
 525.41; 9321.000;  -38.067;    0.000;9359.06667
 525.70; 9366.667;  -50.533;    0.000;9417.20033
 525.98; 9521.200;  -41.467;    0.000;9562.66686
 526.26; 9586.333;  -49.400;    0.000;9635.73301
 526.54; 9575.400;  -33.533;    0.000;9608.93372
 526.83; 9693.267;  -51.067;    0.000;9744.33327
 527.11; 9751.866;  -16.933;    0.000;9768.79954
 527.39; 9875.667;  -44.933;    0.000;9920.60033
 527.67; 9904.533;  -25.333;    0.000;9929.86654
 527.96;10044.866;  -69.067;    0.000;10113.93288
 528.24;10018.333;  -43.133;    0.000;10061.46634
 528.52;10125.066;  -54.933;    0.000;10179.99974
 528.80;10223.800;  -11.867;    0.000;10235.66647
 529.08;10328.800;  -60.400;    0.000;10389.19981
 529.37;10399.733;  -49.400;    0.000;10449.13340
 529.65;10448.134;  -36.200;    0.000;10484.33379
 529.93;10527.667;  -39.000;    0.000;10566.66699
 530.21;10593.934;  -46.200;    0.000;10640.13359
 530.50;10641.667;  -26.733;    0.000;10668.40033
 530.78;10607.000;  -24.200;    0.000;10631.20000
 531.06;10786.800;  -30.133;    0.000;10816.93314
 531.34;10794.400;  -46.800;    0.000;10841.20039
 531.62;10725.400;  -52.800;    0.000;10778.20039
 531.91;10804.600;  -58.200;    0.000;10862.79961
 532.19;10988.733;  -44.400;    0.000;11033.13340
 532.47;11056.000;  -45.000;    0.000;11101.00000
 532.75;11102.600;  -15.600;    0.000;11118.19961
 533.03;11139.934;   -3.000;    0.000;11142.93359
 533.32;11152.200;  -58.533;    0.000;11210.73353
 533.60;11298.800;  -32.133;    0.000;11330.93314
 533.88;11258.733;  -22.333;    0.000;11281.06673
 534.16;11314.333;  -56.200;    0.000;11370.53301
 534.44;11381.733;  -27.333;    0.000;11409.06673
 534.72;11469.866;  -50.733;    0.000;11520.59954
 535.01;11525.866;  -48.200;    0.000;11574.06621
 535.29;11627.934;  -54.267;    0.000;11682.20026
 535.57;11632.267;  -39.200;    0.000;11671.46660
 535.85;11673.667;  -47.467;    0.000;11721.13366
 536.13;11738.333;  -47.733;    0.000;11786.06634
 536.42;11839.267;  -49.800;    0.000;11889.06660
 536.70;11857.400;  -43.133;    0.000;11900.53373
 536.98;11990.934;  -33.400;    0.000;12024.33360
 537.26;11931.134;  -38.267;    0.000;11969.40046
 537.54;11926.333;  -44.133;    0.000;11970.46634
 537.82;12027.733;  -15.067;    0.000;12042.80007
 538.10;12109.267;  -58.400;    0.000;12167.66660
 538.39;12166.333;  -35.933;    0.000;12202.26634
 538.67;12178.866;  -62.267;    0.000;12241.13288
 538.95;12267.733;  -45.600;    0.000;12313.33340
 539.23;12316.134;  -34.933;    0.000;12351.06712
 539.51;12309.533;  -33.867;    0.000;12343.39987
 539.79;12473.934;  -47.133;    0.000;12521.06693
 540.07;12349.200;  -70.867;    0.000;12420.06686
 540.36;12429.066;  -47.867;    0.000;12476.93307
 540.64;12428.134;  -47.933;    0.000;12476.06712
 540.92;12377.134;  -53.667;    0.000;12430.80046
 541.20;12453.667;  -43.933;    0.000;12497.60033
 541.48;12645.000;  -28.600;    0.000;12673.60000
 541.76;12701.866;  -50.267;    0.000;12752.13288
 542.04;12719.134;  -47.067;    0.000;12766.20045
 542.32;12756.800;  -43.800;    0.000;12800.59980
 542.61;12814.200;  -39.733;    0.000;12853.93353
 542.89;12851.066;  -25.600;    0.000;12876.66641
 543.17;12711.400;  -46.400;    0.000;12757.80039
 543.45;12819.866;  -40.533;    0.000;12860.39954
 543.73;12950.934;  -38.933;    0.000;12989.86693
 544.01;12909.600;  -42.533;    0.000;12952.13294
 544.29;12896.667;  -22.333;    0.000;12919.00033
 544.57;13084.000;  -49.467;    0.000;13133.46667
 544.85;12935.400;  -34.467;    0.000;12969.86706
 545.13;12953.800;  -33.133;    0.000;12986.93314
 545.42;13086.600;  -44.400;    0.000;13130.99961
 545.70;13119.467;  -41.400;    0.000;13160.86680
 545.98;13105.000;  -42.400;    0.000;13147.40000
 546.26;13112.667;  -39.733;    0.000;13152.40033
 546.54;13187.667;  -69.933;    0.000;13257.60033
 546.82;13159.800;  -29.933;    0.000;13189.73314
 547.10;13161.134;  -18.200;    0.000;13179.33379
 547.38;13316.066;  -51.067;    0.000;13367.13307
 547.66;13308.066;  -39.933;    0.000;13347.99974
 547.94;13284.200;  -43.067;    0.000;13327.26686
 548.22;13306.533;  -49.733;    0.000;13356.26654
 548.50;13298.866;  -64.867;    0.000;13363.73288
 548.78;13287.400;  -52.200;    0.000;13339.60039
 549.06;13356.333;  -33.933;    0.000;13390.26634
 549.34;13270.467;  -51.333;    0.000;13321.80013
 549.63;13451.800;   -1.400;    0.000;13453.19980
 549.91;13437.866;  -31.133;    0.000;13468.99954
 550.19;13496.200;  -46.067;    0.000;13542.26686
 550.47;13464.934;  -48.800;    0.000;13513.73359
 550.75;13448.267;  -57.000;    0.000;13505.26660
 551.03;13452.066;  -62.667;    0.000;13514.73307
 551.31;13497.667;  -48.467;    0.000;13546.13366
 551.59;13466.733;  -48.467;    0.000;13515.20007
 551.87;13537.134;  -33.267;    0.000;13570.40046
 552.15;13563.733;  -41.867;    0.000;13605.60006
 552.43;13608.066;  -26.733;    0.000;13634.79974
 552.71;13527.134;  -38.733;    0.000;13565.86712
 552.99;13473.200;  -46.133;    0.000;13519.33353
 553.27;13477.667;  -58.933;    0.000;13536.60033
 553.55;13556.400;  -44.667;    0.000;13601.06706
 553.83;13600.000;  -47.267;    0.000;13647.26667
 554.11;13619.467;  -27.600;    0.000;13647.06680
 554.39;13704.733;  -43.667;    0.000;13748.40007
 554.67;13614.533;  -51.133;    0.000;13665.66654
 554.95;13578.934;  -18.400;    0.000;13597.33359
 555.23;13597.000;  -22.667;    0.000;13619.66667
 555.51;13634.267;  -50.933;    0.000;13685.19994
 555.79;13604.400;  -52.467;    0.000;13656.86706
 556.07;13621.400;  -46.467;    0.000;13667.86706
 556.35;13608.000;  -48.000;    0.000;13656.00000
 556.63;13587.134;  -47.600;    0.000;13634.73379
 556.91;13595.600;  -20.067;    0.000;13615.66628
 557.19;13547.333;  -47.867;    0.000;13595.19967
 557.47;13680.200;  -46.000;    0.000;13726.20020
 557.75;13535.533;  -37.400;    0.000;13572.93320
 558.03;13487.066;  -32.000;    0.000;13519.06641
 558.31;13571.800;  -64.933;    0.000;13636.73314
 558.59;13631.866;  -41.000;    0.000;13672.86621
 558.87;13621.333;  -30.867;    0.000;13652.19967
 559.15;13626.934;  -41.267;    0.000;13668.20026
 559.43;13662.134;  -37.733;    0.000;13699.86712
 559.71;13713.667;  -31.333;    0.000;13745.00033
 559.99;13624.267;  -56.400;    0.000;13680.66660
 560.27;13534.600;  -28.600;    0.000;13563.19961
 560.55;13579.934;  -36.933;    0.000;13616.86693
 560.82;13659.600;  -45.533;    0.000;13705.13294
 561.10;13638.800;  -30.467;    0.000;13669.26647
 561.38;13673.200;  -24.133;    0.000;13697.33353
 561.66;13596.533;   -8.267;    0.000;13604.79987
 561.94;13522.800;  -53.200;    0.000;13575.99981
 562.22;13530.533;  -45.467;    0.000;13575.99987
 562.50;13545.733;  -32.200;    0.000;13577.93340
 562.78;13586.467;  -41.333;    0.000;13627.80013
 563.06;13497.134;  -30.467;    0.000;13527.60046
 563.34;13480.400;  -41.667;    0.000;13522.06706
 563.62;13498.000;  -47.800;    0.000;13545.80000
 563.90;13455.400;  -54.600;    0.000;13510.00039
 564.18;13388.400;  -47.667;    0.000;13436.06706
 564.46;13397.200;  -52.467;    0.000;13449.66686
 564.74;13358.200;  -35.667;    0.000;13393.86686
 565.01;13404.267;  -36.667;    0.000;13440.93327
 565.29;13396.467;  -46.400;    0.000;13442.86680
 565.57;13196.800;  -50.533;    0.000;13247.33314
 565.85;13319.934;  -30.133;    0.000;13350.06693
 566.13;13330.934;  -59.733;    0.000;13390.66693
 566.41;13332.600;  -23.467;    0.000;13356.06628
 566.69;13245.066;  -55.267;    0.000;13300.33307
 566.97;13234.800;  -40.400;    0.000;13275.19981
 567.25;13182.066;  -30.600;    0.000;13212.66641
 567.53;13162.866;  -44.467;    0.000;13207.33288
 567.80;13151.733;  -35.733;    0.000;13187.46673
 568.08;13072.800;  -55.067;    0.000;13127.86647
 568.36;13209.467;  -41.000;    0.000;13250.46680
 568.64;13048.934;  -62.133;    0.000;13111.06693
 568.92;13167.934;  -45.667;    0.000;13213.60026
 569.20;12955.000;  -59.867;    0.000;13014.86666
 569.48;12927.066;  -47.400;    0.000;12974.46641
 569.76;13045.000;  -53.467;    0.000;13098.46667
 570.03;12916.134;  -36.067;    0.000;12952.20045
 570.31;12832.533;  -40.467;    0.000;12872.99987
 570.59;12867.066;  -59.000;    0.000;12926.06641
 570.87;12834.267;  -32.200;    0.000;12866.46660
 571.15;12778.533;  -43.200;    0.000;12821.73320
 571.43;12669.934;  -43.600;    0.000;12713.53359
 571.71;12737.667;  -53.333;    0.000;12791.00032
 571.98;12742.600;  -40.733;    0.000;12783.33294
 572.26;12622.066;  -40.200;    0.000;12662.26641
 572.54;12625.533;  -45.133;    0.000;12670.66654
 572.82;12678.733;  -56.000;    0.000;12734.73340
 573.10;12655.333;  -50.333;    0.000;12705.66634
 573.38;12472.667;  -58.133;    0.000;12530.80033
 573.66;12503.400;  -55.667;    0.000;12559.06706
 573.93;12432.667;  -48.200;    0.000;12480.86699
 574.21;12407.934;  -64.400;    0.000;12472.33360
 574.49;12350.333;  -34.467;    0.000;12384.79967
 574.77;12363.467;  -52.200;    0.000;12415.66680
 575.05;12316.200;  -46.000;    0.000;12362.20020
 575.33;12291.800;  -49.867;    0.000;12341.66647
 575.60;12313.467;  -36.933;    0.000;12350.40013
 575.88;12152.400;  -40.533;    0.000;12192.93372
 576.16;12132.467;  -41.600;    0.000;12174.06680
 576.44;12140.000;  -46.467;    0.000;12186.46667
 576.72;11996.333;  -54.000;    0.000;12050.33301
 576.99;12069.066;  -56.467;    0.000;12125.53307
 577.27;11978.400;  -38.400;    0.000;12016.80039
 577.55;11963.134;  -17.733;    0.000;11980.86712
 577.83;11910.866;  -50.533;    0.000;11961.39954
 578.11;11786.733;  -46.400;    0.000;11833.13340
 578.38;11824.267;  -27.333;    0.000;11851.59994
 578.66;11864.934;  -54.000;    0.000;11918.93359
 578.94;11684.533;  -55.333;    0.000;11739.86654
 579.22;11702.733;  -63.933;    0.000;11766.66673
 579.50;11635.000;  -42.933;    0.000;11677.93333
 579.77;11614.267;  -51.867;    0.000;11666.13327
 580.05;11582.000;  -58.333;    0.000;11640.33333
 580.33;11510.066;  -51.667;    0.000;11561.73307
 580.61;11357.866;  -33.533;    0.000;11391.39954
 580.88;11342.800;  -45.400;    0.000;11388.19981
 581.16;11362.267;  -49.267;    0.000;11411.53327
 581.44;11199.066;  -42.933;    0.000;11241.99974
 581.72;11257.467;  -44.000;    0.000;11301.46680
 581.99;11170.733;  -30.733;    0.000;11201.46673
 582.27;11093.600;  -58.600;    0.000;11152.19961
 582.55;11172.000;  -53.867;    0.000;11225.86666
 582.83;11115.134;  -47.667;    0.000;11162.80046
 583.10;11060.333;  -43.867;    0.000;11104.19967
 583.38;10958.533;  -44.133;    0.000;11002.66654
 583.66;10922.667;  -44.333;    0.000;10967.00032
 583.94;10881.800;  -57.467;    0.000;10939.26647
 584.21;10787.134;  -49.533;    0.000;10836.66712
 584.49;10721.667;  -43.933;    0.000;10765.60033
 584.77;10627.667;  -68.467;    0.000;10696.13366
 585.05;10548.333;  -60.467;    0.000;10608.79967
 585.32;10569.934;  -40.000;    0.000;10609.93359
 585.60;10511.667;  -60.867;    0.000;10572.53366
 585.88;10462.800;  -49.667;    0.000;10512.46647
 586.16;10495.000;  -27.000;    0.000;10522.00000
 586.43;10382.800;  -29.867;    0.000;10412.66647
 586.71;10244.134;  -38.533;    0.000;10282.66712
 586.99;10229.333;  -59.400;    0.000;10288.73301
 587.26;10187.934;  -46.200;    0.000;10234.13359
 587.54;10211.733;  -30.133;    0.000;10241.86673
 587.82;10112.934;  -41.333;    0.000;10154.26693
 588.10;10109.267;  -44.600;    0.000;10153.86660
 588.37; 9932.134;  -53.467;    0.000;9985.60046
 588.65; 9940.400;  -61.533;    0.000;10001.93372
 588.93; 9897.733;  -36.067;    0.000;9933.80006
 589.20; 9760.066;  -50.267;    0.000;9810.33307
 589.48; 9779.467;  -35.533;    0.000;9815.00013
 589.76; 9673.400;   -4.467;    0.000;9677.86706
 590.03; 9560.134;  -52.733;    0.000;9612.86712
 590.31; 9547.400;  -28.667;    0.000;9576.06706
 590.59; 9549.934;  -41.133;    0.000;9591.06693
 590.86; 9396.667;  -29.067;    0.000;9425.73366
 591.14; 9455.200;  -45.933;    0.000;9501.13353
 591.42; 9375.467;  -52.133;    0.000;9427.60013
 591.70; 9339.600;  -44.600;    0.000;9384.19961
 591.97; 9258.733;  -44.600;    0.000;9303.33340
 592.25; 9106.134;  -45.200;    0.000;9151.33379
 592.53; 9122.200;  -60.933;    0.000;9183.13353
 592.80; 9084.667;  -41.200;    0.000;9125.86699
 593.08; 9045.400;  -44.333;    0.000;9089.73372
 593.36; 8935.800;  -20.267;    0.000;8956.06647
 593.63; 8887.600;  -32.467;    0.000;8920.06628
 593.91; 8893.733;  -52.000;    0.000;8945.73340
 594.18; 8885.866;  -35.933;    0.000;8921.79955
 594.46; 8684.533;  -57.000;    0.000;8741.53320
 594.74; 8692.934;  -52.533;    0.000;8745.46693
 595.01; 8565.934;  -54.200;    0.000;8620.13359
 595.29; 8511.267;  -67.800;    0.000;8579.06660
 595.57; 8455.733;  -28.333;    0.000;8484.06673
 595.84; 8460.600;  -52.200;    0.000;8512.79961
 596.12; 8365.400;  -52.133;    0.000;8417.53373
 596.40; 8313.533;  -60.533;    0.000;8374.06654
 596.67; 8228.667;  -62.067;    0.000;8290.73366
 596.95; 8237.467;  -44.533;    0.000;8282.00013
 597.22; 8085.133;  -66.667;    0.000;8151.79996
 597.50; 8114.067;  -37.333;    0.000;8151.40023
 597.78; 7986.533;  -55.333;    0.000;8041.86654
 598.05; 8058.733;  -61.667;    0.000;8120.40007
 598.33; 7907.600;  -57.667;    0.000;7965.26677
 598.61; 7853.533;  -50.400;    0.000;7903.93320
 598.88; 7851.267;  -57.200;    0.000;7908.46660
 599.16; 7724.333;  -46.267;    0.000;7770.60016
 599.43; 7731.333;  -60.200;    0.000;7791.53350
 599.71; 7634.800;  -32.400;    0.000;7667.19981
 599.99; 7523.533;  -57.067;    0.000;7580.59987
 600.26; 7492.600;  -44.667;    0.000;7537.26677
 600.54; 7508.533;  -39.533;    0.000;7548.06654
 600.81; 7450.133;  -36.067;    0.000;7486.19997
 601.09; 7292.867;  -54.600;    0.000;7347.46670
 601.36; 7291.000;  -47.667;    0.000;7338.66667
 601.64; 7300.800;  -56.933;    0.000;7357.73314
 601.92; 7235.333;  -45.133;    0.000;7280.46683
 602.19; 7130.933;  -61.600;    0.000;7192.53310
 602.47; 7028.600;  -68.800;    0.000;7097.40010
 602.74; 7055.667;  -45.267;    0.000;7100.93317
 603.02; 7001.667;  -46.200;    0.000;7047.86650
 603.29; 6936.667;  -53.800;    0.000;6990.46650
 603.57; 6913.000;  -52.000;    0.000;6965.00000
 603.85; 6829.333;  -45.133;    0.000;6874.46683
 604.12; 6901.867;  -16.800;    0.000;6918.66670
 604.40; 6778.067;  -63.733;    0.000;6841.80023
 604.67; 6803.800;  -38.200;    0.000;6841.99981
 604.95; 6664.133;  -66.400;    0.000;6730.53330
 605.22; 6649.933;  -51.200;    0.000;6701.13311
 605.50; 6577.533;  -50.800;    0.000;6628.33320
 605.77; 6547.533;  -56.467;    0.000;6603.99987
 606.05; 6509.867;  -48.867;    0.000;6558.73336
 606.33; 6413.133;  -41.200;    0.000;6454.33330
 606.60; 6444.267;  -58.800;    0.000;6503.06660
 606.88; 6397.933;  -28.000;    0.000;6425.93311
 607.15; 6306.800;  -54.267;    0.000;6361.06647
 607.43; 6307.267;  -55.000;    0.000;6362.26660
 607.70; 6293.200;  -46.533;    0.000;6339.73353
 607.98; 6162.867;  -42.733;    0.000;6205.60003
 608.25; 6095.933;  -61.467;    0.000;6157.39977
 608.53; 6144.867;  -62.467;    0.000;6207.33337
 608.80; 6130.200;  -40.600;    0.000;6170.80019
 609.08; 6048.067;  -51.867;    0.000;6099.93356
 609.35; 6041.800;  -55.867;    0.000;6097.66647
 609.63; 6014.933;  -57.867;    0.000;6072.79977
 609.90; 5918.067;  -50.733;    0.000;5968.80023
 610.18; 5948.133;  -21.733;    0.000;5969.86663
 610.45; 5854.000;  -67.667;    0.000;5921.66666
 610.73; 5909.400;  -59.267;    0.000;5968.66657
 611.00; 5908.400;  -33.400;    0.000;5941.79990
 611.28; 5824.000;  -66.333;    0.000;5890.33334
 611.55; 5804.667;  -73.333;    0.000;5877.99984
 611.83; 5709.933;  -48.933;    0.000;5758.86644
 612.10; 5686.733;  -56.133;    0.000;5742.86673
 612.38; 5633.333;  -43.933;    0.000;5677.26683
 612.65; 5594.067;  -47.200;    0.000;5641.26690
 612.93; 5550.867;  -68.533;    0.000;5619.40003
 613.20; 5518.467;  -42.467;    0.000;5560.93346
 613.48; 5457.400;  -47.333;    0.000;5504.73323
 613.75; 5467.667;  -68.333;    0.000;5535.99984
 614.03; 5489.667;  -38.000;    0.000;5527.66650
 614.30; 5431.467;  -69.600;    0.000;5501.06680
 614.57; 5454.200;  -66.133;    0.000;5520.33353
 614.85; 5445.867;  -49.667;    0.000;5495.53337
 615.12; 5374.133;  -45.133;    0.000;5419.26664
 615.40; 5310.400;  -61.067;    0.000;5371.46657
 615.67; 5217.000;  -53.733;    0.000;5270.73333
 615.95; 5240.533;  -57.467;    0.000;5297.99987
 616.22; 5243.800;  -71.000;    0.000;5314.79980
 616.50; 5194.667;  -35.600;    0.000;5230.26650
 616.77; 5123.467;  -52.200;    0.000;5175.66680
 617.05; 5137.067;  -34.267;    0.000;5171.33356
 617.32; 5098.000;  -61.267;    0.000;5159.26667
 617.59; 4985.000;  -49.067;    0.000;5034.06667
 617.87; 5018.067;  -41.067;    0.000;5059.13356
 618.14; 4977.800;  -66.933;    0.000;5044.73314
 618.42; 4922.667;  -60.933;    0.000;4983.59984
 618.69; 4728.800;  -61.667;    0.000;4790.46647
 618.97; 4779.067;  -61.133;    0.000;4840.20023
 619.24; 4726.067;  -53.133;    0.000;4779.20023
 619.51; 4725.067;  -44.333;    0.000;4769.40023
 619.79; 4587.333;  -50.000;    0.000;4637.33350
 620.06; 4525.200;  -48.400;    0.000;4573.60020
 620.34; 4451.400;  -53.133;    0.000;4504.53324
 620.61; 4420.000;  -32.667;    0.000;4452.66667
 620.88; 4413.667;  -44.667;    0.000;4458.33317
 621.16; 4417.600;  -53.467;    0.000;4471.06676
 621.43; 4509.933;  -57.133;    0.000;4567.06644
 621.71; 4482.333;  -48.933;    0.000;4531.26683
 621.98; 4386.800;  -49.467;    0.000;4436.26647
 622.25; 4433.667;  -64.133;    0.000;4497.79984
 622.53; 4331.933;  -65.800;    0.000;4397.73311
 622.80; 4317.200;  -55.600;    0.000;4372.80019
 623.08; 4289.400;  -65.867;    0.000;4355.26657
 623.35; 4274.533;  -56.267;    0.000;4330.79987
 623.62; 4167.933;  -62.133;    0.000;4230.06644
 623.90; 4198.600;  -55.400;    0.000;4254.00010
 624.17; 4164.200;  -43.733;    0.000;4207.93353
 624.44; 4207.933;  -58.867;    0.000;4266.79977
 624.72; 4048.067;  -69.467;    0.000;4117.53332
 624.99; 4081.800;  -61.333;    0.000;4143.13338
 625.26; 4082.867;  -67.067;    0.000;4149.93336
 625.54; 4073.333;  -29.267;    0.000;4102.59992
 625.81; 4114.267;  -64.000;    0.000;4178.26660
 626.09; 4129.133;  -62.933;    0.000;4192.06664
 626.36; 4075.933;  -70.600;    0.000;4146.53335
 626.63; 4039.200;  -53.000;    0.000;4092.19995
 626.91; 3976.467;  -52.067;    0.000;4028.53322
 627.18; 4042.067;  -59.067;    0.000;4101.13332
 627.45; 3928.200;  -46.800;    0.000;3974.99995
 627.73; 3996.800;  -47.400;    0.000;4044.20005
 628.00; 3974.400;  -66.067;    0.000;4040.46657
 628.27; 3965.733;  -39.600;    0.000;4005.33340
 628.55; 3934.667;  -52.800;    0.000;3987.46675
 628.82; 3946.667;  -58.067;    0.000;4004.73341
 629.09; 3951.467;  -48.733;    0.000;4000.19989
 629.37; 3901.000;  -68.800;    0.000;3969.80000
 629.64; 3809.267;  -37.267;    0.000;3846.53327
 629.91; 3830.800;  -65.733;    0.000;3896.53338
 630.18; 3848.733;  -57.933;    0.000;3906.66673
 630.46; 3872.133;  -53.867;    0.000;3925.99997
 630.73; 3805.067;  -46.667;    0.000;3851.73332
 631.00; 3914.133;  -66.467;    0.000;3980.59997
 631.28; 3722.667;  -48.667;    0.000;3771.33342
 631.55; 3767.133;  -51.733;    0.000;3818.86663
 631.82; 3780.067;  -45.400;    0.000;3825.46665
 632.10; 3715.733;  -42.867;    0.000;3758.60006
 632.37; 3697.933;  -63.133;    0.000;3761.06668
 632.64; 3692.000;  -28.933;    0.000;3720.93333
 632.91; 3730.800;  -36.267;    0.000;3767.06672
 633.19; 3679.333;  -55.333;    0.000;3734.66658
 633.46; 3636.867;  -58.533;    0.000;3695.40003
 633.73; 3621.400;  -28.733;    0.000;3650.13324
 634.01; 3649.533;  -40.533;    0.000;3690.06678
 634.28; 3664.333;  -38.333;    0.000;3702.66658
 634.55; 3691.200;  -20.267;    0.000;3711.46662
 634.82; 3703.200;  -45.800;    0.000;3748.99995
 635.10; 3600.400;  -47.867;    0.000;3648.26657
 635.37; 3679.000;  -51.533;    0.000;3730.53333
 635.64; 3681.133;  -44.733;    0.000;3725.86663
 635.91; 3661.600;  -60.533;    0.000;3722.13343
 636.19; 3659.067;  -63.600;    0.000;3722.66665
 636.46; 3632.467;  -56.267;    0.000;3688.73322
 636.73; 3725.733;  -37.133;    0.000;3762.86673
 637.00; 3709.400;  -78.067;    0.000;3787.46657
 637.28; 3670.533;  -66.067;    0.000;3736.60011
 637.55; 3687.933;  -37.133;    0.000;3725.06668
 637.82; 3630.200;  -42.200;    0.000;3672.39995
 638.09; 3605.733;  -55.867;    0.000;3661.60006
 638.37; 3467.600;  -75.600;    0.000;3543.20010
 638.64; 3533.667;  -72.800;    0.000;3606.46675
 638.91; 3533.867;  -53.333;    0.000;3587.20003
 639.18; 3532.600;  -51.467;    0.000;3584.06676
 639.46; 3444.733;  -58.067;    0.000;3502.80006
 639.73; 3432.733;  -59.867;    0.000;3492.60006
 640.00; 3380.600;  -62.733;    0.000;3443.33343
 640.27; 3430.800;  -56.000;    0.000;3486.80005
 640.54; 3339.533;  -49.067;    0.000;3388.60011
 640.82; 3359.133;  -56.000;    0.000;3415.13330
 641.09; 3374.600;  -57.867;    0.000;3432.46676
 641.36; 3299.933;  -75.733;    0.000;3375.66668
 641.63; 3254.600;  -50.467;    0.000;3305.06676
 641.91; 3225.733;  -50.333;    0.000;3276.06673
 642.18; 3181.267;  -58.400;    0.000;3239.66660
 642.45; 3121.067;  -77.067;    0.000;3198.13332
 642.72; 3102.400;  -62.400;    0.000;3164.79990
 642.99; 3116.867;  -44.667;    0.000;3161.53337
 643.26; 3032.600;  -60.533;    0.000;3093.13343
 643.54; 3016.333;  -52.333;    0.000;3068.66658
 643.81; 3006.667;  -69.000;    0.000;3075.66675
 644.08; 3020.133;  -41.200;    0.000;3061.33330
 644.35; 2937.667;  -44.800;    0.000;2982.46675
 644.62; 2948.533;  -59.067;    0.000;3007.60011
 644.90; 2902.933;  -51.933;    0.000;2954.86668
 645.17; 2929.000;  -54.867;    0.000;2983.86666
 645.44; 2862.400;  -60.667;    0.000;2923.06657
 645.71; 2842.733;  -55.000;    0.000;2897.73340
 645.98; 2823.067;  -64.400;    0.000;2887.46665
 646.25; 2806.333;  -56.400;    0.000;2862.73325
 646.53; 2808.133;  -65.800;    0.000;2873.93330
 646.80; 2780.667;  -47.200;    0.000;2827.86675
 647.07; 2754.600;  -49.933;    0.000;2804.53343
 647.34; 2758.267;  -61.133;    0.000;2819.39994
 647.61; 2761.867;  -36.267;    0.000;2798.13337
 647.88; 2707.533;  -25.867;    0.000;2733.40011
 648.15; 2675.200;  -65.933;    0.000;2741.13329
 648.43; 2679.400;  -36.400;    0.000;2715.79990
 648.70; 2667.200;  -69.467;    0.000;2736.66662
 648.97; 2625.067;  -66.067;    0.000;2691.13332
 649.24; 2665.133;  -48.600;    0.000;2713.73330
 649.51; 2618.467;  -72.400;    0.000;2690.86655
 649.78; 2576.467;  -82.267;    0.000;2658.73322
 650.05; 2581.267;  -36.867;    0.000;2618.13327
 650.32; 2586.400;   17.333;    0.000;2569.06657
 650.60; 2564.133;  -55.467;    0.000;2619.59997
 650.87; 2523.467;  -53.067;    0.000;2576.53322
 651.14; 2520.133;  -80.400;    0.000;2600.53330
 651.41; 2471.467;  -69.400;    0.000;2540.86655
 651.68; 2473.667;  -56.467;    0.000;2530.13342
 651.95; 2461.400;  -60.800;    0.000;2522.19990
 652.22; 2470.867;  -53.667;    0.000;2524.53337
 652.49; 2422.867;  -71.533;    0.000;2494.40003
 652.76; 2381.733;  -61.133;    0.000;2442.86673
 653.03; 2373.067;  -62.000;    0.000;2435.06665
 653.31; 2411.333;  -44.333;    0.000;2455.66658
 653.58; 2340.667;  -65.533;    0.000;2406.20008
 653.85; 2318.133;  -64.933;    0.000;2383.06664
 654.12; 2357.200;  -41.667;    0.000;2398.86662
 654.39; 2360.867;  -49.667;    0.000;2410.53337
 654.66; 2283.533;  -22.733;    0.000;2306.26678
 654.93; 2310.800;  -36.600;    0.000;2347.40005
 655.20; 2261.200;  -84.133;    0.000;2345.33328
 655.47; 2279.933;  -63.667;    0.000;2343.60002
 655.74; 2281.000;  -41.867;    0.000;2322.86666
 656.01; 2262.800;  -72.333;    0.000;2335.13338
 656.28; 2186.333;  -70.200;    0.000;2256.53325
 656.55; 2206.867;  -43.133;    0.000;2250.00003
 656.83; 2182.867;  -66.933;    0.000;2249.80003
 657.10; 2149.600;  -77.133;    0.000;2226.73343
 657.37; 2164.800;  -37.067;    0.000;2201.86671
 657.64; 2190.467;  -56.800;    0.000;2247.26655
 657.91; 2127.400;  -44.467;    0.000;2171.86657
 658.18; 2139.267;  -47.133;    0.000;2186.39994
 658.45; 2071.467;  -62.733;    0.000;2134.19989
 658.72; 2084.867;  -64.933;    0.000;2149.80003
 658.99; 2079.000;  -64.400;    0.000;2143.40000
 659.26; 2072.867;  -63.400;    0.000;2136.26670
 659.53; 2035.467;  -67.000;    0.000;2102.46667
 659.80; 2005.600;  -63.667;    0.000;2069.26664
 660.07; 2027.867;  -69.800;    0.000;2097.66670
 660.34; 2010.467;  -56.067;    0.000;2066.53334
 660.61; 1993.533;  -68.000;    0.000;2061.53333
 660.88; 1997.733;  -59.533;    0.000;2057.26661
 661.15; 1995.533;  -65.067;    0.000;2060.59999
 661.42; 1939.733;  -48.067;    0.000;1987.79994
 661.69; 1918.467;  -76.933;    0.000;1995.40001
 661.96; 1951.867;  -77.467;    0.000;2029.33337
 662.23; 1869.733;  -69.800;    0.000;1939.53328
 662.50; 1849.467;  -65.200;    0.000;1914.66667
 662.77; 1828.733;  -53.867;    0.000;1882.59994
 663.04; 1863.800;  -63.933;    0.000;1927.73338
 663.31; 1830.467;  -75.467;    0.000;1905.93334
 663.58; 1823.067;  -55.000;    0.000;1878.06665
 663.85; 1867.667;  -66.467;    0.000;1934.13329
 664.12; 1815.667;  -62.400;    0.000;1878.06663
 664.39; 1758.333;  -53.600;    0.000;1811.93337
 664.66; 1767.600;  -59.200;    0.000;1826.79998
 664.93; 1754.667;  -75.733;    0.000;1830.39996
 665.20; 1753.267;  -72.200;    0.000;1825.46672
 665.47; 1769.267;  -55.467;    0.000;1824.73339
 665.74; 1733.800;  -69.067;    0.000;1802.86671
 666.01; 1713.667;  -49.533;    0.000;1763.19996
 666.28; 1759.667;  -66.867;    0.000;1826.53329
 666.55; 1713.667;  -65.067;    0.000;1778.73329
 666.82; 1689.467;  -68.600;    0.000;1758.06667
 667.09; 1678.533;  -70.933;    0.000;1749.46666
 667.36; 1653.400;  -48.400;    0.000;1701.80003
 667.63; 1625.933;  -56.400;    0.000;1682.33335
 667.90; 1631.533;  -75.000;    0.000;1706.53333
 668.16; 1632.000;  -63.000;    0.000;1695.00000
 668.43; 1632.467;  -61.400;    0.000;1693.86668
 668.70; 1647.400;  -41.533;    0.000;1688.93336
 668.97; 1590.200;  -53.667;    0.000;1643.86662
 669.24; 1567.533;  -45.667;    0.000;1613.19999
 669.51; 1559.400;  -64.800;    0.000;1624.20003
 669.78; 1563.200;  -60.067;    0.000;1623.26662
 670.05; 1530.267;  -78.600;    0.000;1608.86672
 670.32; 1551.000;  -67.333;    0.000;1618.33334
 670.59; 1560.200;  -61.067;    0.000;1621.26662
 670.86; 1511.667;  -48.200;    0.000;1559.86663
 671.13; 1499.867;  -62.133;    0.000;1562.00003
 671.40; 1511.533;  -57.800;    0.000;1569.33332
 671.67; 1523.667;  -38.333;    0.000;1561.99996
 671.93; 1457.200;  -57.400;    0.000;1514.59995
 672.20; 1428.667;  -67.733;    0.000;1496.39996
 672.47; 1458.400;  -67.267;    0.000;1525.66669
 672.74; 1459.000;  -77.267;    0.000;1536.26667
 673.01; 1375.000;  -77.333;    0.000;1452.33334
 673.28; 1448.400;  -48.600;    0.000;1497.00002
 673.55; 1395.933;  -81.067;    0.000;1477.00002
 673.82; 1423.400;  -65.867;    0.000;1489.26669
 674.09; 1421.400;  -58.667;    0.000;1480.06669
 674.35; 1324.800;  -76.000;    0.000;1400.80005
 674.62; 1368.133;  -72.600;    0.000;1440.73330
 674.89; 1362.867;  -56.733;    0.000;1419.60003
 675.16; 1326.133;  -73.133;    0.000;1399.26663
 675.43; 1316.400;  -63.600;    0.000;1380.00002
 675.70; 1368.200;  -25.000;    0.000;1393.19995
 675.97; 1333.000;  -61.000;    0.000;1394.00000
 676.24; 1293.600;  -64.733;    0.000;1358.33331
 676.50; 1264.600;  -82.133;    0.000;1346.73331
 676.77; 1246.067;  -70.467;    0.000;1316.53332
 677.04; 1289.400;  -53.933;    0.000;1343.33336
 677.31; 1253.733;  -83.200;    0.000;1336.93327
 677.58; 1257.467;  -79.667;    0.000;1337.13334
 677.85; 1243.867;  -58.267;    0.000;1302.13337
 678.12; 1205.933;  -63.733;    0.000;1269.66668
 678.38; 1197.133;  -62.067;    0.000;1259.19997
 678.65; 1213.400;  -82.867;    0.000;1296.26669
 678.92; 1222.200;  -63.000;    0.000;1285.19995
 679.19; 1228.400;  -31.533;    0.000;1259.93336
 679.46; 1229.733;  -68.000;    0.000;1297.73328
 679.73; 1181.600;  -63.933;    0.000;1245.53331
 679.99; 1147.800;  -72.133;    0.000;1219.93338
 680.26; 1127.800;  -77.400;    0.000;1205.20005
 680.53; 1113.400;  -71.067;    0.000;1184.46669
 680.80; 1166.000;  -66.533;    0.000;1232.53333
 681.07; 1150.533;  -61.333;    0.000;1211.86666
 681.33; 1108.933;  -54.667;    0.000;1163.60002
 681.60; 1107.733;  -39.933;    0.000;1147.66661
 681.87; 1109.000;  -63.800;    0.000;1172.80000
 682.14; 1095.067;  -58.800;    0.000;1153.86665
 682.41; 1091.067;  -67.333;    0.000;1158.39999
 682.67; 1086.000;  -64.600;    0.000;1150.60000
 682.94; 1063.800;  -79.267;    0.000;1143.06672
 683.21; 1009.533;  -74.600;    0.000;1084.13332
 683.48; 1070.467;  -63.133;    0.000;1133.60001
 683.75; 1036.600;  -59.600;    0.000;1096.19997
 684.01; 1034.600;  -61.400;    0.000;1095.99998
 684.28; 1040.733;  -82.733;    0.000;1123.46661
 684.55; 1022.333;  -53.867;    0.000;1076.19998
 684.82;  945.600;  -77.467;    0.000;1023.06664
 685.09; 1029.533;  -46.333;    0.000;1075.86666
 685.35; 1009.400;  -64.000;    0.000;1073.40002
 685.62;  994.867;  -53.267;    0.000;1048.13330
 685.89;  961.400;  -64.667;    0.000;1026.06669
 686.16;  941.267;  -67.067;    0.000;1008.33333
 686.42; 1004.333;  -55.600;    0.000;1059.93331
 686.69;  968.067;  -52.467;    0.000;1020.53332
 686.96;  941.667;  -67.467;    0.000;1009.13335
 687.23;  971.133;  -45.400;    0.000;1016.53336
 687.49;  927.467;  -41.600;    0.000;969.06667
 687.76;  918.867;  -85.733;    0.000;1004.59997
 688.03;  871.333;  -64.867;    0.000;936.19998
 688.30;  899.600;  -72.000;    0.000;971.59998
 688.56;  884.467;  -80.333;    0.000;964.80001
 688.83;  869.400;  -85.467;    0.000;954.86669
 689.10;  862.733;  -83.200;    0.000;945.93333
 689.37;  851.933;  -82.867;    0.000;934.80002
 689.63;  861.867;  -68.400;    0.000;930.26664
 689.90;  838.533;  -56.467;    0.000;894.99999
 690.17;  837.467;  -67.400;    0.000;904.86668
 690.44;  842.667;  -69.000;    0.000;911.66669
 690.70;  800.067;  -71.200;    0.000;871.26665
 690.97;  833.600;  -57.000;    0.000;890.59998
 691.24;  833.467;  -55.000;    0.000;888.46667
 691.50;  795.133;  -71.733;    0.000;866.86669
 691.77;  762.400;  -91.467;    0.000;853.86669
 692.04;  784.400;  -56.867;    0.000;841.26669
 692.30;  768.533;  -84.400;    0.000;852.93333
 692.57;  773.733;  -62.533;    0.000;836.26667
 692.84;  759.600;  -83.933;    0.000;843.53331
 693.11;  774.667;  -59.200;    0.000;833.86669
 693.37;  725.267;  -59.867;    0.000;785.13333
 693.64;  775.067;  -82.600;    0.000;857.66665
 693.91;  723.133;  -77.667;    0.000;800.80003
 694.17;  729.467;  -63.000;    0.000;792.46667
 694.44;  704.400;  -58.400;    0.000;762.80003
 694.71;  711.400;  -71.067;    0.000;782.46669
 694.97;  711.000;  -54.067;    0.000;765.06667
 695.24;  684.533;  -83.133;    0.000;767.66666
 695.51;  697.267;  -72.467;    0.000;769.73333
 695.77;  671.933;  -73.733;    0.000;745.66668
 696.04;  645.533;  -66.200;    0.000;711.73332
 696.31;  669.867;  -62.800;    0.000;732.66664
 696.57;  687.400;  -50.133;    0.000;737.53336
 696.84;  633.867;  -46.333;    0.000;680.19997
 697.11;  642.267;  -67.533;    0.000;709.80000
 697.37;  666.933;  -60.467;    0.000;727.40002
 697.64;  601.200;  -73.333;    0.000;674.53335
 697.91;  595.600;  -60.067;    0.000;655.66664
 698.17;  565.667;  -77.133;    0.000;642.80002
 698.44;  591.333;  -76.733;    0.000;668.06664
 698.71;  588.933;  -61.667;    0.000;650.60002
 698.97;  590.533;  -59.267;    0.000;649.79999
 699.24;  551.800;  -38.600;    0.000;590.39999
 699.50;  557.067;  -66.333;    0.000;623.39999
 699.77;  574.333;  -43.467;    0.000;617.79998
 700.04;  583.000;  -55.600;    0.000;638.60000
 700.30;  537.600;  -69.200;    0.000;606.79997
 700.57;  560.800;  -70.133;    0.000;630.93332
 700.84;  537.800;  -56.333;    0.000;594.13332
 701.10;  547.600;  -79.733;    0.000;627.33331
 701.37;  498.133;  -63.733;    0.000;561.86666
 701.63;  526.267;  -65.733;    0.000;591.99999
 701.90;  498.333;  -51.667;    0.000;550.00001
 702.17;  551.133;  -24.400;    0.000;575.53336
 702.43;  448.133;  -70.333;    0.000;518.46667
 702.70;  519.267;  -48.733;    0.000;568.00000
 702.96;  482.133;  -76.800;    0.000;558.93333
 703.23;  457.400;  -79.733;    0.000;537.13332
 703.50;  439.200;  -72.933;    0.000;512.13335
 703.76;  444.000;  -60.200;    0.000;504.20000
 704.03;  419.400;  -64.867;    0.000;484.26666
 704.29;  437.867;  -57.733;    0.000;495.60000
 704.56;  423.733;  -77.667;    0.000;501.40000
 704.82;  422.867;  -63.000;    0.000;485.86667
 705.09;  388.067;  -59.533;    0.000;447.60001
 705.36;  391.733;  -78.067;    0.000;469.80000
 705.62;  395.533;  -31.333;    0.000;426.86666
 705.89;  401.733;  -68.533;    0.000;470.26667
 706.15;  379.200;  -57.200;    0.000;436.40001
 706.42;  434.333;  -56.333;    0.000;490.66668
 706.68;  348.000;  -66.800;    0.000;414.80000
 706.95;  358.933;  -80.867;    0.000;439.79999
 707.21;  342.133;  -75.667;    0.000;417.80000
 707.48;  350.600;  -58.533;    0.000;409.13334
 707.75;  337.400;  -85.600;    0.000;422.99999
 708.01;  344.600;  -70.067;    0.000;414.66667
 708.28;  307.200;  -80.000;    0.000;387.20001
 708.54;  305.867;  -60.600;    0.000;366.46667
 708.81;  334.600;  -49.267;    0.000;383.86667
 709.07;  303.400;  -71.333;    0.000;374.73333
 709.34;  272.200;  -73.733;    0.000;345.93334
 709.60;  301.733;  -88.000;    0.000;389.73334
 709.87;  328.267;  -61.867;    0.000;390.13333
 710.13;  294.533;  -59.667;    0.000;354.19999
 710.40;  280.533;  -79.800;    0.000;360.33333
 710.66;  284.400;  -71.267;    0.000;355.66666
 710.93;  255.400;  -65.733;    0.000;321.13332
 711.19;  257.733;  -75.000;    0.000;332.73334
 711.46;  298.000;  -58.000;    0.000;356.00000
 711.72;  276.733;  -66.667;    0.000;343.40000
 711.99;  237.600;  -76.133;    0.000;313.73334
 712.25;  277.467;  -59.867;    0.000;337.33334
 712.52;  278.533;  -51.400;    0.000;329.93333
 712.78;  264.267;  -65.200;    0.000;329.46666
 713.05;  246.600;  -65.533;    0.000;312.13334
 713.31;  230.600;  -59.267;    0.000;289.86667
 713.58;  246.200;  -67.200;    0.000;313.39999
 713.84;  254.467;  -64.067;    0.000;318.53333
 714.11;  226.600;  -76.333;    0.000;302.93334
 714.37;  260.600;  -51.867;    0.000;312.46667
 714.64;  216.933;  -80.200;    0.000;297.13333
 714.90;  244.200;  -71.267;    0.000;315.46667
 715.17;  235.667;  -76.667;    0.000;312.33334
 715.43;  224.200;  -75.600;    0.000;299.80000
 715.70;  233.133;  -68.867;    0.000;302.00000
 715.96;  233.933;  -67.067;    0.000;301.00000
 716.22;  207.333;  -70.667;    0.000;277.99999
 716.49;  216.133;  -71.733;    0.000;287.86666
 716.75;  213.533;  -96.000;    0.000;309.53334
 717.02;  245.467;  -50.200;    0.000;295.66666
 717.28;  194.000;  -76.267;    0.000;270.26667
 717.55;  225.200;  -82.067;    0.000;307.26666
 717.81;  218.667;  -69.067;    0.000;287.73334
 718.08;  228.133;  -62.333;    0.000;290.46666
 718.34;  206.600;  -86.133;    0.000;292.73334
 718.60;  235.467;  -54.867;    0.000;290.33332
 718.87;  216.733;  -63.600;    0.000;280.33334
 719.13;  227.400;  -72.733;    0.000;300.13332
 719.40;  221.400;  -58.067;    0.000;279.46666
 719.66;  199.333;  -75.533;    0.000;274.86666
 719.93;  203.733;  -74.467;    0.000;278.20000
 720.19;  203.733;  -85.533;    0.000;289.26667
 720.45;  185.933;  -60.867;    0.000;246.80000
 720.72;  203.467;  -68.600;    0.000;272.06666
 720.98;  233.733;  -55.800;    0.000;289.53334
 721.25;  190.467;  -85.067;    0.000;275.53333
 721.51;  180.667;  -82.467;    0.000;263.13334
 721.77;  196.000;  -66.333;    0.000;262.33334
 722.04;  220.067;  -42.067;    0.000;262.13333
 722.30;  215.267;  -50.533;    0.000;265.80000
 722.57;  174.133;  -60.067;    0.000;234.20000
 722.83;  214.533;  -77.200;    0.000;291.73334
 723.09;  187.733;  -92.733;    0.000;280.46667
 723.36;  212.733;  -93.867;    0.000;306.60001
 723.62;  189.467;  -64.933;    0.000;254.39999
 723.88;  205.600;  -69.600;    0.000;275.20000
 724.15;  203.133;  -62.400;    0.000;265.53333
 724.41;  200.133;  -77.067;    0.000;277.20000
 724.68;  175.800;  -70.400;    0.000;246.20000
 724.94;  214.933;  -47.867;    0.000;262.80000
 725.20;  213.133;  -71.800;    0.000;284.93333
 725.47;  199.667;  -78.800;    0.000;278.46667
 725.73;  179.800;  -74.600;    0.000;254.40000
 725.99;  194.733;  -61.800;    0.000;256.53334
 726.26;  191.400;  -67.933;    0.000;259.33333
 726.52;  195.067;  -67.133;    0.000;262.20000
 726.78;  179.467;  -66.067;    0.000;245.53333
 727.05;  181.733;  -63.867;    0.000;245.60000
 727.31;  181.733;  -76.067;    0.000;257.80000
 727.57;  200.933;  -74.467;    0.000;275.40000
 727.84;  154.800;  -55.333;    0.000;210.13334
 728.10;  195.267;  -75.467;    0.000;270.73333
 728.36;  179.733;  -40.467;    0.000;220.20000
 728.63;  190.733;  -54.800;    0.000;245.53334
 728.89;  156.067;  -69.200;    0.000;225.26666
 729.15;  189.000;  -65.067;    0.000;254.06667
 729.42;  176.667;  -79.800;    0.000;256.46667
 729.68;  203.200;  -69.333;    0.000;272.53333
 729.94;  155.333;  -79.400;    0.000;234.73333
 730.21;  188.000;  -69.667;    0.000;257.66666
 730.47;  167.267;  -78.867;    0.000;246.13333
 730.73;  169.267;  -63.133;    0.000;232.40000
 731.00;  180.867;  -51.333;    0.000;232.20000
 731.26;  167.467;  -65.667;    0.000;233.13332
 731.52;  162.067;  -62.267;    0.000;224.33333
 731.78;  165.200;  -85.133;    0.000;250.33333
 732.05;  142.533;  -67.333;    0.000;209.86668
 732.31;  174.467;  -73.133;    0.000;247.59999
 732.57;  163.267;  -73.133;    0.000;236.39999
 732.84;  145.133;  -82.000;    0.000;227.13333
 733.10;  119.333;  -78.600;    0.000;197.93333
 733.36;  174.533;  -76.333;    0.000;250.86668
 733.62;  159.067;  -71.000;    0.000;230.06667
 733.89;  156.600;  -74.667;    0.000;231.26667
 734.15;  140.000;  -77.133;    0.000;217.13333
 734.41;  154.333;  -62.467;    0.000;216.80000
 734.67;  144.267;  -74.467;    0.000;218.73333
 734.94;  137.000;  -74.933;    0.000;211.93333
 735.20;  150.200;  -71.733;    0.000;221.93333
 735.46;  131.533;  -60.200;    0.000;191.73334
 735.73;  136.733;  -64.533;    0.000;201.26667
 735.99;  119.867;  -61.000;    0.000;180.86667
 736.25;  142.067;  -48.267;    0.000;190.33333
 736.51;  128.067;  -91.133;    0.000;219.20000
 736.77;  130.467;  -73.333;    0.000;203.80000
 737.04;  141.267;  -65.267;    0.000;206.53333
 737.30;  108.800;  -72.400;    0.000;181.20000
 737.56;  134.867;  -67.733;    0.000;202.60000
 737.82;  126.667;  -76.533;    0.000;203.20000
 738.09;  125.733;  -74.800;    0.000;200.53333
 738.35;  101.533;  -88.733;    0.000;190.26666
 738.61;  123.000;  -56.467;    0.000;179.46667
 738.87;  131.533;  -71.533;    0.000;203.06667
 739.14;  120.200;  -69.533;    0.000;189.73333
 739.40;   89.667;  -77.467;    0.000;167.13333
 739.66;  135.933;  -80.267;    0.000;216.20000
 739.92;   92.800;  -80.333;    0.000;173.13334
 740.18;   89.533;  -61.267;    0.000;150.80000
 740.45;   98.200;  -83.333;    0.000;181.53333
 740.71;  142.333;  -37.467;    0.000;179.80000
 740.97;  131.733;  -61.200;    0.000;192.93334
 741.23;  115.533;  -68.600;    0.000;184.13333
 741.49;   89.467;  -75.933;    0.000;165.40000
 741.76;   88.067;  -96.400;    0.000;184.46667
 742.02;   96.933;  -73.867;    0.000;170.80000
 742.28;  113.200;  -50.400;    0.000;163.60000
 742.54;   91.000;  -64.133;    0.000;155.13333
 742.80;  102.000;  -78.400;    0.000;180.40000
 743.06;  102.200;  -70.000;    0.000;172.20000
 743.33;   92.267;  -60.067;    0.000;152.33334
 743.59;   85.133;  -92.000;    0.000;177.13333
 743.85;   90.133;  -63.667;    0.000;153.80000
 744.11;   85.733;  -75.600;    0.000;161.33333
 744.37;   97.400;  -62.000;    0.000;159.40000
 744.63;   75.800;  -66.933;    0.000;142.73334
 744.90;   88.267;  -88.333;    0.000;176.60001
 745.16;   60.800;  -76.933;    0.000;137.73333
 745.42;   97.600;  -72.133;    0.000;169.73333
 745.68;  100.733;  -85.000;    0.000;185.73333
 745.94;  114.400;  -47.333;    0.000;161.73333
 746.20;   66.667;  -68.867;    0.000;135.53333
 746.46;   97.400;  -67.467;    0.000;164.86667
 746.72;   89.800;  -56.533;    0.000;146.33334
 746.99;   79.200;  -66.400;    0.000;145.60000
 747.25;  100.733;  -62.267;    0.000;163.00000
 747.51;   84.733;  -77.667;    0.000;162.39999
 747.77;   56.600;  -81.200;    0.000;137.80000
 748.03;   79.333;  -82.667;    0.000;162.00000
 748.29;   68.800;  -66.200;    0.000;135.00000
 748.55;   71.733;  -79.267;    0.000;151.00000
 748.81;   50.600;  -77.400;    0.000;128.00000
 749.08;   85.933;  -67.600;    0.000;153.53333
 749.34;   47.933;  -57.133;    0.000;105.06667
 749.60;   85.000;  -73.333;    0.000;158.33334
 749.86;   55.200;  -73.333;    0.000;128.53334
 750.12;   70.800;  -63.933;    0.000;134.73334
 750.38;   61.933;  -77.600;    0.000;139.53333
 750.64;   50.667;  -70.800;    0.000;121.46667
 750.90;   76.867;  -70.733;    0.000;147.60000
 751.16;   44.333;  -87.133;    0.000;131.46666
 751.42;   50.067;  -86.467;    0.000;136.53333
 751.68;   68.533;  -49.933;    0.000;118.46667
 751.95;   30.533;  -94.933;    0.000;125.46667
 752.21;   47.733;  -76.800;    0.000;124.53334
 752.47;   43.533;  -97.533;    0.000;141.06667
 752.73;   49.467;  -76.800;    0.000;126.26667
 752.99;   31.600;  -69.267;    0.000;100.86667
 753.25;   58.400;  -80.933;    0.000;139.33334
 753.51;   45.000;  -87.267;    0.000;132.26667
 753.77;   65.667;  -74.600;    0.000;140.26666
 754.03;   23.533;  -88.467;    0.000;112.00000
 754.29;   39.133;  -64.667;    0.000;103.80000
 754.55;   24.333;  -72.267;    0.000;96.60000
 754.81;   49.267;  -64.667;    0.000;113.93333
 755.07;   17.800;  -77.400;    0.000;95.20000
 755.33;   55.467;  -65.067;    0.000;120.53333
 755.59;   20.600;  -79.267;    0.000;99.86667
 755.85;   49.800;  -68.333;    0.000;118.13334
 756.11;   25.067;  -89.667;    0.000;114.73333
 756.37;   21.067;  -85.800;    0.000;106.86667
 756.63;   41.667;  -52.067;    0.000;93.73333
 756.89;   31.467;  -76.133;    0.000;107.60000
 757.15;    6.200;  -63.600;    0.000;69.80000
 757.41;   51.000;  -38.467;    0.000;89.46667
 757.68;   26.067;  -72.000;    0.000;98.06667
 757.94;   58.200;  -64.667;    0.000;122.86666
 758.20;   52.333;  -62.867;    0.000;115.20000
 758.46;   24.133;  -88.600;    0.000;112.73333
 758.72;   29.467;  -81.600;    0.000;111.06667
 758.98;   33.933;  -52.267;    0.000;86.20000
 759.24;   16.200;  -69.867;    0.000;86.06667
 759.50;   33.933;  -75.400;    0.000;109.33334
 759.76;   38.733;  -59.600;    0.000;98.33333
 760.02;   26.267;  -73.200;    0.000;99.46666
 760.27;   10.667;  -78.400;    0.000;89.06667
 760.53;   29.733;  -59.600;    0.000;89.33333
 760.79;   21.867;  -66.267;    0.000;88.13334
 761.05;   22.467;  -56.200;    0.000;78.66667
 761.31;   41.067;  -63.067;    0.000;104.13333
 761.57;   36.267;  -47.533;    0.000;83.80000
 761.83;    6.000;  -75.333;    0.000;81.33334
 762.09;   19.267;  -75.933;    0.000;95.20000
 762.35;   -1.600;  -82.733;    0.000;81.13333
 762.61;   28.133;  -61.867;    0.000;90.00000
 762.87;   22.067;  -52.933;    0.000;75.00000
 763.13;   12.267;  -84.867;    0.000;97.13334
 763.39;   34.467;  -63.000;    0.000;97.46667
 763.65;    6.400;  -80.733;    0.000;87.13333
 763.91;  -20.533;  -69.933;    0.000;49.40000
 764.17;   31.667;  -58.667;    0.000;90.33333
 764.43;   13.667;  -63.933;    0.000;77.60000
 764.69;    1.733;  -78.933;    0.000;80.66667
 764.95;   13.267;  -62.533;    0.000;75.80000
 765.21;   11.533;  -80.533;    0.000;92.06667
 765.47;  -10.267;  -93.000;    0.000;82.73333
 765.73;   24.600;  -71.267;    0.000;95.86667
 765.98;   16.600;  -70.267;    0.000;86.86667
 766.24;    3.800;  -89.800;    0.000;93.60000
 766.50;  -21.200;  -65.000;    0.000;43.80000
 766.76;    7.000;  -68.933;    0.000;75.93333
 767.02;   11.333;  -76.067;    0.000;87.40000
 767.28;   22.933;  -72.000;    0.000;94.93333
 767.54;    1.667;  -70.800;    0.000;72.46667
 767.80;    4.333;  -74.267;    0.000;78.60000
 768.06;    8.800;  -69.800;    0.000;78.60000
 768.32;   10.933;  -56.467;    0.000;67.40000
 768.58;    8.267;  -68.267;    0.000;76.53334
 768.83;  -16.267;  -79.667;    0.000;63.40000
 769.09;   15.800;  -80.133;    0.000;95.93333
 769.35;   19.400;  -67.200;    0.000;86.60000
 769.61;  -21.200;  -68.600;    0.000;47.40000
 769.87;    4.400;  -67.200;    0.000;71.60000
 770.13;   13.933;  -60.200;    0.000;74.13333
 770.39;  -23.067;  -88.000;    0.000;64.93333
 770.65;    0.533;  -68.600;    0.000;69.13333
 770.90;   -7.867;  -92.800;    0.000;84.93334
 771.16;  -37.200;  -65.067;    0.000;27.86666
 771.42;   11.067;  -86.800;    0.000;97.86667
 771.68;  -21.467;  -91.400;    0.000;69.93333
 771.94;   -8.333;  -76.600;    0.000;68.26667
 772.20;  -31.667;  -72.600;    0.000;40.93333
 772.46;  -12.133;  -95.133;    0.000;83.00000
 772.71;  -14.600;  -74.200;    0.000;59.60000
 772.97;   14.533;  -61.467;    0.000;76.00000
 773.23;  -40.933;  -80.467;    0.000;39.53333
 773.49;   25.400;  -60.800;    0.000;86.20000
 773.75;  -12.533;  -93.467;    0.000;80.93333
 774.01;  -35.267;  -80.000;    0.000;44.73333
 774.26;  -24.467;  -82.733;    0.000;58.26666
 774.52;   31.733;  -55.933;    0.000;87.66667
 774.78;  -25.400;  -68.533;    0.000;43.13333
 775.04;   35.800;  -39.267;    0.000;75.06667
 775.30;    6.133;  -28.600;    0.000;34.73333
 775.56;  -20.467;  -76.867;    0.000;56.40000
 775.81;  -11.600;  -63.867;    0.000;52.26666
 776.07;  -22.533;  -79.867;    0.000;57.33334
 776.33;  -28.933;  -74.533;    0.000;45.60000
 776.59;  -25.533;  -83.467;    0.000;57.93333
 776.85;  -27.467;  -79.800;    0.000;52.33334
 777.10;   -5.867;  -76.933;    0.000;71.06667
 777.36;  -18.533;  -86.933;    0.000;68.40000
 777.62;    3.133;  -74.800;    0.000;77.93334
 777.88;  -16.600;  -89.067;    0.000;72.46667
 778.14;    2.133;  -67.933;    0.000;70.06667
 778.39;  -28.533;  -75.267;    0.000;46.73334
 778.65;  -19.267;  -63.733;    0.000;44.46667
 778.91;  -27.733;  -76.067;    0.000;48.33333
 779.17;  -11.467;  -74.800;    0.000;63.33334
 779.42;  -18.133;  -70.600;    0.000;52.46667
 779.68;  -21.933;  -82.400;    0.000;60.46667
 779.94;  -44.267;  -84.667;    0.000;40.40000
 780.20;   -5.467;  -74.667;    0.000;69.20000
 780.46;  -32.533;  -77.133;    0.000;44.60000
 780.71;    0.933;  -67.000;    0.000;67.93333
 780.97;  -26.133;  -75.533;    0.000;49.40000
 781.23;  -17.333;  -83.733;    0.000;66.40000
 781.49;  -32.600;  -60.267;    0.000;27.66667
 781.74;  -32.667;  -75.333;    0.000;42.66667
 782.00;  -49.933;  -75.867;    0.000;25.93333
 782.26;   -2.600;  -64.067;    0.000;61.46667
 782.52;  -26.400;  -60.800;    0.000;34.40000
 782.77;  -27.867;  -66.733;    0.000;38.86666
 783.03;  -56.600;  -86.467;    0.000;29.86667
 783.29;  -32.200;  -83.333;    0.000;51.13334
 783.54;  -33.133;  -64.067;    0.000;30.93333
 783.80;   -5.200;  -76.000;    0.000;70.80000
 784.06;  -21.667;  -80.800;    0.000;59.13334
 784.32;  -13.200;  -76.467;    0.000;63.26667
 784.57;  -10.933;  -61.667;    0.000;50.73333
 784.83;  -38.267;  -81.467;    0.000;43.20000
 785.09;  -24.467;  -92.533;    0.000;68.06667
 785.34;  -34.600;  -95.200;    0.000;60.60000
 785.60;  -23.467;  -66.200;    0.000;42.73333
 785.86;  -49.467;  -83.333;    0.000;33.86667
 786.12;  -17.933;  -77.867;    0.000;59.93334
 786.37;    9.067;  -48.133;    0.000;57.20000
 786.63;  -44.000;  -76.400;    0.000;32.40000
 786.89;  -23.467;  -63.600;    0.000;40.13333
 787.14;  -41.800;  -70.000;    0.000;28.20000
 787.40;  -38.267;  -71.733;    0.000;33.46666
 787.66;  -37.267;  -63.533;    0.000;26.26667
 787.91;    3.067;  -40.667;    0.000;43.73333
 788.17;  -40.133;  -78.067;    0.000;37.93333
 788.43;  -38.333;  -81.333;    0.000;43.00000
 788.68;  -28.667;  -95.000;    0.000;66.33333
 788.94;  -12.733;  -56.867;    0.000;44.13333
 789.20;  -41.267;  -71.667;    0.000;30.40000
 789.45;  -37.400;  -84.400;    0.000;47.00000
 789.71;  -30.933;  -70.733;    0.000;39.80000
 789.97;  -26.333;  -61.533;    0.000;35.20000
 790.22;  -49.867;  -68.933;    0.000;19.06667
 790.48;  -38.867;  -93.267;    0.000;54.40001
 790.74;  -38.333;  -78.400;    0.000;40.06667
 790.99;  -35.400;  -80.933;    0.000;45.53333
 791.25;  -56.000;  -80.000;    0.000;24.00000
 791.51;  -39.933;  -74.467;    0.000;34.53333
 791.76;   -7.200;  -52.200;    0.000;45.00000
 792.02;  -33.333;  -75.467;    0.000;42.13334
 792.27;  -30.800;  -57.533;    0.000;26.73333
 792.53;  -11.000;  -59.000;    0.000;48.00000
 792.79;  -37.533;  -66.200;    0.000;28.66666
 793.04;  -30.000;  -83.667;    0.000;53.66666
 793.30;  -57.800;  -89.200;    0.000;31.40000
 793.56;  -61.933;  -65.800;    0.000; 3.86667
 793.81;  -31.600;  -59.600;    0.000;28.00000
 794.07;  -48.267;  -84.933;    0.000;36.66667
 794.32;  -38.400;  -78.667;    0.000;40.26666
 794.58;  -21.933;  -96.467;    0.000;74.53333
 794.84;  -51.067;  -84.933;    0.000;33.86667
 795.09;  -31.533;  -54.133;    0.000;22.60000
 795.35;  -27.800;  -69.667;    0.000;41.86666
 795.60;  -14.667;  -49.933;    0.000;35.26667
 795.86;   -9.667;  -53.000;    0.000;43.33333
 796.12;  -32.600;  -85.400;    0.000;52.80000
 796.37;  -49.067;  -89.867;    0.000;40.80000
 796.63;  -35.400;  -61.667;    0.000;26.26667
 796.88;  -65.267;  -68.533;    0.000; 3.26666
 797.14;  -34.533;  -71.733;    0.000;37.20000
 797.39;  -42.733;  -56.133;    0.000;13.40000
 797.65;  -43.467;  -79.133;    0.000;35.66666
 797.91;  -69.267;  -80.467;    0.000;11.20000
 798.16;  -45.267;  -66.867;    0.000;21.60000
 798.42;  -53.133;  -83.600;    0.000;30.46666
 798.67;  -33.867;  -85.267;    0.000;51.40001
 798.93;  -50.400;  -90.800;    0.000;40.40000
 799.18;  -31.733;  -79.800;    0.000;48.06667
 799.44;  -63.333;  -88.267;    0.000;24.93334
 799.69;  -53.133;  -76.867;    0.000;23.73333
 799.95;  -60.200;  -97.867;    0.000;37.66667
 800.21;  -37.133;  -72.533;    0.000;35.40000
 800.46;  -25.333;  -67.533;    0.000;42.20000
 800.72;  -38.067;  -78.733;    0.000;40.66666
 800.97;  -59.333;  -74.867;    0.000;15.53334
 801.23;  -43.600;  -66.933;    0.000;23.33334
 801.48;  -66.400;  -89.733;    0.000;23.33333
 801.74;  -33.733;  -81.000;    0.000;47.26667
 801.99;  -41.733;  -76.800;    0.000;35.06667
 802.25;  -20.000;  -71.133;    0.000;51.13333
 802.50;  -44.133;  -78.400;    0.000;34.26667
 802.76;   -9.067;  -66.067;    0.000;57.00000
 803.01;  -59.200;  -74.400;    0.000;15.20000
 803.27;  -50.867;  -78.667;    0.000;27.80000
 803.52;  -47.000;  -79.333;    0.000;32.33334
 803.78;  -31.867;  -58.133;    0.000;26.26667
 804.03;  -63.667;  -69.067;    0.000; 5.40000
 804.29;  -63.000;  -77.667;    0.000;14.66666
 804.54;  -56.467;  -56.267;    0.000;-0.20000
 804.80;  -31.133;  -71.867;    0.000;40.73334
 805.05;  -52.667;  -73.067;    0.000;20.40000
 805.31;  -21.267;  -54.133;    0.000;32.86667
 805.56;  -37.000;  -57.200;    0.000;20.20000
 805.82;  -42.600;  -90.733;    0.000;48.13333
 806.07;  -46.200;  -63.400;    0.000;17.20000
 806.33;  -29.067;  -77.600;    0.000;48.53333
 806.58;  -89.667;  -86.533;    0.000;-3.13333
 806.84;  -34.133;  -69.333;    0.000;35.20000
 807.09;  -40.867;  -76.667;    0.000;35.80000
 807.34;  -32.933;  -72.733;    0.000;39.80000
 807.60;  -61.200;  -74.067;    0.000;12.86666
 807.85;  -15.067;  -62.800;    0.000;47.73333
 808.11;  -48.667;  -92.933;    0.000;44.26667
 808.36;  -11.333;  -65.600;    0.000;54.26667
 808.62;  -62.800;  -86.667;    0.000;23.86666
 808.87;  -40.600;  -78.733;    0.000;38.13333
 809.13;  -50.600;  -71.467;    0.000;20.86667
 809.38;  -18.533;  -48.200;    0.000;29.66667
 809.63;  -70.000;  -98.067;    0.000;28.06667
 809.89;  -14.933;  -58.667;    0.000;43.73333
 810.14;  -59.667;  -74.333;    0.000;14.66667
 810.40;  -33.467;  -51.267;    0.000;17.80000
 810.65;  -28.867;  -64.133;    0.000;35.26666
 810.91;  -42.800;  -85.533;    0.000;42.73333
 811.16;  -56.800;  -56.333;    0.000;-0.46667
 811.41;  -41.400;  -55.067;    0.000;13.66666
 811.67;  -42.267;  -71.333;    0.000;29.06667
 811.92;  -31.800;  -82.333;    0.000;50.53334
 812.18;  -51.333;  -70.667;    0.000;19.33333
 812.43;  -44.733;  -60.533;    0.000;15.80000
 812.68;  -39.000;  -80.333;    0.000;41.33334
 812.94;  -44.867;  -76.933;    0.000;32.06667
 813.19;  -44.533;  -99.867;    0.000;55.33334
 813.45;   -3.000;  -33.933;    0.000;30.93333
 813.70;  -52.000;  -74.533;    0.000;22.53333
 813.95;  -45.867;  -70.667;    0.000;24.80000
 814.21;  -44.267;  -75.933;    0.000;31.66667
 814.46;  -44.467;  -88.000;    0.000;43.53333
 814.71;  -60.333;  -81.933;    0.000;21.60000
 814.97;  -46.800;  -77.867;    0.000;31.06667
 815.22;  -64.467;  -88.867;    0.000;24.40000
 815.48;  -49.533;  -85.133;    0.000;35.60000
 815.73;   -2.200;  -20.867;    0.000;18.66667
 815.98;  -46.533;  -74.867;    0.000;28.33334
 816.24;  -72.600;  -79.000;    0.000; 6.40000
 816.49;  -43.400;  -72.067;    0.000;28.66666
 816.74;  -50.400;  -74.600;    0.000;24.20000
 817.00;  -11.867;  -43.400;    0.000;31.53333
 817.25;  -50.133;  -58.000;    0.000; 7.86666
 817.50;  -35.667;  -71.000;    0.000;35.33333
 817.76;  -64.733;  -91.000;    0.000;26.26667
 818.01;  -42.200;  -93.533;    0.000;51.33333
 818.26;  -60.800;  -97.133;    0.000;36.33333
 818.52;  -57.267;  -85.400;    0.000;28.13334
 818.77;  -53.000;  -78.200;    0.000;25.20000
 819.02;  138.533;  116.467;    0.000;22.06667
 819.28;  -57.133;  -76.867;    0.000;19.73333
 819.53;  -40.800;  -90.467;    0.000;49.66667
 819.78;  -51.267;  -78.600;    0.000;27.33333
 820.04;  -29.667;  -70.333;    0.000;40.66667
 820.29;  -51.667;  -72.533;    0.000;20.86666
 820.54;  -39.333;  -66.800;    0.000;27.46667
 820.79;  -56.933;  -63.600;    0.000; 6.66666
 821.05;  -68.133;  -89.800;    0.000;21.66667
 821.30;  -20.867;  -35.467;    0.000;14.60000
 821.55;   -3.533;  -59.133;    0.000;55.60000
 821.81;  -64.133;  -84.067;    0.000;19.93333
 822.06;  -38.133;  -87.800;    0.000;49.66667
 822.31;  -27.333;  -52.200;    0.000;24.86667
 822.56;  -67.933;  -59.533;    0.000;-8.40000
 822.82;  -70.333;  -75.867;    0.000; 5.53333
 823.07;  -36.467;  -72.200;    0.000;35.73333
 823.32;  -62.600;  -88.867;    0.000;26.26667
 823.58;  -47.667;  -47.600;    0.000;-0.06667
 823.83;  -67.267;  -82.200;    0.000;14.93333
 824.08;  -47.867;  -80.867;    0.000;33.00000
 824.33;  -67.600;  -84.067;    0.000;16.46667
 824.59;  -64.133;  -97.667;    0.000;33.53333
 824.84;  -59.200;  -92.067;    0.000;32.86666
 825.09;  -62.333;  -83.667;    0.000;21.33333
 825.34;  -51.133;  -79.933;    0.000;28.80000
 825.60;  -36.933;  -83.667;    0.000;46.73333
 825.85;  -53.800;  -92.800;    0.000;39.00000
 826.10;  -48.867;  -94.133;    0.000;45.26667
 826.35;  -37.400;  -72.000;    0.000;34.60000
 826.61;  -63.400;  -81.067;    0.000;17.66666
 826.86;  -75.000;  -91.400;    0.000;16.40000
 827.11;  -59.533;  -62.267;    0.000; 2.73333
 827.36;  -58.800;  -81.667;    0.000;22.86666
 827.61;  -81.933;  -75.600;    0.000;-6.33334
 827.87;  -66.733;  -79.933;    0.000;13.20000
 828.12;  -49.400;  -76.733;    0.000;27.33333
 828.37;  -58.600;  -74.133;    0.000;15.53333
 828.62;  -62.867;  -73.133;    0.000;10.26667
 828.88;  -53.067;  -69.133;    0.000;16.06667
 829.13;  -38.667;  -52.733;    0.000;14.06667
 829.38;  -55.867;  -79.000;    0.000;23.13334
 829.63;  -57.667;  -94.333;    0.000;36.66667
 829.88;  -79.667;  -86.267;    0.000; 6.60001
 830.14;  -43.133;  -94.733;    0.000;51.59999
 830.39;  -53.867;  -70.200;    0.000;16.33333
 830.64;  -51.800;  -89.933;    0.000;38.13334
 830.89;  -34.067;  -50.200;    0.000;16.13334
 831.14;  -60.667;  -68.067;    0.000; 7.40000
 831.39;  -84.667;  -93.333;    0.000; 8.66667
 831.65;  -73.067;  -92.933;    0.000;19.86667
 831.90;  -61.133;  -88.400;    0.000;27.26667
 832.15;  -59.333;  -77.933;    0.000;18.60000
 832.40;  -50.000;  -75.067;    0.000;25.06667
 832.65;  -62.133;  -79.667;    0.000;17.53333
 832.90;  -67.667;  -83.067;    0.000;15.40000
 833.16;  -60.800;  -79.467;    0.000;18.66667
 833.41;  -76.400;  -72.933;    0.000;-3.46667
 833.66;  -58.333;  -84.200;    0.000;25.86666
 833.91;  -55.467;  -63.133;    0.000; 7.66667
 834.16;  -54.267;  -82.600;    0.000;28.33333
 834.41;  -65.133;  -66.333;    0.000; 1.20000
 834.66;  -45.800;  -72.400;    0.000;26.60000
 834.92;  -54.733;  -69.933;    0.000;15.20000
 835.17;  -69.133;  -88.200;    0.000;19.06667
 835.42;  -66.733;  -80.800;    0.000;14.06667
 835.67;  -51.533;  -81.800;    0.000;30.26667
 835.92;  -71.400;  -79.667;    0.000; 8.26666
 836.17;  -60.933;  -92.933;    0.000;32.00000
 836.42;  -76.133;  -96.067;    0.000;19.93333
 836.67;  -61.067;  -85.667;    0.000;24.60000
 836.93;  -82.867;  -83.733;    0.000; 0.86666
 837.18;  -62.733;  -69.867;    0.000; 7.13334
 837.43;  -67.800;  -60.667;    0.000;-7.13334
 837.68;  -27.733;  -68.000;    0.000;40.26667
 837.93;  -76.933;  -96.467;    0.000;19.53333
 838.18;  -62.600;  -71.733;    0.000; 9.13333
 838.43;  -69.267;  -85.600;    0.000;16.33333
 838.68;  -52.000;  -64.067;    0.000;12.06667
 838.93;  -65.733;  -82.933;    0.000;17.20000
 839.18;  -64.933;  -88.400;    0.000;23.46667
 839.43;  -56.000;  -77.333;    0.000;21.33334
 839.69;  -54.933;  -80.667;    0.000;25.73333
 839.94;  -73.467;  -98.200;    0.000;24.73333
 840.19;  -60.467;  -69.067;    0.000; 8.60000
 840.44;  -69.667;  -73.933;    0.000; 4.26667
 840.69;  -41.067;  -59.533;    0.000;18.46667
 840.94;  -68.400;  -68.733;    0.000; 0.33333
 841.19;  -29.067;  -72.733;    0.000;43.66666
 841.44;  -71.200;  -90.333;    0.000;19.13334
 841.69;  -37.667;  -51.800;    0.000;14.13333
 841.94;  -75.933;  -89.667;    0.000;13.73333
 842.19;  -67.000;  -76.467;    0.000; 9.46667
 842.44;  -82.867;  -83.933;    0.000; 1.06667
 842.69;  -55.533;  -70.800;    0.000;15.26667
 842.94;  -64.333;  -86.000;    0.000;21.66666
 843.19;  -71.533;  -90.733;    0.000;19.20000
 843.44;  -52.467;  -81.733;    0.000;29.26666
 843.69;  -57.600;  -81.533;    0.000;23.93333
 843.94;  -18.333;  -27.133;    0.000; 8.80000
 844.19;  -78.667;  -87.800;    0.000; 9.13334
 844.44;  -57.933;  -64.733;    0.000; 6.80000
 844.69;  -61.533;  -81.800;    0.000;20.26667
 844.95;  -73.333;  -88.000;    0.000;14.66666
 845.20;  -70.933;  -96.200;    0.000;25.26666
 845.45;  -50.533;  -57.067;    0.000; 6.53333
 845.70;  -58.867;  -69.933;    0.000;11.06667
 845.95;  -58.333;  -84.267;    0.000;25.93334
 846.20;  -50.133;  -81.133;    0.000;31.00000
 846.45;  -81.267;  -76.267;    0.000;-5.00000
 846.70;  -59.800;  -90.333;    0.000;30.53334
 846.95;  -74.000;  -88.867;    0.000;14.86667
 847.20;  -70.333;  -77.933;    0.000; 7.60000
 847.44;  -38.200;  -40.467;    0.000; 2.26667
 847.69;  -62.600;  -90.467;    0.000;27.86667
 847.94;  -61.733;  -73.400;    0.000;11.66667
 848.19;  -64.267;  -75.467;    0.000;11.20000
 848.44;  -49.733;  -61.867;    0.000;12.13333
 848.69;  -66.133;  -89.533;    0.000;23.40000
 848.94;  -61.200;  -63.000;    0.000; 1.80000
 849.19;  -53.933;  -85.333;    0.000;31.40000
 849.44;  -73.467;  -88.333;    0.000;14.86667
 849.69;  -59.667;  -82.667;    0.000;23.00000
 849.94;  -70.867;  -87.933;    0.000;17.06667
 850.19;  -52.267;  -79.267;    0.000;27.00000
 850.44;  -74.000;  -49.733;    0.000;-24.26667
 850.69;  -66.733;  -80.067;    0.000;13.33334
 850.94;  -73.267;  -80.800;    0.000; 7.53333
 851.19;  -49.533;  -80.667;    0.000;31.13333
 851.44;  -77.667;  -70.933;    0.000;-6.73333
 851.69;  -67.200;  -51.467;    0.000;-15.73333
 851.94;  -67.333;  -55.733;    0.000;-11.60000
 852.19;  -44.667;  -63.333;    0.000;18.66666
 852.44;  -70.267;  -76.333;    0.000; 6.06667
 852.68;  -61.467;  -80.800;    0.000;19.33334
 852.93;  -55.067;  -63.133;    0.000; 8.06667
 853.18;  -69.800;  -86.467;    0.000;16.66666
 853.43;  -72.733;  -72.067;    0.000;-0.66666
 853.68;  -56.467;  -79.733;    0.000;23.26666
 853.93;  -57.400;  -74.267;    0.000;16.86667
 854.18;  -51.867;  -83.800;    0.000;31.93334
 854.43;  -64.400;  -51.733;    0.000;-12.66667
 854.68;  -51.400;  -58.067;    0.000; 6.66666
 854.93;  -51.867;  -67.667;    0.000;15.80000
 855.18;  -47.800;  -75.067;    0.000;27.26667
 855.42;  -52.133;  -65.200;    0.000;13.06666
 855.67;  -65.200;  -78.733;    0.000;13.53333
 855.92;  -65.667;  -84.067;    0.000;18.40000
 856.17;  -47.067;  -70.067;    0.000;23.00000
 856.42;  -69.400;  -83.333;    0.000;13.93333
 856.67;  -32.067;  -78.067;    0.000;46.00000
 856.92;  -45.867;  -57.200;    0.000;11.33334
 857.17;  -77.667;  -77.533;    0.000;-0.13333
 857.41;  -71.800;  -63.267;    0.000;-8.53334
 857.66;  -71.133;  -79.400;    0.000; 8.26667
 857.91;  -70.533;  -71.467;    0.000; 0.93333
 858.16;  -55.067;  -77.667;    0.000;22.60000
 858.41;  -72.267;  -70.933;    0.000;-1.33334
 858.66;  -58.467;  -74.733;    0.000;16.26666
 858.91;  -57.533;  -69.200;    0.000;11.66666
 859.15;  -55.133;  -71.333;    0.000;16.20000
 859.40;  -34.533;  -66.400;    0.000;31.86667
 859.65;  -67.800;  -94.733;    0.000;26.93333
 859.90;  -87.667;  -90.867;    0.000; 3.20000
 860.15;  -54.933;  -80.400;    0.000;25.46667
 860.40;  -57.467;  -54.200;    0.000;-3.26667
 860.64;  -69.000;  -66.733;    0.000;-2.26667
 860.89;  -83.800;  -67.067;    0.000;-16.73334
 861.14;  -68.133;  -72.067;    0.000; 3.93333
 861.39;  -62.000;  -49.200;    0.000;-12.80000
 861.64;  -65.200;  -72.533;    0.000; 7.33334
 861.88;  -54.467;  -59.333;    0.000; 4.86666
 862.13;  -52.533;  -70.733;    0.000;18.20000
 862.38;  -79.733;  -91.467;    0.000;11.73334
 862.63;  -61.600;  -62.533;    0.000; 0.93333
 862.88;  -87.733;  -64.333;    0.000;-23.39999
 863.12;  -38.200;  -64.267;    0.000;26.06667
 863.37;  -72.467;  -82.400;    0.000; 9.93333
 863.62;  -57.267;  -57.933;    0.000; 0.66667
 863.87;  -86.467;  -82.133;    0.000;-4.33334
 864.12;  -70.067;  -63.733;    0.000;-6.33333
 864.36;  -69.000;  -79.067;    0.000;10.06667
 864.61;  -53.533;  -86.467;    0.000;32.93333
 864.86;  -74.333;  -56.000;    0.000;-18.33334
 865.11;  -35.733;  -72.800;    0.000;37.06667
 865.35;  -69.600;  -53.067;    0.000;-16.53333
 865.60;  -47.600;  -72.200;    0.000;24.60000
 865.85;  -47.667;  -60.067;    0.000;12.40000
 866.10;  -54.133;  -57.400;    0.000; 3.26667
 866.34;  -73.533;  -75.667;    0.000; 2.13333
 866.59;  -24.133;  -65.933;    0.000;41.80000
 866.84;  -60.733;  -67.067;    0.000; 6.33333
 867.09;  -63.267;  -69.800;    0.000; 6.53334
 867.33;  -79.133;  -77.067;    0.000;-2.06667
 867.58;  -47.867;  -76.667;    0.000;28.80000
 867.83;  -70.267;  -80.067;    0.000; 9.80000
 868.08;  -37.400;  -68.600;    0.000;31.20000
 868.32;  -56.267;  -56.600;    0.000; 0.33333
 868.57;  -71.533;  -70.333;    0.000;-1.20000
 868.82;  -57.933;  -69.800;    0.000;11.86667
 869.07;  -62.733;  -81.400;    0.000;18.66667
 869.31;  -70.133;  -51.267;    0.000;-18.86666
 869.56;  -88.133;  -78.867;    0.000;-9.26666
 869.81;  -63.600;  -79.467;    0.000;15.86667
 870.05;  -77.600; -100.400;    0.000;22.80000
 870.30;  -44.267;  -63.800;    0.000;19.53333
 870.55;  -47.800;  -43.133;    0.000;-4.66666
 870.80;  -55.933;  -54.933;    0.000;-1.00000
 871.04;  -69.800;  -60.133;    0.000;-9.66667
 871.29;  -59.000;  -73.333;    0.000;14.33334
 871.54;  -65.067;  -73.467;    0.000; 8.40000
 871.78;  -89.267;  -87.800;    0.000;-1.46667
 872.03;  -51.800;  -74.467;    0.000;22.66667
 872.28;  -66.200;  -67.733;    0.000; 1.53333
 872.52;  -48.667;  -69.133;    0.000;20.46666
 872.77;  -55.933;  -90.133;    0.000;34.20000
 873.02;  -81.933;  -83.000;    0.000; 1.06667
 873.26;  -79.400;  -74.200;    0.000;-5.20000
 873.51;  -52.667;  -51.200;    0.000;-1.46667
 873.76;  -53.600;  -79.600;    0.000;26.00000
 874.00;  -41.267;  -52.467;    0.000;11.20000
 874.25;  -65.867;  -77.800;    0.000;11.93333
 874.50;  -49.933;  -72.200;    0.000;22.26666
 874.74;  -81.933;  -75.933;    0.000;-6.00000
 874.99;  -53.000;  -64.733;    0.000;11.73333
 875.24;  -41.133;  -31.867;    0.000;-9.26667
 875.48;  -63.333;  -58.667;    0.000;-4.66666
 875.73;  -65.333;  -79.400;    0.000;14.06667
 875.98;  -35.800;  -60.000;    0.000;24.20000
 876.22;  -59.133;  -54.333;    0.000;-4.80000
 876.47;  -39.400;  -67.867;    0.000;28.46667
 876.71;  -63.733;  -64.667;    0.000; 0.93333
 876.96;  -27.800;  -53.800;    0.000;26.00000
 877.21;  -69.600;  -65.067;    0.000;-4.53333
 877.45;  -72.800;  -62.133;    0.000;-10.66667
 877.70;  -47.533;  -58.467;    0.000;10.93333
 877.95;  -37.267;  -52.333;    0.000;15.06667
 878.19;  -48.000;  -46.933;    0.000;-1.06667
 878.44;  -63.067;  -64.667;    0.000; 1.60000
 878.68;  -15.000;  -31.267;    0.000;16.26667
 878.93;  -46.200;  -42.467;    0.000;-3.73333
 879.18;  -60.067;  -62.267;    0.000; 2.20000
 879.42;  -47.067;  -50.200;    0.000; 3.13334
 879.67;  -69.333;  -94.267;    0.000;24.93333
 879.91;  -40.067;  -61.467;    0.000;21.40000
 880.16;  -46.400;  -52.867;    0.000; 6.46666
 880.40;  -39.933;  -74.333;    0.000;34.40000
 880.65;  -51.200;  -66.000;    0.000;14.80000
 880.90;  -34.467;  -51.600;    0.000;17.13333
 881.14;  -58.200;  -42.867;    0.000;-15.33334
 881.39;  -53.867;  -67.533;    0.000;13.66667
 881.63;  -54.600;  -57.200;    0.000; 2.60000
 881.88;  -55.267;  -49.200;    0.000;-6.06667
 882.12;  -66.200;  -65.933;    0.000;-0.26666
 882.37;  -40.000;  -41.133;    0.000; 1.13334
 882.62;  -71.800;  -60.467;    0.000;-11.33334
 882.86;  -60.667;  -76.867;    0.000;16.20000
 883.11;  -64.000;  -53.667;    0.000;-10.33333
 883.35;  -25.133;  -57.867;    0.000;32.73333
 883.60;  -40.933;  -33.000;    0.000;-7.93333
 883.84;  -41.667;  -66.400;    0.000;24.73333
 884.09;  -58.133;  -54.200;    0.000;-3.93333
 884.33;  -50.200;  -55.733;    0.000; 5.53333
 884.58;  -31.000;  -54.333;    0.000;23.33333
 884.82;  -44.333;  -53.667;    0.000; 9.33334
 885.07;  -47.133;  -45.333;    0.000;-1.80000
 885.31;  -31.600;  -65.933;    0.000;34.33333
 885.56;  -35.467;  -37.133;    0.000; 1.66667
 885.80;  -29.533;  -53.733;    0.000;24.20000
 886.05;  -52.600;  -78.867;    0.000;26.26667
 886.29;  -32.600;  -48.400;    0.000;15.80000
 886.54;  -56.667;  -59.800;    0.000; 3.13333
 886.78;  -19.600;  -52.133;    0.000;32.53333
 887.03;  -40.267;  -42.867;    0.000; 2.60000
 887.27;  -18.533;  -29.067;    0.000;10.53333
 887.52;  -44.333;  -80.600;    0.000;36.26667
 887.76;  -13.133;  -53.333;    0.000;40.20000
 888.01;  -35.333;  -54.533;    0.000;19.20000
 888.25;  -19.400;  -61.400;    0.000;42.00000
 888.50;  -44.000;  -41.000;    0.000;-3.00000
 888.74;  -26.933;  -36.133;    0.000; 9.20000
 888.99;  -40.000;  -53.800;    0.000;13.80000
 889.23;  -33.000;  -45.867;    0.000;12.86666
 889.48;  -37.000;  -61.600;    0.000;24.60000
 889.72;  -33.933;  -33.600;    0.000;-0.33334
 889.97;  -25.467;  -54.000;    0.000;28.53333
 890.21;  -29.667;  -15.533;    0.000;-14.13333
 890.46;  -18.933;  -26.333;    0.000; 7.40000
 890.70;  -39.000;  -35.267;    0.000;-3.73333
 890.94;  -27.667;  -38.333;    0.000;10.66667
 891.19;  -29.467;  -42.733;    0.000;13.26667
 891.43;  -32.600;  -27.400;    0.000;-5.20000
 891.68;   -0.733;  -24.933;    0.000;24.20000
 891.92;  -40.733;  -50.667;    0.000; 9.93333
 892.17;  -11.267;  -22.533;    0.000;11.26667
 892.41;  -45.933;  -34.800;    0.000;-11.13334
 892.66;  -34.400;  -40.933;    0.000; 6.53333
 892.90;    4.067;  -22.800;    0.000;26.86667
 893.14;  -24.600;  -46.800;    0.000;22.20000
 893.39;  -25.067;  -31.400;    0.000; 6.33333
 893.63;  -40.667;  -46.733;    0.000; 6.06667
 893.88;  -66.467;  -52.000;    0.000;-14.46667
 894.12;  -24.133;  -34.333;    0.000;10.20000
 894.36;   -8.600;  -45.533;    0.000;36.93333
 894.61;  -13.533;  -27.067;    0.000;13.53333
 894.85;  -23.400;  -26.333;    0.000; 2.93333
 895.10;   -4.733;  -23.067;    0.000;18.33333
 895.34;  -39.267;  -28.467;    0.000;-10.80000
 895.58;    3.333;  -24.667;    0.000;28.00000
 895.83;  -23.000;  -29.067;    0.000; 6.06667
 896.07;  -15.800;  -29.067;    0.000;13.26667
 896.32;  -15.733;  -11.267;    0.000;-4.46667
 896.56;   18.667;  -10.333;    0.000;29.00000
 896.80;  -18.267;  -32.867;    0.000;14.60000
 897.05;    6.000;  -32.933;    0.000;38.93333
 897.29;  -11.267;   -2.400;    0.000;-8.86667
 897.53;   -1.200;  -26.400;    0.000;25.20000
 897.78;   -8.667;   -9.000;    0.000; 0.33333
 898.02;   20.067;    2.333;    0.000;17.73333
 898.26;  -22.800;  -12.600;    0.000;-10.20000
 898.51;   19.200;  -15.400;    0.000;34.60000
 898.75;  -16.400;   -4.667;    0.000;-11.73333
 898.99;   21.400;   -7.333;    0.000;28.73333
 899.24;    3.733;  -23.533;    0.000;27.26667
 899.48;   23.733;   15.533;    0.000; 8.20000
 899.73;    6.733;   -6.867;    0.000;13.60000
 899.97;   39.867;   36.867;    0.000; 3.00000
 900.21;   19.533;   19.400;    0.000; 0.13333
 900.46;   21.200;   21.067;    0.000; 0.13333
 900.70;   30.133;   41.467;    0.000;-11.33333
 900.94;   44.467;   35.333;    0.000; 9.13334
 901.18;   44.800;   44.600;    0.000; 0.20000
 901.43;   56.267;   26.000;    0.000;30.26667
 901.67;   34.933;   30.000;    0.000; 4.93333
 901.91;   51.667;   49.200;    0.000; 2.46667
 902.16;   59.933;   39.733;    0.000;20.20000
 902.40;   93.733;   84.800;    0.000; 8.93333
 902.64;   60.733;   67.467;    0.000;-6.73333
 902.89;  102.133;   79.867;    0.000;22.26666
 903.13;   91.467;   84.000;    0.000; 7.46667
 903.37;  125.467;  107.200;    0.000;18.26667
 903.61;  147.200;  139.600;    0.000; 7.59999
 903.86;  151.733;  108.733;    0.000;43.00001
 904.10;  144.067;  158.133;    0.000;-14.06667
 904.34;  172.600;  176.000;    0.000;-3.39999
 904.59;  191.733;  180.733;    0.000;11.00000
 904.83;  255.067;  248.267;    0.000; 6.80000
 905.07;  255.333;  258.267;    0.000;-2.93333
 905.31;  290.933;  288.067;    0.000; 2.86664
 905.56;  323.133;  317.000;    0.000; 6.13333
 905.80;  418.467;  381.067;    0.000;37.39999

