point1
Integration time [ms]:  15.000
Averaging Nr. [scans]: 15
Smoothing Nr. [pixels]: 0
Data measured with spectrometer [name]: 1307078U2
Wave   ;Sample   ;Dark     ;Reference;Scope Corrected for Dark
[nm]   ;[counts] ;[counts] ;[counts] 

 351.07;   32.000;   -0.467;    0.000;32.46667
 351.37;    6.067;   -9.733;    0.000;15.80000
 351.66;   17.200;  -16.933;    0.000;34.13333
 351.95;   -0.933;   -3.067;    0.000; 2.13333
 352.24;   -7.200;  -14.000;    0.000; 6.80000
 352.54;    4.000;  -15.800;    0.000;19.80000
 352.83;  -10.400;    7.667;    0.000;-18.06667
 353.12;    7.467;   -4.400;    0.000;11.86667
 353.42;   -7.267;    3.400;    0.000;-10.66667
 353.71;   -2.600;  -13.600;    0.000;11.00000
 354.00;   30.800;   -0.867;    0.000;31.66667
 354.30;   -8.067;   -8.800;    0.000; 0.73333
 354.59;   15.600;   -0.533;    0.000;16.13333
 354.88;    4.867;  -15.800;    0.000;20.66667
 355.17;    0.600;   -0.267;    0.000; 0.86667
 355.47;   -5.867;  -26.933;    0.000;21.06667
 355.76;   17.933;    3.600;    0.000;14.33333
 356.05;    7.000;  -14.467;    0.000;21.46667
 356.35;   -9.467;    5.400;    0.000;-14.86667
 356.64;    3.933;   14.200;    0.000;-10.26667
 356.93;   -5.800;   -3.267;    0.000;-2.53333
 357.22;   22.200;   -2.333;    0.000;24.53333
 357.52;  -13.867;    5.400;    0.000;-19.26667
 357.81;    9.800;    4.200;    0.000; 5.60000
 358.10;    4.867;   -9.200;    0.000;14.06667
 358.39;    1.400;    9.067;    0.000;-7.66667
 358.69;  -10.933;    7.200;    0.000;-18.13333
 358.98;  -16.733;  -28.000;    0.000;11.26667
 359.27;    2.333;   -1.800;    0.000; 4.13333
 359.57;  -18.733;    3.533;    0.000;-22.26667
 359.86;  -17.867;    1.733;    0.000;-19.60000
 360.15;   11.333;    1.733;    0.000; 9.60000
 360.44;    6.600;   -6.867;    0.000;13.46667
 360.74;   -1.400;   -0.400;    0.000;-1.00000
 361.03;   10.133;  -13.867;    0.000;24.00000
 361.32;    2.800;   10.467;    0.000;-7.66667
 361.61;    8.600;  -21.600;    0.000;30.20000
 361.91;   -3.933;    2.200;    0.000;-6.13333
 362.20;  -16.867;  -12.333;    0.000;-4.53333
 362.49;   12.200;  -14.800;    0.000;27.00000
 362.78;   18.067;  -15.800;    0.000;33.86667
 363.08;   -5.267;   -4.133;    0.000;-1.13333
 363.37;   -6.333;   -9.200;    0.000; 2.86667
 363.66;   13.333;   -3.667;    0.000;17.00000
 363.95;   -4.267;  -16.000;    0.000;11.73333
 364.24;  -12.600;   -0.733;    0.000;-11.86667
 364.54;   -1.267;   -6.733;    0.000; 5.46667
 364.83;    7.600;  -21.067;    0.000;28.66667
 365.12;  -12.933;  -13.800;    0.000; 0.86667
 365.41;   -2.867;    0.733;    0.000;-3.60000
 365.71;   22.467;    0.200;    0.000;22.26667
 366.00;  -14.400;   -7.733;    0.000;-6.66667
 366.29;  -11.067;  -12.667;    0.000; 1.60000
 366.58;    9.600;   -6.533;    0.000;16.13333
 366.87;   17.267;    7.333;    0.000; 9.93333
 367.17;   15.733;   -2.200;    0.000;17.93333
 367.46;   -2.067;   -6.133;    0.000; 4.06667
 367.75;    8.267;  -22.333;    0.000;30.60000
 368.04;  -10.200;  -11.333;    0.000; 1.13333
 368.34;  -16.267;   -2.667;    0.000;-13.60000
 368.63;    7.600;  -12.933;    0.000;20.53333
 368.92;   20.733;   18.867;    0.000; 1.86667
 369.21;    1.133;    6.933;    0.000;-5.80000
 369.50;    0.067;   -3.733;    0.000; 3.80000
 369.80;   -0.600;  -16.533;    0.000;15.93333
 370.09;  -12.933;  -12.067;    0.000;-0.86667
 370.38;   -1.067;   -0.533;    0.000;-0.53333
 370.67;  -16.333;  -23.467;    0.000; 7.13333
 370.96;    0.933;  -26.133;    0.000;27.06667
 371.26;   -5.400;   -4.600;    0.000;-0.80000
 371.55;    1.200;  -20.400;    0.000;21.60000
 371.84;   -3.400;  -17.800;    0.000;14.40000
 372.13;    0.400;  -35.800;    0.000;36.20000
 372.42;   -3.000;   13.867;    0.000;-16.86667
 372.71;    7.200;   10.067;    0.000;-2.86667
 373.01;   10.667;    4.267;    0.000; 6.40000
 373.30;    2.133;  -13.733;    0.000;15.86667
 373.59;   18.733;  -10.800;    0.000;29.53333
 373.88;   10.400;  -11.600;    0.000;22.00000
 374.17;  -14.000;    7.467;    0.000;-21.46667
 374.46;    8.000;  -11.133;    0.000;19.13333
 374.76;   -0.667;   -7.267;    0.000; 6.60000
 375.05;   11.133;   11.267;    0.000;-0.13333
 375.34;  -14.467;  -15.067;    0.000; 0.60000
 375.63;   26.667;  -15.733;    0.000;42.40000
 375.92;   -2.267;  -15.800;    0.000;13.53333
 376.21;   -2.200;  -30.600;    0.000;28.40000
 376.51;   -3.200;  -15.200;    0.000;12.00000
 376.80;   10.933;  -17.733;    0.000;28.66667
 377.09;  -13.533;   -1.133;    0.000;-12.40000
 377.38;   21.933;  -14.333;    0.000;36.26667
 377.67;   -5.467;  -13.067;    0.000; 7.60000
 377.96;   -4.267;   -8.800;    0.000; 4.53333
 378.25;    9.600;  -10.533;    0.000;20.13333
 378.55;   -8.933;  -15.867;    0.000; 6.93333
 378.84;  -13.333;   -0.067;    0.000;-13.26667
 379.13;   19.467;   -3.467;    0.000;22.93333
 379.42;    2.867;   -4.933;    0.000; 7.80000
 379.71;   -7.600;  -16.933;    0.000; 9.33333
 380.00;  -11.733;   -2.933;    0.000;-8.80000
 380.29;   -9.267;  -10.800;    0.000; 1.53333
 380.59;   -9.400;   -2.733;    0.000;-6.66667
 380.88;   -1.600;   -9.000;    0.000; 7.40000
 381.17;    1.400;   -4.000;    0.000; 5.40000
 381.46;   13.467;  -18.867;    0.000;32.33333
 381.75;  -15.867;  -16.800;    0.000; 0.93333
 382.04;   17.667;   10.200;    0.000; 7.46667
 382.33;  -13.467;   -2.733;    0.000;-10.73333
 382.62;  -12.867;  -15.933;    0.000; 3.06667
 382.91;    4.200;  -22.333;    0.000;26.53333
 383.21;   -6.333;  -15.400;    0.000; 9.06667
 383.50;    3.400;   -4.467;    0.000; 7.86667
 383.79;   -9.467;   -5.933;    0.000;-3.53333
 384.08;   -6.733;    9.000;    0.000;-15.73333
 384.37;  -13.600;  -16.467;    0.000; 2.86667
 384.66;   -7.467;    6.267;    0.000;-13.73333
 384.95;  -13.800;  -19.067;    0.000; 5.26667
 385.24;  -22.733;  -10.133;    0.000;-12.60000
 385.53;  -17.133;   -4.267;    0.000;-12.86667
 385.83;  -22.800;  -32.200;    0.000; 9.40000
 386.12;   10.467;    5.800;    0.000; 4.66667
 386.41;    2.200;   -7.267;    0.000; 9.46667
 386.70;   -4.867;  -10.000;    0.000; 5.13333
 386.99;    7.200;    0.400;    0.000; 6.80000
 387.28;   10.067;   -0.333;    0.000;10.40000
 387.57;    1.400;  -10.600;    0.000;12.00000
 387.86;   12.267;  -19.333;    0.000;31.60000
 388.15;   -9.133;   -1.067;    0.000;-8.06667
 388.44;   -3.800;    1.400;    0.000;-5.20000
 388.73;  -19.000;   -4.733;    0.000;-14.26667
 389.02;   -0.267;  -23.400;    0.000;23.13333
 389.31;   -3.400;  -23.800;    0.000;20.40000
 389.61;   -3.067;  -12.933;    0.000; 9.86667
 389.90;   -9.533;  -10.067;    0.000; 0.53333
 390.19;   -0.533;   -9.600;    0.000; 9.06667
 390.48;    6.067;   -7.000;    0.000;13.06667
 390.77;   13.867;  -10.933;    0.000;24.80000
 391.06;  -13.800;    6.667;    0.000;-20.46667
 391.35;  -11.000;  -39.400;    0.000;28.40000
 391.64;   -9.200;    7.867;    0.000;-17.06667
 391.93;    0.267;  -11.467;    0.000;11.73333
 392.22;  -13.333;    0.000;    0.000;-13.33333
 392.51;    1.400;   -3.133;    0.000; 4.53333
 392.80;    8.333;   -8.133;    0.000;16.46667
 393.09;  -12.533;  -13.400;    0.000; 0.86667
 393.38;  -10.000;    1.867;    0.000;-11.86667
 393.67;    7.933;  -21.467;    0.000;29.40000
 393.96;   -1.000;   -9.333;    0.000; 8.33333
 394.25;  -16.333;  -34.267;    0.000;17.93333
 394.54;  -14.733;    1.067;    0.000;-15.80000
 394.83;   -1.533;  -23.200;    0.000;21.66667
 395.13;  -19.067;    1.867;    0.000;-20.93333
 395.42;    7.333;   -1.267;    0.000; 8.60000
 395.71;   23.133;  -13.000;    0.000;36.13333
 396.00;   -3.600;   -7.000;    0.000; 3.40000
 396.29;   -3.467;  -23.400;    0.000;19.93333
 396.58;   -8.000;  -29.000;    0.000;21.00000
 396.87;   -6.933;  -20.267;    0.000;13.33333
 397.16;  -12.133;  -25.533;    0.000;13.40000
 397.45;   -1.600;    1.667;    0.000;-3.26667
 397.74;  -15.400;  -18.533;    0.000; 3.13333
 398.03;   -3.667;  -25.133;    0.000;21.46667
 398.32;  -27.733;  -16.267;    0.000;-11.46667
 398.61;  -11.067;   -0.533;    0.000;-10.53333
 398.90;    5.067;  -15.000;    0.000;20.06667
 399.19;    1.467;  -15.667;    0.000;17.13333
 399.48;  -17.267;  -10.067;    0.000;-7.20000
 399.77;   -5.200;  -20.000;    0.000;14.80000
 400.06;  -11.133;   -0.267;    0.000;-10.86667
 400.35;  -12.533;   -5.867;    0.000;-6.66667
 400.64;   -6.000;  -21.333;    0.000;15.33333
 400.93;    1.267;   -9.267;    0.000;10.53333
 401.22;    0.067;  -13.067;    0.000;13.13333
 401.51;   -9.733;  -22.733;    0.000;13.00000
 401.80;  -21.067;    8.867;    0.000;-29.93333
 402.09;  -17.000;  -17.867;    0.000; 0.86667
 402.38;   -1.133;   -2.067;    0.000; 0.93333
 402.67;   -4.200;   -2.733;    0.000;-1.46667
 402.96;   11.467;    0.267;    0.000;11.20000
 403.25;   -2.600;   12.400;    0.000;-15.00000
 403.54;   -1.400;  -11.467;    0.000;10.06667
 403.83;   -7.133;  -22.333;    0.000;15.20000
 404.12;   -0.267;  -21.867;    0.000;21.60000
 404.41;    5.200;    0.333;    0.000; 4.86667
 404.70;  -23.667;   -1.133;    0.000;-22.53333
 404.98;    2.667;   -6.333;    0.000; 9.00000
 405.27;   -7.467;   -8.667;    0.000; 1.20000
 405.56;   -4.867;   -7.467;    0.000; 2.60000
 405.85;   -6.933;  -17.133;    0.000;10.20000
 406.14;   -5.667;   -3.467;    0.000;-2.20000
 406.43;   -6.800;  -24.733;    0.000;17.93333
 406.72;  -13.333;   -3.200;    0.000;-10.13333
 407.01;  -21.267;   -6.267;    0.000;-15.00000
 407.30;  -25.800;  -20.533;    0.000;-5.26667
 407.59;   -7.467;  -19.600;    0.000;12.13333
 407.88;   -1.133;   -9.733;    0.000; 8.60000
 408.17;   -9.867;  -13.867;    0.000; 4.00000
 408.46;    5.933;  -11.000;    0.000;16.93333
 408.75;    7.733;    9.067;    0.000;-1.33333
 409.04;    5.733;  -18.600;    0.000;24.33333
 409.33;   -4.933;   -2.133;    0.000;-2.80000
 409.62;    9.533;    0.933;    0.000; 8.60000
 409.91;   -5.267;  -35.533;    0.000;30.26667
 410.20;   15.467;  -14.133;    0.000;29.60000
 410.48;   24.933;   -4.667;    0.000;29.60000
 410.77;  -16.133;   -4.533;    0.000;-11.60000
 411.06;   -8.200;    5.467;    0.000;-13.66667
 411.35;    3.133;    1.467;    0.000; 1.66667
 411.64;    3.533;   -7.800;    0.000;11.33333
 411.93;   -2.867;    8.267;    0.000;-11.13333
 412.22;    9.533;  -30.267;    0.000;39.80000
 412.51;   -0.667;  -32.467;    0.000;31.80000
 412.80;    6.933;   -4.600;    0.000;11.53333
 413.09;    6.467;  -12.400;    0.000;18.86667
 413.38;    1.133;    4.267;    0.000;-3.13333
 413.67;  -14.267;   -4.667;    0.000;-9.60000
 413.96;  -21.933;  -24.400;    0.000; 2.46667
 414.24;   -6.200;    0.333;    0.000;-6.53333
 414.53;   -4.400;  -11.867;    0.000; 7.46667
 414.82;   -7.867;   -2.267;    0.000;-5.60000
 415.11;    2.933;   -6.267;    0.000; 9.20000
 415.40;    7.800;    2.667;    0.000; 5.13333
 415.69;   -3.867;  -13.667;    0.000; 9.80000
 415.98;    1.733;  -21.000;    0.000;22.73333
 416.27;  -23.200;  -40.400;    0.000;17.20000
 416.56;  -19.400;  -27.133;    0.000; 7.73333
 416.84;   -9.733;  -10.667;    0.000; 0.93333
 417.13;  -13.733;  -13.467;    0.000;-0.26667
 417.42;    5.200;  -22.667;    0.000;27.86667
 417.71;  -13.733;  -19.933;    0.000; 6.20000
 418.00;    8.133;   -6.333;    0.000;14.46667
 418.29;   18.733;  -17.133;    0.000;35.86667
 418.58;  -11.000;  -35.733;    0.000;24.73333
 418.87;  -15.867;  -34.600;    0.000;18.73333
 419.15;   -9.200;   -7.267;    0.000;-1.93333
 419.44;    3.267;  -17.667;    0.000;20.93333
 419.73;   -3.333;  -16.467;    0.000;13.13333
 420.02;  -15.533;  -15.600;    0.000; 0.06667
 420.31;   -3.933;  -11.733;    0.000; 7.80000
 420.60;  -24.600;  -10.133;    0.000;-14.46667
 420.89;  -17.267;  -22.133;    0.000; 4.86667
 421.18;    4.800;  -19.800;    0.000;24.60000
 421.46;   11.067;   -4.467;    0.000;15.53333
 421.75;   -2.267;   -2.600;    0.000; 0.33333
 422.04;  -10.333;  -18.467;    0.000; 8.13333
 422.33;    1.800;    0.933;    0.000; 0.86667
 422.62;    2.000;   -9.600;    0.000;11.60000
 422.91;   -4.400;  -23.533;    0.000;19.13333
 423.19;   -5.000;  -25.933;    0.000;20.93333
 423.48;  -12.867;   -7.000;    0.000;-5.86667
 423.77;    2.667;  -23.133;    0.000;25.80000
 424.06;  -14.200;  -17.733;    0.000; 3.53333
 424.35;   -4.867;  -27.667;    0.000;22.80000
 424.64;   10.400;    0.400;    0.000;10.00000
 424.93;  -28.933;  -33.933;    0.000; 5.00000
 425.21;  -14.067;   -9.800;    0.000;-4.26667
 425.50;   10.400;  -25.600;    0.000;36.00000
 425.79;    0.600;  -22.933;    0.000;23.53333
 426.08;    1.933;  -11.867;    0.000;13.80000
 426.37;  -22.533;  -11.733;    0.000;-10.80000
 426.65;  -13.933;  -22.333;    0.000; 8.40000
 426.94;   -3.733;  -36.400;    0.000;32.66667
 427.23;    6.333;  -14.667;    0.000;21.00000
 427.52;   -6.533;  -25.333;    0.000;18.80000
 427.81;  -25.733;  -38.733;    0.000;13.00000
 428.10;   19.467;   -7.200;    0.000;26.66667
 428.38;  -24.533;  -15.467;    0.000;-9.06667
 428.67;    1.733;  -30.267;    0.000;32.00000
 428.96;  -21.400;  -36.200;    0.000;14.80000
 429.25;    3.600;   -2.200;    0.000; 5.80000
 429.54;  -12.067;  -27.000;    0.000;14.93333
 429.82;   -1.467;   -9.733;    0.000; 8.26667
 430.11;   -5.267;  -17.067;    0.000;11.80000
 430.40;    3.800;   -6.267;    0.000;10.06667
 430.69;    1.667;   21.733;    0.000;-20.06667
 430.98;   12.067;  -23.333;    0.000;35.40000
 431.26;   -4.933;   -4.733;    0.000;-0.20000
 431.55;   -6.200;   -1.933;    0.000;-4.26667
 431.84;  -15.800;   -8.800;    0.000;-7.00000
 432.13;  -14.000;   -1.600;    0.000;-12.40000
 432.41;  -15.267;  -37.667;    0.000;22.40000
 432.70;   -8.733;  -14.733;    0.000; 6.00000
 432.99;  -10.600;  -40.867;    0.000;30.26666
 433.28;  -11.867;  -23.933;    0.000;12.06667
 433.57;  -10.133;  -26.133;    0.000;16.00000
 433.85;  -18.267;   -1.867;    0.000;-16.40000
 434.14;    3.267;   -9.533;    0.000;12.80000
 434.43;    8.533;  -21.267;    0.000;29.80000
 434.72;    9.267;   -8.533;    0.000;17.80000
 435.00;  -17.800;  -34.933;    0.000;17.13334
 435.29;   -8.800;  -24.333;    0.000;15.53333
 435.58;   -7.800;    7.067;    0.000;-14.86667
 435.87;   -1.867;  -18.067;    0.000;16.20000
 436.15;  -18.267;  -21.600;    0.000; 3.33333
 436.44;    0.533;   -7.000;    0.000; 7.53333
 436.73;  -17.800;   -8.400;    0.000;-9.40000
 437.02;  -14.533;  -20.667;    0.000; 6.13333
 437.30;    8.067;   -1.800;    0.000; 9.86667
 437.59;   -8.000;  -17.267;    0.000; 9.26667
 437.88;  -12.467;  -13.200;    0.000; 0.73333
 438.17;   -5.133;  -13.067;    0.000; 7.93333
 438.45;  -13.533;  -17.467;    0.000; 3.93333
 438.74;    8.600;  -15.200;    0.000;23.80000
 439.03;  -11.000;   -1.467;    0.000;-9.53333
 439.32;   -9.600;  -22.467;    0.000;12.86667
 439.60;   12.667;  -10.467;    0.000;23.13333
 439.89;   -0.667;  -21.933;    0.000;21.26667
 440.18;   -7.067;  -26.133;    0.000;19.06667
 440.46;    8.267;  -26.400;    0.000;34.66667
 440.75;  -13.267;  -21.733;    0.000; 8.46667
 441.04;  -17.600;  -30.133;    0.000;12.53333
 441.33;  -10.600;  -12.400;    0.000; 1.80000
 441.61;    0.067;  -18.400;    0.000;18.46667
 441.90;   -2.467;   -4.333;    0.000; 1.86667
 442.19;  -21.600;  -21.400;    0.000;-0.20000
 442.47;   -1.267;  -16.667;    0.000;15.40000
 442.76;   -8.400;  -26.333;    0.000;17.93333
 443.05;  -14.533;   -8.800;    0.000;-5.73333
 443.34;  -12.467;  -14.267;    0.000; 1.80000
 443.62;   -0.800;   -3.933;    0.000; 3.13333
 443.91;  -25.867;  -35.400;    0.000; 9.53333
 444.20;    8.400;   -6.200;    0.000;14.60000
 444.48;  -29.000;  -29.400;    0.000; 0.40000
 444.77;   20.800;   -0.267;    0.000;21.06667
 445.06;    0.600;  -25.600;    0.000;26.20000
 445.34;   -1.133;  -19.933;    0.000;18.80000
 445.63;   -6.267;   -5.267;    0.000;-1.00000
 445.92;    7.467;    2.267;    0.000; 5.20000
 446.21;   -9.733;  -33.667;    0.000;23.93333
 446.49;   -4.200;   -1.200;    0.000;-3.00000
 446.78;    3.400;   -1.933;    0.000; 5.33333
 447.07;   -2.800;  -34.000;    0.000;31.20000
 447.35;  -14.067;   -8.267;    0.000;-5.80000
 447.64;  -18.667;  -18.333;    0.000;-0.33333
 447.93;  -24.200;  -24.267;    0.000; 0.06667
 448.21;  -14.933;  -21.467;    0.000; 6.53333
 448.50;   -6.667;  -31.267;    0.000;24.60000
 448.79;  -32.067;  -20.333;    0.000;-11.73333
 449.07;    3.600;  -26.800;    0.000;30.40000
 449.36;   -8.467;  -23.333;    0.000;14.86667
 449.65;  -12.733;  -19.067;    0.000; 6.33333
 449.93;  -16.333;  -14.200;    0.000;-2.13333
 450.22;   -0.067;  -15.667;    0.000;15.60000
 450.51;  -20.000;  -39.067;    0.000;19.06667
 450.79;   -0.933;  -39.600;    0.000;38.66667
 451.08;   -5.267;  -21.867;    0.000;16.60000
 451.36;   -4.267;  -35.400;    0.000;31.13333
 451.65;  -27.267;  -14.733;    0.000;-12.53333
 451.94;  -21.933;  -35.933;    0.000;14.00000
 452.22;   -5.200;  -32.067;    0.000;26.86667
 452.51;   -7.467;  -36.667;    0.000;29.20000
 452.80;  -30.533;  -37.067;    0.000; 6.53333
 453.08;  -10.267;  -30.867;    0.000;20.60000
 453.37;  -21.667;  -12.667;    0.000;-9.00000
 453.66;   -6.333;  -23.067;    0.000;16.73333
 453.94;   -6.800;  -31.000;    0.000;24.20000
 454.23;   -9.600;  -27.733;    0.000;18.13333
 454.51;  -16.800;   -9.933;    0.000;-6.86667
 454.80;  -13.933;  -30.800;    0.000;16.86667
 455.09;  -17.933;  -28.933;    0.000;11.00000
 455.37;    9.000;  -33.600;    0.000;42.60000
 455.66;  -11.467;  -28.133;    0.000;16.66667
 455.95;  -15.533;  -21.400;    0.000; 5.86667
 456.23;  -13.067;  -20.933;    0.000; 7.86667
 456.52;  -23.800;  -28.200;    0.000; 4.40000
 456.80;  -26.267;  -29.933;    0.000; 3.66667
 457.09;  -15.867;  -23.800;    0.000; 7.93333
 457.38;    0.200;  -11.333;    0.000;11.53333
 457.66;    4.333;  -13.667;    0.000;18.00000
 457.95;  -23.067;   -7.867;    0.000;-15.20000
 458.23;  -10.600;  -37.000;    0.000;26.40000
 458.52;  -17.800;  -15.000;    0.000;-2.80000
 458.81;   -9.467;  -10.467;    0.000; 1.00000
 459.09;  -34.533;  -26.133;    0.000;-8.40000
 459.38;  -22.467;  -22.667;    0.000; 0.20000
 459.66;  -12.667;  -35.933;    0.000;23.26667
 459.95;  -18.267;  -48.267;    0.000;30.00000
 460.23;   -3.800;  -12.333;    0.000; 8.53333
 460.52;  -22.667;  -14.933;    0.000;-7.73333
 460.81;  -11.867;  -32.000;    0.000;20.13333
 461.09;  -39.733;  -39.133;    0.000;-0.60000
 461.38;   -7.067;  -21.267;    0.000;14.20000
 461.66;  -15.600;  -33.133;    0.000;17.53333
 461.95;  -29.333;  -34.067;    0.000; 4.73333
 462.23;   -8.067;  -17.800;    0.000; 9.73333
 462.52;  -17.200;  -24.600;    0.000; 7.40000
 462.81;  -13.600;  -17.533;    0.000; 3.93333
 463.09;  -28.800;  -45.400;    0.000;16.60000
 463.38;   -6.600;  -31.133;    0.000;24.53333
 463.66;  -35.133;  -19.467;    0.000;-15.66667
 463.95;   -0.800;   -5.333;    0.000; 4.53333
 464.23;  -27.133;  -27.333;    0.000; 0.20000
 464.52;  -14.333;  -23.267;    0.000; 8.93333
 464.80;  -13.667;  -18.067;    0.000; 4.40000
 465.09;   -9.400;  -18.333;    0.000; 8.93333
 465.38;  -38.400;  -32.800;    0.000;-5.60000
 465.66;   -5.000;  -11.667;    0.000; 6.66667
 465.95;  -10.467;  -19.267;    0.000; 8.80000
 466.23;  -17.800;  -34.400;    0.000;16.60000
 466.52;  -22.467;  -22.000;    0.000;-0.46667
 466.80;    5.667;   -6.067;    0.000;11.73333
 467.09;   -8.600;  -29.267;    0.000;20.66667
 467.37;  -12.000;  -32.933;    0.000;20.93333
 467.66;  -15.267;    8.000;    0.000;-23.26667
 467.94;  -22.600;  -34.733;    0.000;12.13333
 468.23;  -33.933;  -31.667;    0.000;-2.26667
 468.51;   -7.467;  -12.267;    0.000; 4.80000
 468.80;  -14.200;  -25.133;    0.000;10.93333
 469.08;    8.333;  -17.067;    0.000;25.40000
 469.37;  -11.067;  -38.200;    0.000;27.13333
 469.66;   -5.467;  -24.133;    0.000;18.66667
 469.94;  -10.933;  -17.200;    0.000; 6.26667
 470.23;   -3.800;  -13.000;    0.000; 9.20000
 470.51;  -18.467;  -41.600;    0.000;23.13333
 470.80;    7.000;  -12.867;    0.000;19.86667
 471.08;   -6.000;  -20.667;    0.000;14.66667
 471.37;  -19.000;  -16.600;    0.000;-2.40000
 471.65;   14.667;   -2.667;    0.000;17.33333
 471.94;  -25.933;  -30.267;    0.000; 4.33333
 472.22;  -17.800;  -39.933;    0.000;22.13334
 472.51;   -6.133;  -15.600;    0.000; 9.46667
 472.79;  -21.800;  -29.333;    0.000; 7.53333
 473.08;   -6.067;  -23.333;    0.000;17.26667
 473.36;   -4.867;  -19.333;    0.000;14.46667
 473.64;  -29.867;  -26.667;    0.000;-3.20000
 473.93;    0.733;  -20.267;    0.000;21.00000
 474.21;   11.000;  -26.667;    0.000;37.66667
 474.50;  -24.400;  -12.800;    0.000;-11.60000
 474.78;   18.400;    4.000;    0.000;14.40000
 475.07;  -25.133;  -19.267;    0.000;-5.86667
 475.35;  -32.333;  -21.400;    0.000;-10.93333
 475.64;  -18.733;  -14.000;    0.000;-4.73333
 475.92;  -15.733;  -29.800;    0.000;14.06667
 476.21;   -9.733;  -21.133;    0.000;11.40000
 476.49;  -20.400;  -30.800;    0.000;10.40000
 476.78;  -19.067;  -35.267;    0.000;16.20000
 477.06;  -23.600;  -28.333;    0.000; 4.73333
 477.35;    6.000;   -7.867;    0.000;13.86667
 477.63;  -26.067;  -38.067;    0.000;12.00000
 477.91;  -39.600;  -37.067;    0.000;-2.53333
 478.20;  -12.533;  -38.800;    0.000;26.26667
 478.48;   33.800;    8.600;    0.000;25.20000
 478.77;  -12.600;  -16.400;    0.000; 3.80000
 479.05;  -10.867;  -29.133;    0.000;18.26667
 479.34;    6.333;    1.133;    0.000; 5.20000
 479.62;  -26.933;  -15.133;    0.000;-11.80000
 479.91;   -9.733;  -23.200;    0.000;13.46667
 480.19;   -7.133;  -14.733;    0.000; 7.60000
 480.47;  -31.533;  -34.133;    0.000; 2.60000
 480.76;  -29.267;  -26.600;    0.000;-2.66667
 481.04;  -12.400;  -34.000;    0.000;21.60000
 481.33;    3.400;  -16.533;    0.000;19.93333
 481.61;  -20.933;  -28.467;    0.000; 7.53333
 481.90;  -19.467;  -34.067;    0.000;14.60000
 482.18;   -1.867;  -20.400;    0.000;18.53333
 482.46;   -7.467;  -37.933;    0.000;30.46667
 482.75;   -1.867;  -35.200;    0.000;33.33333
 483.03;  -12.733;  -27.667;    0.000;14.93333
 483.32;  -17.667;  -28.933;    0.000;11.26667
 483.60;  -11.800;  -21.400;    0.000; 9.60000
 483.88;  -15.200;  -22.000;    0.000; 6.80000
 484.17;  -13.400;  -16.133;    0.000; 2.73333
 484.45;   -0.200;  -23.867;    0.000;23.66667
 484.74;   -5.667;  -25.533;    0.000;19.86667
 485.02;  -14.267;  -17.867;    0.000; 3.60000
 485.30;  -10.800;   -3.333;    0.000;-7.46667
 485.59;    0.467;   -9.733;    0.000;10.20000
 485.87;   11.733;  -14.267;    0.000;26.00000
 486.16;    0.800;  -27.000;    0.000;27.80000
 486.44;  -23.133;  -30.867;    0.000; 7.73333
 486.72;   12.933;  -25.267;    0.000;38.20000
 487.01;  -15.733;  -30.533;    0.000;14.80000
 487.29;  -16.000;  -37.400;    0.000;21.40000
 487.58;   37.667;  -25.133;    0.000;62.80000
 487.86;   -8.133;  -24.667;    0.000;16.53333
 488.14;   -6.200;  -38.800;    0.000;32.60000
 488.43;   22.000;  -19.467;    0.000;41.46667
 488.71;    7.667;  -35.133;    0.000;42.80000
 488.99;   -9.267;  -16.200;    0.000; 6.93333
 489.28;   10.933;  -36.933;    0.000;47.86667
 489.56;   -5.600;  -24.467;    0.000;18.86667
 489.85;   13.733;  -30.000;    0.000;43.73333
 490.13;    4.933;  -22.200;    0.000;27.13333
 490.41;    4.333;  -36.867;    0.000;41.20000
 490.70;   21.533;  -52.467;    0.000;74.00000
 490.98;   20.400;  -46.933;    0.000;67.33333
 491.26;   18.667;  -48.400;    0.000;67.06667
 491.55;   28.667;  -30.067;    0.000;58.73333
 491.83;   43.667;   -7.133;    0.000;50.80000
 492.11;   53.800;  -23.000;    0.000;76.80000
 492.40;   52.067;  -27.533;    0.000;79.60000
 492.68;   63.933;  -22.400;    0.000;86.33333
 492.96;   68.600;  -35.000;    0.000;103.60000
 493.25;   61.800;  -33.867;    0.000;95.66666
 493.53;   82.933;  -26.267;    0.000;109.20000
 493.81;   69.867;  -37.267;    0.000;107.13334
 494.10;  135.400;  -29.200;    0.000;164.59999
 494.38;  145.067;  -29.067;    0.000;174.13333
 494.66;  142.267;  -19.800;    0.000;162.06666
 494.95;  167.867;  -24.533;    0.000;192.40000
 495.23;  172.867;  -19.800;    0.000;192.66667
 495.51;  215.800;  -18.867;    0.000;234.66667
 495.80;  214.133;  -26.533;    0.000;240.66666
 496.08;  259.600;  -15.867;    0.000;275.46667
 496.36;  281.267;  -11.000;    0.000;292.26666
 496.65;  275.600;  -30.600;    0.000;306.20001
 496.93;  346.000;  -43.533;    0.000;389.53333
 497.21;  373.533;  -20.533;    0.000;394.06666
 497.50;  421.867;   -9.400;    0.000;431.26667
 497.78;  432.933;  -36.733;    0.000;469.66665
 498.06;  419.733;  -22.733;    0.000;442.46667
 498.34;  498.800;  -20.400;    0.000;519.19999
 498.63;  569.200;  -34.667;    0.000;603.86668
 498.91;  605.800;  -23.200;    0.000;628.99999
 499.19;  619.533;  -16.800;    0.000;636.33332
 499.48;  677.000;  -23.067;    0.000;700.06667
 499.76;  766.133;  -19.067;    0.000;785.20003
 500.04;  811.067;  -23.267;    0.000;834.33332
 500.32;  877.667;  -15.467;    0.000;893.13335
 500.61;  898.467;  -34.733;    0.000;933.20001
 500.89;  999.933;  -26.800;    0.000;1026.73335
 501.17; 1046.267;   -9.533;    0.000;1055.80006
 501.46; 1128.400;  -34.067;    0.000;1162.46669
 501.74; 1184.667;  -31.400;    0.000;1216.06663
 502.02; 1235.933;  -12.933;    0.000;1248.86668
 502.30; 1340.000;  -29.467;    0.000;1369.46667
 502.59; 1390.600;  -32.933;    0.000;1423.53331
 502.87; 1469.267;  -34.667;    0.000;1503.93339
 503.15; 1565.267;  -13.133;    0.000;1578.40006
 503.43; 1650.067;  -26.400;    0.000;1676.46665
 503.72; 1725.533;  -34.800;    0.000;1760.33332
 504.00; 1873.267;  -18.467;    0.000;1891.73339
 504.28; 1936.533;  -34.200;    0.000;1970.73333
 504.56; 2026.467;  -17.333;    0.000;2043.80001
 504.85; 2134.600;  -14.067;    0.000;2148.66676
 505.13; 2173.067;  -43.867;    0.000;2216.93332
 505.41; 2296.267;  -30.267;    0.000;2326.53327
 505.69; 2448.800;  -28.067;    0.000;2476.86672
 505.98; 2552.533;  -13.467;    0.000;2566.00011
 506.26; 2693.200;  -30.267;    0.000;2723.46662
 506.54; 2758.600;  -19.867;    0.000;2778.46676
 506.82; 2856.000;  -33.200;    0.000;2889.20000
 507.11; 2946.133;  -35.533;    0.000;2981.66663
 507.39; 3080.933;  -37.467;    0.000;3118.40002
 507.67; 3198.533;  -33.733;    0.000;3232.26678
 507.95; 3358.400;  -27.067;    0.000;3385.46657
 508.23; 3531.600;  -27.133;    0.000;3558.73343
 508.52; 3632.067;  -32.267;    0.000;3664.33332
 508.80; 3704.667;  -48.467;    0.000;3753.13342
 509.08; 3828.067;  -35.400;    0.000;3863.46665
 509.36; 4013.333;  -38.467;    0.000;4051.79992
 509.65; 4111.933;  -23.800;    0.000;4135.73310
 509.93; 4239.667;  -40.000;    0.000;4279.66650
 510.21; 4401.400;  -36.067;    0.000;4437.46657
 510.49; 4574.800;  -33.800;    0.000;4608.59980
 510.77; 4640.200;  -31.400;    0.000;4671.60019
 511.06; 4864.467;  -34.000;    0.000;4898.46680
 511.34; 4933.533;  -28.533;    0.000;4962.06654
 511.62; 5143.200;  -52.267;    0.000;5195.46686
 511.90; 5264.933;  -44.600;    0.000;5309.53310
 512.18; 5383.533;  -43.467;    0.000;5426.99987
 512.47; 5561.133;  -27.267;    0.000;5588.39997
 512.75; 5686.533;  -54.200;    0.000;5740.73320
 513.03; 5851.267;  -20.333;    0.000;5871.59994
 513.31; 5999.933;  -32.733;    0.000;6032.66644
 513.59; 6026.800;  -34.333;    0.000;6061.13314
 513.87; 6278.333;  -46.933;    0.000;6325.26683
 514.16; 6438.467;  -11.600;    0.000;6450.06680
 514.44; 6569.933;  -20.733;    0.000;6590.66644
 514.72; 6692.667;  -35.533;    0.000;6728.19984
 515.00; 6858.467;  -20.200;    0.000;6878.66680
 515.28; 6982.800;  -15.800;    0.000;6998.59980
 515.56; 7069.600;  -37.400;    0.000;7107.00010
 515.85; 7256.933;  -21.933;    0.000;7278.86644
 516.13; 7450.467;  -42.733;    0.000;7493.20013
 516.41; 7567.733;  -30.333;    0.000;7598.06673
 516.69; 7742.133;  -45.200;    0.000;7787.33330
 516.97; 7877.267;  -20.933;    0.000;7898.19993
 517.25; 8054.867;  -22.733;    0.000;8077.60003
 517.54; 8109.067;  -27.200;    0.000;8136.26690
 517.82; 8220.800;  -27.933;    0.000;8248.73314
 518.10; 8326.134;  -14.000;    0.000;8340.13379
 518.38; 8572.600;  -51.467;    0.000;8624.06628
 518.66; 8685.200;  -46.000;    0.000;8731.20020
 518.94; 8837.000;  -28.267;    0.000;8865.26667
 519.22; 8931.934;  -20.533;    0.000;8952.46693
 519.51; 9052.066;  -38.133;    0.000;9090.19974
 519.79; 9199.134;  -30.867;    0.000;9230.00046
 520.07; 9308.733;  -18.600;    0.000;9327.33340
 520.35; 9399.934;  -26.667;    0.000;9426.60026
 520.63; 9684.533;  -30.667;    0.000;9715.19987
 520.91; 9748.267;  -44.400;    0.000;9792.66660
 521.19; 9731.267;  -37.133;    0.000;9768.39994
 521.47; 9877.066;  -30.200;    0.000;9907.26641
 521.75;10111.000;  -18.400;    0.000;10129.40000
 522.04;10065.866;  -42.867;    0.000;10108.73288
 522.32;10269.600;  -40.667;    0.000;10310.26628
 522.60;10410.866;  -16.067;    0.000;10426.93288
 522.88;10514.066;  -38.467;    0.000;10552.53307
 523.16;10635.400;  -42.933;    0.000;10678.33372
 523.44;10702.533;  -17.333;    0.000;10719.86654
 523.72;10801.800;  -19.133;    0.000;10820.93314
 524.00;10973.200;  -14.200;    0.000;10987.40020
 524.28;11099.200;  -41.333;    0.000;11140.53353
 524.57;11154.934;  -28.533;    0.000;11183.46693
 524.85;11188.600;  -20.933;    0.000;11209.53294
 525.13;11336.000;  -20.267;    0.000;11356.26667
 525.41;11499.267;  -13.533;    0.000;11512.79994
 525.69;11463.333;  -30.933;    0.000;11494.26634
 525.97;11670.333;  -13.467;    0.000;11683.79967
 526.25;11726.866;  -41.400;    0.000;11768.26621
 526.53;11841.667;  -28.467;    0.000;11870.13366
 526.81;11845.866;  -34.467;    0.000;11880.33288
 527.09;11948.667;  -26.000;    0.000;11974.66699
 527.37;12042.200;  -40.600;    0.000;12082.80019
 527.65;12173.134;  -36.933;    0.000;12210.06712
 527.93;12210.667;  -39.733;    0.000;12250.40033
 528.22;12359.467;  -12.733;    0.000;12372.20013
 528.50;12333.533;  -39.533;    0.000;12373.06654
 528.78;12444.333;  -13.867;    0.000;12458.19967
 529.06;12493.333;  -21.333;    0.000;12514.66634
 529.34;12637.333;  -27.933;    0.000;12665.26634
 529.62;12577.066;  -48.467;    0.000;12625.53307
 529.90;12766.333;  -42.733;    0.000;12809.06634
 530.18;12838.400;  -26.867;    0.000;12865.26706
 530.46;13027.934;  -23.533;    0.000;13051.46693
 530.74;13128.267;  -23.000;    0.000;13151.26660
 531.02;13199.333;  -20.800;    0.000;13220.13301
 531.30;13193.400;  -22.533;    0.000;13215.93372
 531.58;13243.600;  -30.800;    0.000;13274.39961
 531.86;13332.400;  -42.000;    0.000;13374.40039
 532.14;13296.934;  -34.733;    0.000;13331.66693
 532.42;13548.467;  -42.133;    0.000;13590.60013
 532.70;13458.533;  -27.200;    0.000;13485.73320
 532.98;13580.267;  -31.400;    0.000;13611.66660
 533.26;13558.667;  -14.000;    0.000;13572.66699
 533.54;13697.667;  -46.133;    0.000;13743.80033
 533.82;13712.134;  -33.467;    0.000;13745.60046
 534.10;13820.333;  -40.667;    0.000;13860.99968
 534.38;13851.333;  -29.267;    0.000;13880.59967
 534.66;13918.200;  -50.067;    0.000;13968.26686
 534.94;14120.667;  -21.800;    0.000;14142.46699
 535.22;14011.934;  -50.733;    0.000;14062.66693
 535.50;14246.533;  -29.933;    0.000;14276.46654
 535.78;14214.934;  -57.267;    0.000;14272.20026
 536.06;14229.600;  -50.533;    0.000;14280.13294
 536.34;14291.000;  -55.067;    0.000;14346.06667
 536.62;14309.467;  -33.400;    0.000;14342.86680
 536.90;14340.800;  -44.533;    0.000;14385.33314
 537.18;14369.533;  -23.600;    0.000;14393.13320
 537.46;14516.866;  -53.933;    0.000;14570.79955
 537.74;14552.066;  -38.400;    0.000;14590.46641
 538.02;14520.600;  -15.733;    0.000;14536.33294
 538.30;14646.533;  -30.267;    0.000;14676.79987
 538.58;14723.733;  -46.400;    0.000;14770.13340
 538.86;14692.866;  -34.733;    0.000;14727.59954
 539.14;14732.333;  -25.333;    0.000;14757.66634
 539.42;14808.134;  -22.067;    0.000;14830.20046
 539.70;14843.467;  -54.133;    0.000;14897.60013
 539.98;14921.934;  -11.467;    0.000;14933.40026
 540.26;15031.200;  -16.667;    0.000;15047.86686
 540.54;14890.667;  -38.000;    0.000;14928.66699
 540.82;14981.200;  -36.067;    0.000;15017.26686
 541.10;15148.934;  -25.067;    0.000;15174.00026
 541.38;15215.600;  -34.667;    0.000;15250.26628
 541.66;15165.733;  -18.600;    0.000;15184.33340
 541.94;15331.800;  -29.467;    0.000;15361.26647
 542.22;15295.600;  -28.533;    0.000;15324.13294
 542.50;15294.000;  -51.800;    0.000;15345.80000
 542.78;15489.267;  -26.200;    0.000;15515.46660
 543.06;15426.866;  -43.733;    0.000;15470.59954
 543.34;15466.600;  -44.200;    0.000;15510.79961
 543.62;15459.600;  -22.133;    0.000;15481.73294
 543.90;15481.600;  -31.000;    0.000;15512.59961
 544.17;15471.667;  -27.200;    0.000;15498.86699
 544.45;15596.267;  -34.667;    0.000;15630.93327
 544.73;15584.000;  -29.867;    0.000;15613.86667
 545.01;15691.934;  -10.667;    0.000;15702.60026
 545.29;15681.200;  -42.667;    0.000;15723.86686
 545.57;15749.934;  -14.400;    0.000;15764.33359
 545.85;15642.400;  -28.467;    0.000;15670.86706
 546.13;15678.066;  -19.400;    0.000;15697.46641
 546.41;15763.400;  -18.867;    0.000;15782.26706
 546.69;15840.066;  -36.600;    0.000;15876.66640
 546.97;15836.267;  -46.333;    0.000;15882.59993
 547.25;15985.134;  -34.200;    0.000;16019.33379
 547.52;15840.200;  -22.667;    0.000;15862.86686
 547.80;15938.066;  -30.600;    0.000;15968.66641
 548.08;15836.934;  -48.133;    0.000;15885.06693
 548.36;15901.667;  -28.867;    0.000;15930.53366
 548.64;16126.866;  -30.267;    0.000;16157.13288
 548.92;15982.200;  -36.800;    0.000;16019.00019
 549.20;16019.200;  -38.533;    0.000;16057.73353
 549.48;16119.467;  -27.133;    0.000;16146.60013
 549.76;16021.200;  -38.333;    0.000;16059.53353
 550.04;16085.066;  -29.867;    0.000;16114.93307
 550.31;16147.134;  -33.267;    0.000;16180.40046
 550.59;16141.400;  -31.533;    0.000;16172.93372
 550.87;16105.800;  -45.400;    0.000;16151.19981
 551.15;16185.934;  -19.267;    0.000;16205.20026
 551.43;16153.400;  -39.067;    0.000;16192.46706
 551.71;16190.134;  -31.667;    0.000;16221.80046
 551.99;16172.267;  -37.000;    0.000;16209.26660
 552.27;16150.134;  -30.533;    0.000;16180.66712
 552.54;16364.866;  -25.933;    0.000;16390.79954
 552.82;16317.600;  -26.600;    0.000;16344.19961
 553.10;16234.667;  -22.800;    0.000;16257.46699
 553.38;16259.533;  -32.333;    0.000;16291.86654
 553.66;16300.733;  -23.133;    0.000;16323.86673
 553.94;16286.000;  -36.200;    0.000;16322.20000
 554.22;16360.400;  -26.200;    0.000;16386.60039
 554.49;16274.733;  -11.067;    0.000;16285.80007
 554.77;16291.134;  -34.200;    0.000;16325.33379
 555.05;16170.934;  -24.867;    0.000;16195.80026
 555.33;16332.800;  -40.333;    0.000;16373.13314
 555.61;16279.333;  -45.733;    0.000;16325.06634
 555.89;16290.934;  -39.667;    0.000;16330.60026
 556.16;16283.800;  -49.933;    0.000;16333.73314
 556.44;16313.467;  -57.333;    0.000;16370.80013
 556.72;16355.467;  -27.000;    0.000;16382.46680
 557.00;16319.866;  -41.933;    0.000;16361.79955
 557.28;16339.134;  -31.133;    0.000;16370.26712
 557.56;16299.934;  -48.067;    0.000;16348.00026
 557.83;16273.600;  -25.400;    0.000;16298.99961
 558.11;16391.732;  -26.533;    0.000;16418.26575
 558.39;16289.333;  -50.467;    0.000;16339.79967
 558.67;16346.000;  -48.133;    0.000;16394.13334
 558.95;16321.800;  -46.600;    0.000;16368.39980
 559.23;16376.066;  -47.200;    0.000;16423.26641
 559.50;16330.866;  -35.933;    0.000;16366.79955
 559.78;16407.066;  -30.400;    0.000;16437.46641
 560.06;16485.133;  -42.667;    0.000;16527.79948
 560.34;16330.000;  -24.667;    0.000;16354.66667
 560.62;16459.666;  -29.467;    0.000;16489.13268
 560.89;16199.467;  -18.000;    0.000;16217.46680
 561.17;16176.333;  -30.733;    0.000;16207.06634
 561.45;16224.134;  -35.133;    0.000;16259.26712
 561.73;16242.934;  -32.933;    0.000;16275.86693
 562.00;16190.866;  -37.067;    0.000;16227.93288
 562.28;16110.533;  -25.000;    0.000;16135.53320
 562.56;16216.200;  -45.333;    0.000;16261.53353
 562.84;16169.667;  -17.133;    0.000;16186.80033
 563.12;16089.600;  -39.200;    0.000;16128.79961
 563.39;16077.733;  -40.267;    0.000;16118.00006
 563.67;16121.333;  -37.333;    0.000;16158.66634
 563.95;16027.800;  -17.667;    0.000;16045.46647
 564.23;16068.134;  -26.733;    0.000;16094.86712
 564.50;16084.400;  -33.533;    0.000;16117.93372
 564.78;16083.134;   -7.933;    0.000;16091.06712
 565.06;15894.800;  -30.000;    0.000;15924.79980
 565.34;15863.066;  -36.600;    0.000;15899.66640
 565.61;15922.000;  -43.600;    0.000;15965.60000
 565.89;15917.333;  -19.933;    0.000;15937.26634
 566.17;15886.866;  -34.333;    0.000;15921.19954
 566.45;15806.267;  -42.333;    0.000;15848.59993
 566.73;15717.600;  -30.200;    0.000;15747.79961
 567.00;15624.267;  -49.067;    0.000;15673.33327
 567.28;15809.333;  -40.000;    0.000;15849.33301
 567.56;15668.000;  -22.867;    0.000;15690.86667
 567.83;15764.600;  -43.533;    0.000;15808.13294
 568.11;15629.000;  -37.000;    0.000;15666.00000
 568.39;15551.934;  -27.000;    0.000;15578.93359
 568.67;15590.533;  -23.733;    0.000;15614.26654
 568.94;15476.866;  -23.600;    0.000;15500.46621
 569.22;15623.134;  -24.600;    0.000;15647.73379
 569.50;15528.533;  -43.267;    0.000;15571.79987
 569.78;15498.800;  -11.400;    0.000;15510.19980
 570.05;15355.200;  -33.333;    0.000;15388.53353
 570.33;15394.733;  -29.133;    0.000;15423.86673
 570.61;15305.533;  -40.000;    0.000;15345.53320
 570.88;15301.934;  -44.800;    0.000;15346.73359
 571.16;15343.934;  -29.467;    0.000;15373.40026
 571.44;15175.134;  -47.600;    0.000;15222.73379
 571.72;15153.066;  -31.467;    0.000;15184.53307
 571.99;15145.267;  -30.600;    0.000;15175.86660
 572.27;15140.134;  -41.133;    0.000;15181.26712
 572.55;14971.533;  -39.667;    0.000;15011.19987
 572.82;15072.200;  -27.133;    0.000;15099.33353
 573.10;15103.066;  -41.933;    0.000;15144.99974
 573.38;14870.600;  -59.867;    0.000;14930.46627
 573.65;14994.600;  -22.667;    0.000;15017.26628
 573.93;14804.400;  -48.933;    0.000;14853.33372
 574.21;14734.800;  -54.333;    0.000;14789.13314
 574.48;14718.667;  -51.267;    0.000;14769.93366
 574.76;14650.267;  -44.333;    0.000;14694.59993
 575.04;14655.800;  -25.333;    0.000;14681.13314
 575.32;14571.533;  -18.400;    0.000;14589.93320
 575.59;14654.467;  -29.333;    0.000;14683.80013
 575.87;14589.066;  -40.733;    0.000;14629.79974
 576.15;14574.934;  -20.133;    0.000;14595.06693
 576.42;14361.600;  -36.267;    0.000;14397.86628
 576.70;14274.000;  -39.467;    0.000;14313.46667
 576.98;14325.733;  -23.333;    0.000;14349.06673
 577.25;14297.934;  -37.200;    0.000;14335.13359
 577.53;14177.400;  -52.800;    0.000;14230.20039
 577.80;14103.600;  -40.333;    0.000;14143.93294
 578.08;14065.134;  -32.867;    0.000;14098.00045
 578.36;13951.467;  -36.133;    0.000;13987.60013
 578.63;14023.733;  -55.000;    0.000;14078.73340
 578.91;13947.267;  -30.867;    0.000;13978.13327
 579.19;13766.200;  -42.000;    0.000;13808.20020
 579.46;13844.333;  -32.533;    0.000;13876.86634
 579.74;13836.200;  -26.733;    0.000;13862.93353
 580.02;13648.733;  -28.267;    0.000;13677.00006
 580.29;13713.200;  -41.933;    0.000;13755.13353
 580.57;13530.134;  -45.200;    0.000;13575.33379
 580.84;13430.066;  -45.000;    0.000;13475.06641
 581.12;13396.134;   -9.333;    0.000;13405.46712
 581.40;13494.134;  -37.533;    0.000;13531.66712
 581.67;13398.667;  -44.533;    0.000;13443.20033
 581.95;13270.267;  -39.933;    0.000;13310.19994
 582.23;13296.934;  -27.800;    0.000;13324.73359
 582.50;13179.733;  -44.133;    0.000;13223.86673
 582.78;13144.733;  -38.800;    0.000;13183.53340
 583.05;12919.800;  -24.000;    0.000;12943.79980
 583.33;12899.066;  -19.800;    0.000;12918.86641
 583.61;12924.000;  -30.000;    0.000;12954.00000
 583.88;12757.667;  -38.267;    0.000;12795.93366
 584.16;12685.533;  -40.600;    0.000;12726.13320
 584.43;12674.667;  -43.933;    0.000;12718.60033
 584.71;12547.800;  -44.000;    0.000;12591.79980
 584.99;12588.200;  -27.400;    0.000;12615.60019
 585.26;12546.934;  -42.667;    0.000;12589.60026
 585.54;12375.333;  -31.200;    0.000;12406.53301
 585.81;12288.200;  -12.800;    0.000;12301.00020
 586.09;12345.800;  -17.267;    0.000;12363.06647
 586.37;12232.533;  -35.400;    0.000;12267.93320
 586.64;12197.600;  -40.267;    0.000;12237.86628
 586.92;12141.667;  -45.533;    0.000;12187.20033
 587.19;12075.267;  -41.467;    0.000;12116.73327
 587.47;11987.533;  -47.533;    0.000;12035.06654
 587.74;11969.733;  -31.467;    0.000;12001.20007
 588.02;11954.733;  -23.133;    0.000;11977.86673
 588.30;11787.267;  -46.467;    0.000;11833.73327
 588.57;11653.267;  -42.800;    0.000;11696.06660
 588.85;11565.467;  -34.267;    0.000;11599.73346
 589.12;11517.866;  -38.333;    0.000;11556.19954
 589.40;11521.800;  -27.733;    0.000;11549.53314
 589.67;11465.200;  -49.200;    0.000;11514.40020
 589.95;11466.733;  -27.400;    0.000;11494.13340
 590.22;11406.400;  -37.067;    0.000;11443.46706
 590.50;11281.400;  -45.333;    0.000;11326.73372
 590.77;11185.934;  -30.667;    0.000;11216.60026
 591.05;11229.400;  -32.600;    0.000;11262.00039
 591.33;11120.333;  -26.067;    0.000;11146.39968
 591.60;11075.733;  -55.267;    0.000;11131.00006
 591.88;10924.600;  -44.467;    0.000;10969.06628
 592.15;10832.267;  -57.200;    0.000;10889.46660
 592.43;10783.533;  -46.467;    0.000;10829.99987
 592.70;10720.533;  -40.067;    0.000;10760.59987
 592.98;10661.533;  -28.667;    0.000;10690.19987
 593.25;10594.667;  -21.467;    0.000;10616.13366
 593.53;10572.400;  -50.067;    0.000;10622.46706
 593.80;10428.800;  -49.467;    0.000;10478.26647
 594.08;10366.066;  -49.800;    0.000;10415.86641
 594.35;10389.667;  -46.200;    0.000;10435.86699
 594.63;10177.467;  -50.400;    0.000;10227.86680
 594.90;10119.733;  -29.067;    0.000;10148.80007
 595.18;10179.066;  -43.067;    0.000;10222.13307
 595.45;10094.333;  -32.600;    0.000;10126.93301
 595.73; 9977.400;  -56.533;    0.000;10033.93372
 596.00; 9918.800;  -39.400;    0.000;9958.19981
 596.28; 9900.667;  -41.733;    0.000;9942.40033
 596.55; 9876.134;  -38.867;    0.000;9915.00045
 596.83; 9701.667;  -44.467;    0.000;9746.13366
 597.10; 9607.866;  -24.267;    0.000;9632.13288
 597.38; 9568.733;  -50.867;    0.000;9619.60006
 597.65; 9510.000;  -42.400;    0.000;9552.40000
 597.93; 9475.000;  -48.267;    0.000;9523.26667
 598.20; 9430.134;  -46.133;    0.000;9476.26712
 598.48; 9199.066;  -43.733;    0.000;9242.79974
 598.75; 9276.400;  -61.400;    0.000;9337.80039
 599.03; 9148.267;  -46.400;    0.000;9194.66660
 599.30; 9177.467;  -40.667;    0.000;9218.13346
 599.58; 9112.866;  -40.400;    0.000;9153.26621
 599.85; 8950.667;  -43.533;    0.000;8994.20033
 600.12; 8949.333;  -33.000;    0.000;8982.33301
 600.40; 8868.267;  -43.933;    0.000;8912.19994
 600.67; 8839.533;  -62.400;    0.000;8901.93320
 600.95; 8813.333;  -46.800;    0.000;8860.13301
 601.22; 8588.000;  -30.733;    0.000;8618.73333
 601.50; 8687.467;  -30.800;    0.000;8718.26680
 601.77; 8623.066;  -33.333;    0.000;8656.39974
 602.05; 8487.533;  -28.800;    0.000;8516.33320
 602.32; 8408.800;  -25.533;    0.000;8434.33314
 602.59; 8353.200;  -41.467;    0.000;8394.66686
 602.87; 8332.533;  -36.133;    0.000;8368.66654
 603.14; 8240.200;  -34.733;    0.000;8274.93353
 603.42; 8133.067;  -51.733;    0.000;8184.80023
 603.69; 8191.867;  -37.733;    0.000;8229.60003
 603.97; 8021.733;  -68.133;    0.000;8089.86673
 604.24; 8029.467;  -38.933;    0.000;8068.40013
 604.51; 7983.400;  -14.667;    0.000;7998.06657
 604.79; 7854.000;  -32.267;    0.000;7886.26667
 605.06; 7868.067;  -44.133;    0.000;7912.20023
 605.34; 7808.333;  -33.400;    0.000;7841.73350
 605.61; 7661.600;  -43.000;    0.000;7704.60010
 605.89; 7705.800;  -33.867;    0.000;7739.66647
 606.16; 7659.133;  -40.200;    0.000;7699.33330
 606.43; 7562.800;  -36.800;    0.000;7599.59980
 606.71; 7564.667;  -33.933;    0.000;7598.59984
 606.98; 7445.000;  -41.467;    0.000;7486.46667
 607.26; 7488.867;  -24.000;    0.000;7512.86670
 607.53; 7322.000;  -38.867;    0.000;7360.86666
 607.80; 7400.733;  -21.067;    0.000;7421.80007
 608.08; 7188.133;  -37.600;    0.000;7225.73330
 608.35; 7136.867;  -48.333;    0.000;7185.20003
 608.62; 7163.533;  -52.200;    0.000;7215.73320
 608.90; 7114.000;  -29.733;    0.000;7143.73333
 609.17; 7103.067;  -48.600;    0.000;7151.66689
 609.45; 7041.400;  -44.933;    0.000;7086.33324
 609.72; 7039.533;  -45.133;    0.000;7084.66654
 609.99; 6996.933;  -31.933;    0.000;7028.86644
 610.27; 6957.533;  -42.600;    0.000;7000.13320
 610.54; 6861.733;  -37.333;    0.000;6899.06673
 610.81; 6828.600;  -30.200;    0.000;6858.80010
 611.09; 6807.467;  -46.933;    0.000;6854.40013
 611.36; 6744.467;  -31.333;    0.000;6775.80013
 611.64; 6748.333;  -32.600;    0.000;6780.93349
 611.91; 6595.000;  -37.000;    0.000;6632.00000
 612.18; 6594.333;  -48.267;    0.000;6642.60016
 612.46; 6584.733;  -16.667;    0.000;6601.40006
 612.73; 6428.133;  -29.933;    0.000;6458.06663
 613.00; 6488.200;  -38.533;    0.000;6526.73353
 613.28; 6474.133;  -38.267;    0.000;6512.39997
 613.55; 6413.133;  -48.067;    0.000;6461.19997
 613.82; 6325.267;  -64.267;    0.000;6389.53327
 614.10; 6297.333;  -64.067;    0.000;6361.40016
 614.37; 6239.467;  -36.533;    0.000;6276.00013
 614.64; 6120.467;  -49.333;    0.000;6169.80013
 614.92; 6063.800;  -58.667;    0.000;6122.46647
 615.19; 6038.667;  -23.533;    0.000;6062.19984
 615.46; 5913.267;  -45.133;    0.000;5958.39994
 615.74; 5902.267;  -23.200;    0.000;5925.46660
 616.01; 5760.333;  -63.467;    0.000;5823.80016
 616.28; 5626.733;  -41.467;    0.000;5668.20007
 616.56; 5625.067;  -48.600;    0.000;5673.66689
 616.83; 5487.200;  -20.467;    0.000;5507.66686
 617.10; 5445.333;  -26.333;    0.000;5471.66683
 617.37; 5462.933;  -31.933;    0.000;5494.86644
 617.65; 5464.600;  -30.933;    0.000;5495.53343
 617.92; 5493.867;  -41.733;    0.000;5535.60003
 618.19; 5534.467;  -42.533;    0.000;5577.00013
 618.47; 5421.800;  -36.667;    0.000;5458.46647
 618.74; 5417.867;  -40.933;    0.000;5458.80003
 619.01; 5407.133;  -64.067;    0.000;5471.19997
 619.28; 5373.600;  -52.800;    0.000;5426.40010
 619.56; 5387.333;  -49.533;    0.000;5436.86683
 619.83; 5304.333;  -53.467;    0.000;5357.80016
 620.10; 5280.600;  -36.667;    0.000;5317.26677
 620.38; 5248.800;  -63.933;    0.000;5312.73314
 620.65; 5195.533;  -43.400;    0.000;5238.93320
 620.92; 5185.067;  -43.000;    0.000;5228.06689
 621.19; 5137.533;  -44.133;    0.000;5181.66654
 621.47; 5150.733;  -43.133;    0.000;5193.86673
 621.74; 5130.400;  -41.000;    0.000;5171.39990
 622.01; 5154.533;  -44.333;    0.000;5198.86654
 622.28; 5253.667;  -15.200;    0.000;5268.86650
 622.56; 5223.933;  -30.200;    0.000;5254.13311
 622.83; 5150.000;  -55.067;    0.000;5205.06667
 623.10; 5086.000;  -47.267;    0.000;5133.26667
 623.38; 5116.600;  -42.600;    0.000;5159.20010
 623.65; 5062.267;  -28.333;    0.000;5090.59994
 623.92; 5062.200;  -40.933;    0.000;5103.13353
 624.19; 5054.133;  -75.400;    0.000;5129.53330
 624.46; 5052.733;  -31.400;    0.000;5084.13340
 624.74; 5033.667;  -29.600;    0.000;5063.26650
 625.01; 4889.800;  -33.333;    0.000;4923.13314
 625.28; 4902.133;  -36.800;    0.000;4938.93330
 625.55; 4939.267;  -42.667;    0.000;4981.93327
 625.83; 4940.333;  -50.200;    0.000;4990.53350
 626.10; 4887.600;  -41.667;    0.000;4929.26677
 626.37; 4830.333;  -43.333;    0.000;4873.66683
 626.64; 4862.467;  -45.867;    0.000;4908.33346
 626.92; 4821.867;  -52.467;    0.000;4874.33337
 627.19; 4837.333;  -45.600;    0.000;4882.93349
 627.46; 4749.000;  -32.800;    0.000;4781.80000
 627.73; 4750.200;  -49.800;    0.000;4800.00019
 628.00; 4697.867;  -45.533;    0.000;4743.40003
 628.28; 4665.933;  -24.533;    0.000;4690.46644
 628.55; 4743.333;  -56.267;    0.000;4799.60016
 628.82; 4659.000;  -32.667;    0.000;4691.66667
 629.09; 4635.067;  -42.467;    0.000;4677.53356
 629.36; 4583.533;  -28.733;    0.000;4612.26654
 629.64; 4651.800;  -16.333;    0.000;4668.13314
 629.91; 4589.867;  -41.467;    0.000;4631.33337
 630.18; 4529.467;  -42.667;    0.000;4572.13346
 630.45; 4501.733;  -47.933;    0.000;4549.66673
 630.72; 4525.400;  -68.667;    0.000;4594.06657
 631.00; 4489.467;  -33.333;    0.000;4522.80013
 631.27; 4441.333;  -54.867;    0.000;4496.20016
 631.54; 4472.867;  -33.400;    0.000;4506.26670
 631.81; 4435.533;  -53.667;    0.000;4489.19987
 632.08; 4425.667;  -44.267;    0.000;4469.93317
 632.35; 4381.933;  -19.867;    0.000;4401.79977
 632.63; 4397.400;  -59.067;    0.000;4456.46657
 632.90; 4361.533;  -47.600;    0.000;4409.13320
 633.17; 4356.400;  -38.333;    0.000;4394.73323
 633.44; 4276.333;  -57.467;    0.000;4333.80016
 633.71; 4352.533;  -55.667;    0.000;4408.19987
 633.98; 4315.400;  -45.000;    0.000;4360.39990
 634.25; 4332.333;  -59.133;    0.000;4391.46683
 634.53; 4301.867;  -36.333;    0.000;4338.20003
 634.80; 4293.867;  -53.333;    0.000;4347.20003
 635.07; 4264.667;  -53.933;    0.000;4318.59984
 635.34; 4236.533;  -28.400;    0.000;4264.93320
 635.61; 4210.333;  -55.533;    0.000;4265.86683
 635.88; 4272.733;  -45.200;    0.000;4317.93340
 636.15; 4290.000;  -26.200;    0.000;4316.20000
 636.43; 4310.133;  -50.200;    0.000;4360.33330
 636.70; 4224.133;  -37.467;    0.000;4261.59997
 636.97; 4308.333;  -48.867;    0.000;4357.20016
 637.24; 4155.667;  -53.067;    0.000;4208.73317
 637.51; 4139.800;  -24.800;    0.000;4164.59980
 637.78; 4008.000;  -53.000;    0.000;4061.00000
 638.05; 4087.067;  -41.067;    0.000;4128.13332
 638.32; 4015.000;  -31.533;    0.000;4046.53333
 638.60; 4037.533;  -28.133;    0.000;4065.66678
 638.87; 3973.267;  -62.667;    0.000;4035.93327
 639.14; 3993.333;  -47.867;    0.000;4041.19992
 639.41; 3910.600;  -43.867;    0.000;3954.46676
 639.68; 3818.000;  -37.467;    0.000;3855.46667
 639.95; 3879.200;  -60.533;    0.000;3939.73328
 640.22; 3824.200;  -50.000;    0.000;3874.19995
 640.49; 3821.400;  -32.400;    0.000;3853.79990
 640.76; 3802.800;  -47.200;    0.000;3850.00005
 641.03; 3735.333;  -56.133;    0.000;3791.46659
 641.30; 3713.533;  -50.933;    0.000;3764.46678
 641.58; 3657.867;  -49.000;    0.000;3706.86670
 641.85; 3666.400;  -61.467;    0.000;3727.86657
 642.12; 3581.400;  -27.933;    0.000;3609.33323
 642.39; 3514.267;  -47.933;    0.000;3562.19994
 642.66; 3565.733;  -58.133;    0.000;3623.86673
 642.93; 3541.200;  -38.733;    0.000;3579.93328
 643.20; 3474.533;  -31.133;    0.000;3505.66678
 643.47; 3493.867;  -64.467;    0.000;3558.33337
 643.74; 3419.467;  -37.067;    0.000;3456.53322
 644.01; 3425.867;  -51.000;    0.000;3476.86670
 644.28; 3384.867;  -45.000;    0.000;3429.86670
 644.55; 3340.667;  -49.200;    0.000;3389.86675
 644.82; 3333.467;  -50.000;    0.000;3383.46655
 645.09; 3356.933;  -33.600;    0.000;3390.53335
 645.36; 3293.000;  -33.333;    0.000;3326.33333
 645.63; 3313.600;  -40.467;    0.000;3354.06676
 645.91; 3251.667;  -53.600;    0.000;3305.26675
 646.18; 3248.467;  -29.533;    0.000;3277.99989
 646.45; 3239.467;  -44.933;    0.000;3284.39989
 646.72; 3192.867;  -51.000;    0.000;3243.86670
 646.99; 3220.133;  -59.867;    0.000;3279.99997
 647.26; 3135.533;  -44.200;    0.000;3179.73345
 647.53; 3105.667;  -51.133;    0.000;3156.80008
 647.80; 3097.933;  -11.667;    0.000;3109.60002
 648.07; 3032.600;  -45.933;    0.000;3078.53343
 648.34; 3123.400;  -39.000;    0.000;3162.39990
 648.61; 3038.600;  -42.267;    0.000;3080.86676
 648.88; 3044.133;  -63.800;    0.000;3107.93330
 649.15; 2996.067;  -55.333;    0.000;3051.39998
 649.42; 2959.933;  -52.400;    0.000;3012.33335
 649.69; 2951.933;  -34.733;    0.000;2986.66668
 649.96; 2915.400;  -39.267;    0.000;2954.66657
 650.23; 2973.333;  -47.333;    0.000;3020.66658
 650.50; 2955.133;  -28.600;    0.000;2983.73330
 650.77; 2858.333;  -58.200;    0.000;2916.53325
 651.04; 2911.067;  -43.867;    0.000;2954.93332
 651.31; 2858.000;  -58.400;    0.000;2916.40000
 651.58; 2867.000;  -34.667;    0.000;2901.66667
 651.85; 2826.533;  -48.400;    0.000;2874.93345
 652.12; 2772.333;  -24.933;    0.000;2797.26658
 652.39; 2830.867;  -53.933;    0.000;2884.80003
 652.66; 2746.467;  -49.333;    0.000;2795.79988
 652.93; 2798.533;  -51.133;    0.000;2849.66678
 653.20; 2763.600;  -53.467;    0.000;2817.06676
 653.47; 2742.333;  -46.133;    0.000;2788.46659
 653.74; 2726.667;  -45.200;    0.000;2771.86675
 654.01; 2630.200;  -38.533;    0.000;2668.73328
 654.28; 2682.600;  -44.867;    0.000;2727.46676
 654.55; 2656.867;  -66.867;    0.000;2723.73337
 654.81; 2639.467;  -46.467;    0.000;2685.93322
 655.08; 2630.467;  -45.133;    0.000;2675.59989
 655.35; 2618.867;  -49.533;    0.000;2668.40003
 655.62; 2574.667;  -36.400;    0.000;2611.06675
 655.89; 2527.933;  -46.267;    0.000;2574.20002
 656.16; 2554.267;  -52.133;    0.000;2606.39994
 656.43; 2495.267;  -50.867;    0.000;2546.13327
 656.70; 2501.667;  -44.800;    0.000;2546.46675
 656.97; 2472.600;  -54.200;    0.000;2526.80010
 657.24; 2477.733;  -53.267;    0.000;2531.00006
 657.51; 2467.800;  -76.267;    0.000;2544.06672
 657.78; 2464.067;  -49.733;    0.000;2513.79998
 658.05; 2402.000;  -64.067;    0.000;2466.06667
 658.32; 2424.333;  -66.333;    0.000;2490.66659
 658.59; 2370.933;  -43.133;    0.000;2414.06668
 658.86; 2395.067;  -67.133;    0.000;2462.19998
 659.12; 2366.667;  -30.000;    0.000;2396.66675
 659.39; 2313.400;  -44.133;    0.000;2357.53324
 659.66; 2326.333;  -42.267;    0.000;2368.59992
 659.93; 2313.600;  -37.867;    0.000;2351.46676
 660.20; 2305.800;  -56.133;    0.000;2361.93338
 660.47; 2274.667;  -54.200;    0.000;2328.86675
 660.74; 2218.800;  -38.400;    0.000;2257.20005
 661.01; 2240.067;  -44.133;    0.000;2284.19999
 661.28; 2215.267;  -47.667;    0.000;2262.93327
 661.55; 2287.400;   -5.533;    0.000;2292.93324
 661.81; 2180.467;  -55.200;    0.000;2235.66655
 662.08; 2208.800;  -46.733;    0.000;2255.53338
 662.35; 2141.333;  -46.800;    0.000;2188.13325
 662.62; 2155.000;  -50.000;    0.000;2205.00000
 662.89; 2126.533;  -45.600;    0.000;2172.13345
 663.16; 2100.267;  -49.867;    0.000;2150.13327
 663.43; 2105.533;  -44.733;    0.000;2150.26678
 663.70; 2063.000;  -55.667;    0.000;2118.66667
 663.96; 2051.133;  -45.267;    0.000;2096.39997
 664.23; 2007.800;  -52.600;    0.000;2060.40005
 664.50; 2020.800;  -55.600;    0.000;2076.40005
 664.77; 2012.467;  -51.333;    0.000;2063.80001
 665.04; 1990.133;  -54.400;    0.000;2044.53330
 665.31; 1997.733;  -59.800;    0.000;2057.53328
 665.58; 1970.667;  -48.133;    0.000;2018.79996
 665.84; 1948.867;  -35.333;    0.000;1984.20003
 666.11; 1988.067;  -56.733;    0.000;2044.79998
 666.38; 1954.667;  -46.600;    0.000;2001.26662
 666.65; 1896.867;  -41.400;    0.000;1938.26670
 666.92; 1923.267;  -63.600;    0.000;1986.86672
 667.19; 1874.133;  -62.200;    0.000;1936.33330
 667.46; 1884.933;  -44.067;    0.000;1929.00002
 667.72; 1873.400;  -38.333;    0.000;1911.73336
 667.99; 1875.200;  -43.200;    0.000;1918.39995
 668.26; 1833.467;  -51.867;    0.000;1885.33334
 668.53; 1794.600;  -57.067;    0.000;1851.66664
 668.80; 1794.467;  -25.333;    0.000;1819.80001
 669.06; 1769.400;  -42.933;    0.000;1812.33336
 669.33; 1768.733;  -38.533;    0.000;1807.26661
 669.60; 1748.267;  -47.800;    0.000;1796.06672
 669.87; 1722.400;  -51.467;    0.000;1773.86669
 670.14; 1734.200;  -47.467;    0.000;1781.66662
 670.41; 1712.800;  -45.600;    0.000;1758.40005
 670.67; 1734.600;  -52.333;    0.000;1786.93331
 670.94; 1679.600;  -57.067;    0.000;1736.66664
 671.21; 1670.867;  -37.133;    0.000;1708.00003
 671.48; 1607.467;  -63.533;    0.000;1671.00001
 671.75; 1622.000;  -43.867;    0.000;1665.86666
 672.01; 1622.000;  -41.267;    0.000;1663.26667
 672.28; 1599.133;  -28.467;    0.000;1627.59997
 672.55; 1625.667;  -41.200;    0.000;1666.86663
 672.82; 1618.733;  -45.133;    0.000;1663.86661
 673.08; 1616.200;  -47.667;    0.000;1663.86662
 673.35; 1559.200;  -60.000;    0.000;1619.19995
 673.62; 1540.200;  -58.933;    0.000;1599.13329
 673.89; 1518.200;  -54.067;    0.000;1572.26662
 674.16; 1578.600;  -52.267;    0.000;1630.86664
 674.42; 1511.667;  -41.133;    0.000;1552.79996
 674.69; 1470.533;  -36.733;    0.000;1507.26666
 674.96; 1522.000;  -52.933;    0.000;1574.93333
 675.23; 1466.200;  -69.933;    0.000;1536.13329
 675.49; 1474.400;  -59.400;    0.000;1533.80003
 675.76; 1446.400;  -54.733;    0.000;1501.13336
 676.03; 1437.133;  -30.667;    0.000;1467.79997
 676.30; 1395.267;  -51.600;    0.000;1446.86672
 676.56; 1449.333;  -55.533;    0.000;1504.86671
 676.83; 1379.067;  -40.467;    0.000;1419.53332
 677.10; 1382.000;  -51.133;    0.000;1433.13334
 677.37; 1407.867;  -23.667;    0.000;1431.53337
 677.63; 1375.933;  -54.933;    0.000;1430.86668
 677.90; 1381.067;  -48.200;    0.000;1429.26665
 678.17; 1351.067;  -53.200;    0.000;1404.26665
 678.44; 1349.067;  -34.333;    0.000;1383.39998
 678.70; 1321.333;  -54.533;    0.000;1375.86671
 678.97; 1320.867;  -49.000;    0.000;1369.86670
 679.24; 1319.067;  -54.000;    0.000;1373.06665
 679.50; 1279.533;  -68.267;    0.000;1347.80000
 679.77; 1318.733;  -48.267;    0.000;1366.99994
 680.04; 1293.867;  -45.800;    0.000;1339.66670
 680.31; 1279.667;  -58.333;    0.000;1337.99996
 680.57; 1226.000;  -55.400;    0.000;1281.40000
 680.84; 1248.400;  -56.933;    0.000;1305.33336
 681.11; 1232.333;  -33.533;    0.000;1265.86671
 681.37; 1262.600;  -52.000;    0.000;1314.59998
 681.64; 1198.733;  -49.067;    0.000;1247.79994
 681.91; 1204.200;  -55.267;    0.000;1259.46662
 682.17; 1186.667;  -18.133;    0.000;1204.79996
 682.44; 1114.600;  -63.867;    0.000;1178.46664
 682.71; 1163.333;  -35.200;    0.000;1198.53337
 682.98; 1154.133;  -53.000;    0.000;1207.13330
 683.24; 1102.600;  -56.733;    0.000;1159.33331
 683.51; 1139.067;  -48.467;    0.000;1187.53332
 683.78; 1143.000;  -38.467;    0.000;1181.46667
 684.04; 1113.667;  -53.400;    0.000;1167.06663
 684.31; 1094.533;  -62.267;    0.000;1156.79999
 684.58; 1092.467;  -55.800;    0.000;1148.26667
 684.84; 1074.533;  -54.133;    0.000;1128.66666
 685.11; 1091.533;  -64.200;    0.000;1155.73332
 685.38; 1081.467;  -37.000;    0.000;1118.46667
 685.64; 1081.933;  -45.133;    0.000;1127.06668
 685.91; 1037.667;  -56.400;    0.000;1094.06663
 686.17; 1039.933;  -60.733;    0.000;1100.66668
 686.44; 1016.667;  -49.867;    0.000;1066.53335
 686.71; 1004.200;  -52.733;    0.000;1056.93335
 686.97; 1006.333;  -58.733;    0.000;1065.06665
 687.24; 1046.400;  -56.467;    0.000;1102.86669
 687.51; 1009.067;  -67.800;    0.000;1076.86665
 687.77; 1020.867;  -47.467;    0.000;1068.33331
 688.04;  951.600;  -31.133;    0.000;982.73331
 688.31;  980.600;  -49.200;    0.000;1029.79998
 688.57;  984.667;  -37.867;    0.000;1022.53335
 688.84;  976.733;  -41.667;    0.000;1018.40001
 689.10;  948.600;  -61.867;    0.000;1010.46664
 689.37;  926.600;  -52.600;    0.000;979.19997
 689.64;  914.667;  -71.533;    0.000;986.20002
 689.90;  912.867;  -48.667;    0.000;961.53331
 690.17;  913.400;  -66.267;    0.000;979.66669
 690.44;  904.733;  -61.733;    0.000;966.46667
 690.70;  913.333;  -34.267;    0.000;947.59998
 690.97;  896.267;  -62.067;    0.000;958.33333
 691.23;  891.200;  -58.867;    0.000;950.06668
 691.50;  860.533;  -52.333;    0.000;912.86666
 691.77;  868.467;  -51.867;    0.000;920.33334
 692.03;  852.133;  -49.600;    0.000;901.73336
 692.30;  843.733;  -52.667;    0.000;896.40001
 692.56;  853.933;  -55.267;    0.000;909.20002
 692.83;  810.333;  -61.933;    0.000;872.26665
 693.10;  828.067;  -51.400;    0.000;879.46665
 693.36;  805.067;  -35.400;    0.000;840.46665
 693.63;  780.600;  -73.533;    0.000;854.13331
 693.89;  787.667;  -53.000;    0.000;840.66669
 694.16;  745.067;  -44.333;    0.000;789.39998
 694.42;  796.267;  -67.667;    0.000;863.93333
 694.69;  806.800;  -24.933;    0.000;831.73332
 694.96;  787.000;  -21.933;    0.000;808.93333
 695.22;  743.733;  -57.800;    0.000;801.53334
 695.49;  764.933;  -55.133;    0.000;820.06668
 695.75;  766.067;  -61.333;    0.000;827.39998
 696.02;  694.867;  -55.600;    0.000;750.46664
 696.28;  703.467;  -58.733;    0.000;762.20001
 696.55;  709.467;  -68.467;    0.000;777.93334
 696.81;  707.733;  -47.000;    0.000;754.73334
 697.08;  691.600;  -50.133;    0.000;741.73331
 697.34;  695.267;  -48.733;    0.000;744.00000
 697.61;  695.867;  -57.200;    0.000;753.06664
 697.88;  679.800;  -43.800;    0.000;723.59999
 698.14;  682.067;  -59.733;    0.000;741.79998
 698.41;  676.200;  -36.067;    0.000;712.26668
 698.67;  649.867;  -59.600;    0.000;709.46664
 698.94;  634.667;  -46.333;    0.000;681.00002
 699.20;  639.333;  -56.600;    0.000;695.93331
 699.47;  637.667;  -58.933;    0.000;696.60002
 699.73;  608.867;  -47.800;    0.000;656.66664
 700.00;  598.067;  -60.667;    0.000;658.73332
 700.26;  606.667;  -64.867;    0.000;671.53336
 700.53;  584.267;  -46.867;    0.000;631.13333
 700.79;  564.800;  -57.933;    0.000;622.73332
 701.06;  588.467;  -79.733;    0.000;668.20000
 701.32;  550.200;  -52.533;    0.000;602.73335
 701.59;  536.867;  -54.867;    0.000;591.73330
 701.85;  530.667;  -48.667;    0.000;579.33335
 702.12;  523.667;  -71.467;    0.000;595.13335
 702.38;  518.667;  -49.867;    0.000;568.53335
 702.65;  531.600;  -45.133;    0.000;576.73331
 702.91;  524.733;  -34.000;    0.000;558.73334
 703.18;  482.400;  -56.933;    0.000;539.33333
 703.44;  500.467;  -57.600;    0.000;558.06667
 703.71;  492.400;  -60.733;    0.000;553.13333
 703.97;  455.133;  -45.867;    0.000;501.00000
 704.24;  482.667;  -37.933;    0.000;520.59999
 704.50;  454.667;  -78.533;    0.000;533.19999
 704.76;  466.533;  -47.000;    0.000;513.53333
 705.03;  439.333;  -23.400;    0.000;462.73334
 705.29;  447.467;  -56.667;    0.000;504.13334
 705.56;  442.133;  -41.933;    0.000;484.06667
 705.82;  422.667;  -58.200;    0.000;480.86666
 706.09;  429.200;  -40.667;    0.000;469.86668
 706.35;  408.933;  -62.533;    0.000;471.46665
 706.62;  381.333;  -46.667;    0.000;428.00001
 706.88;  415.067;  -50.067;    0.000;465.13335
 707.15;  373.467;  -38.533;    0.000;412.00001
 707.41;  380.133;  -55.600;    0.000;435.73333
 707.67;  374.533;  -58.200;    0.000;432.73333
 707.94;  393.133;  -41.067;    0.000;434.20000
 708.20;  365.200;  -72.667;    0.000;437.86668
 708.47;  358.333;  -53.133;    0.000;411.46668
 708.73;  351.133;  -51.400;    0.000;402.53333
 709.00;  359.133;  -61.867;    0.000;421.00000
 709.26;  309.733;  -45.467;    0.000;355.20000
 709.52;  333.600;  -56.467;    0.000;390.06667
 709.79;  308.667;  -58.467;    0.000;367.13332
 710.05;  323.600;  -70.067;    0.000;393.66667
 710.32;  297.400;  -35.200;    0.000;332.59999
 710.58;  308.533;  -74.333;    0.000;382.86666
 710.84;  299.533;  -55.133;    0.000;354.66666
 711.11;  325.133;  -68.800;    0.000;393.93333
 711.37;  303.133;  -59.533;    0.000;362.66666
 711.64;  276.867;  -56.000;    0.000;332.86667
 711.90;  285.400;  -67.533;    0.000;352.93333
 712.16;  274.467;  -49.267;    0.000;323.73334
 712.43;  271.000;  -50.933;    0.000;321.93333
 712.69;  274.200;  -50.067;    0.000;324.26668
 712.96;  251.667;  -51.800;    0.000;303.46667
 713.22;  247.667;  -63.200;    0.000;310.86667
 713.48;  250.600;  -63.533;    0.000;314.13334
 713.75;  263.867;  -38.133;    0.000;302.00000
 714.01;  256.467;  -67.667;    0.000;324.13334
 714.27;  255.733;  -35.467;    0.000;291.20000
 714.54;  238.600;  -57.333;    0.000;295.93334
 714.80;  242.667;  -70.800;    0.000;313.46667
 715.06;  248.667;  -38.533;    0.000;287.20000
 715.33;  226.000;  -53.600;    0.000;279.60000
 715.59;  217.333;  -53.733;    0.000;271.06666
 715.86;  242.733;  -56.733;    0.000;299.46667
 716.12;  245.733;  -54.933;    0.000;300.66667
 716.38;  226.867;  -57.067;    0.000;283.93333
 716.65;  226.267;  -31.267;    0.000;257.53333
 716.91;  217.267;  -58.800;    0.000;276.06666
 717.17;  229.467;  -36.200;    0.000;265.66666
 717.44;  212.200;  -48.867;    0.000;261.06666
 717.70;  214.333;  -66.933;    0.000;281.26666
 717.96;  228.467;  -48.133;    0.000;276.59999
 718.23;  239.133;  -45.800;    0.000;284.93333
 718.49;  221.933;  -53.467;    0.000;275.40000
 718.75;  213.933;  -55.133;    0.000;269.06667
 719.02;  220.067;  -50.267;    0.000;270.33333
 719.28;  236.867;  -61.000;    0.000;297.86667
 719.54;  188.533;  -65.800;    0.000;254.33334
 719.80;  190.333;  -53.467;    0.000;243.80000
 720.07;  207.467;  -59.800;    0.000;267.26666
 720.33;  228.533;  -62.600;    0.000;291.13334
 720.59;  205.733;  -62.733;    0.000;268.46667
 720.86;  174.467;  -65.933;    0.000;240.39999
 721.12;  196.667;  -55.867;    0.000;252.53334
 721.38;  207.400;  -54.200;    0.000;261.59999
 721.65;  198.800;  -69.667;    0.000;268.46667
 721.91;  205.133;  -32.600;    0.000;237.73333
 722.17;  185.067;  -58.000;    0.000;243.06667
 722.43;  181.733;  -38.733;    0.000;220.46667
 722.70;  188.667;  -70.533;    0.000;259.20000
 722.96;  181.200;  -50.933;    0.000;232.13333
 723.22;  193.333;  -62.267;    0.000;255.59999
 723.48;  184.733;  -67.667;    0.000;252.40000
 723.75;  198.000;  -54.333;    0.000;252.33333
 724.01;  190.467;  -39.933;    0.000;230.39999
 724.27;  183.133;  -56.933;    0.000;240.06667
 724.54;  211.267;  -45.867;    0.000;257.13333
 724.80;  187.800;  -68.200;    0.000;256.00000
 725.06;  194.600;  -66.267;    0.000;260.86668
 725.32;  195.467;  -60.400;    0.000;255.86666
 725.59;  176.733;  -68.467;    0.000;245.20000
 725.85;  193.600;  -67.067;    0.000;260.66667
 726.11;  187.800;  -63.133;    0.000;250.93334
 726.37;  181.200;  -52.333;    0.000;233.53333
 726.64;  194.400;  -35.000;    0.000;229.39999
 726.90;  191.267;  -57.400;    0.000;248.66666
 727.16;  174.133;  -63.400;    0.000;237.53333
 727.42;  187.867;  -73.467;    0.000;261.33334
 727.68;  176.667;  -83.733;    0.000;260.40000
 727.95;  175.467;  -76.867;    0.000;252.33333
 728.21;  193.800;  -50.200;    0.000;244.00000
 728.47;  201.067;  -52.600;    0.000;253.66666
 728.73;  172.067;  -20.467;    0.000;192.53333
 729.00;  161.667;  -45.000;    0.000;206.66667
 729.26;  178.800;  -46.400;    0.000;225.20000
 729.52;  169.533;  -76.467;    0.000;246.00001
 729.78;  179.067;  -80.933;    0.000;260.00000
 730.04;  165.667;  -49.000;    0.000;214.66667
 730.31;  139.733;  -60.800;    0.000;200.53334
 730.57;  162.333;  -68.133;    0.000;230.46666
 730.83;  161.400;  -71.267;    0.000;232.66666
 731.09;  191.333;  -51.733;    0.000;243.06666
 731.35;  169.400;  -61.933;    0.000;231.33333
 731.62;  168.400;  -74.267;    0.000;242.66666
 731.88;  171.467;  -64.133;    0.000;235.59999
 732.14;  177.467;  -70.533;    0.000;247.99999
 732.40;  174.200;  -56.533;    0.000;230.73333
 732.66;  152.733;  -58.267;    0.000;211.00000
 732.92;  148.333;  -53.133;    0.000;201.46666
 733.19;  165.267;  -58.467;    0.000;223.73333
 733.45;  144.533;  -57.200;    0.000;201.73334
 733.71;  149.400;  -70.667;    0.000;220.06666
 733.97;  196.800;  -33.867;    0.000;230.66667
 734.23;  163.533;  -62.600;    0.000;226.13334
 734.49;  136.533;  -77.800;    0.000;214.33334
 734.76;  159.000;  -70.667;    0.000;229.66666
 735.02;  142.600;  -78.800;    0.000;221.40001
 735.28;  164.867;  -48.400;    0.000;213.26667
 735.54;  147.600;  -57.867;    0.000;205.46667
 735.80;  128.800;  -54.200;    0.000;183.00000
 736.06;  154.267;  -31.733;    0.000;186.00000
 736.32;  137.333;  -73.200;    0.000;210.53333
 736.59;  146.333;  -63.933;    0.000;210.26666
 736.85;  144.333;  -61.067;    0.000;205.39999
 737.11;  107.533;  -62.533;    0.000;170.06667
 737.37;  118.800;  -63.400;    0.000;182.20000
 737.63;  133.000;  -73.667;    0.000;206.66666
 737.89;  141.200;  -50.733;    0.000;191.93333
 738.15;  147.867;  -45.533;    0.000;193.40000
 738.41;  134.933;  -66.000;    0.000;200.93333
 738.67;  138.933;  -60.533;    0.000;199.46667
 738.94;  117.933;  -71.133;    0.000;189.06667
 739.20;  117.467;  -52.867;    0.000;170.33333
 739.46;  118.467;  -52.067;    0.000;170.53333
 739.72;  113.067;  -60.133;    0.000;173.20000
 739.98;  108.133;  -55.933;    0.000;164.06667
 740.24;   93.467;  -63.867;    0.000;157.33333
 740.50;  119.333;  -62.133;    0.000;181.46667
 740.76;   86.333;  -58.400;    0.000;144.73334
 741.02;   99.067;  -57.667;    0.000;156.73333
 741.28;  102.800;  -65.667;    0.000;168.46667
 741.54;  131.467;  -48.733;    0.000;180.19999
 741.81;  116.933;  -46.200;    0.000;163.13334
 742.07;  108.333;  -58.133;    0.000;166.46667
 742.33;  104.800;  -46.067;    0.000;150.86667
 742.59;   92.400;  -50.667;    0.000;143.06667
 742.85;  114.800;  -48.600;    0.000;163.40000
 743.11;   95.867;  -88.667;    0.000;184.53333
 743.37;   79.533;  -60.000;    0.000;139.53333
 743.63;  116.133;  -64.733;    0.000;180.86666
 743.89;   83.800;  -64.600;    0.000;148.40000
 744.15;  104.133;  -51.400;    0.000;155.53333
 744.41;   98.333;  -70.933;    0.000;169.26667
 744.67;   73.333;  -56.000;    0.000;129.33334
 744.93;   84.600;  -47.333;    0.000;131.93333
 745.19;   97.600;  -38.867;    0.000;136.46666
 745.45;   85.200;  -42.000;    0.000;127.20000
 745.71;   78.600;  -71.067;    0.000;149.66666
 745.97;   72.667;  -42.933;    0.000;115.60000
 746.23;   76.067;  -75.733;    0.000;151.80000
 746.49;   70.267;  -81.333;    0.000;151.60001
 746.75;   67.000;  -49.400;    0.000;116.40000
 747.02;   77.000;  -60.400;    0.000;137.40000
 747.28;   69.867;  -66.067;    0.000;135.93333
 747.54;   77.400;  -69.533;    0.000;146.93333
 747.80;   83.733;  -69.267;    0.000;153.00000
 748.06;   44.867;  -59.400;    0.000;104.26667
 748.32;   57.800;  -79.533;    0.000;137.33333
 748.58;   74.800;  -50.533;    0.000;125.33334
 748.84;   70.733;  -68.333;    0.000;139.06667
 749.10;  164.267;   40.067;    0.000;124.20000
 749.36;   44.333;  -54.800;    0.000;99.13333
 749.62;   67.200;  -76.400;    0.000;143.60000
 749.88;   83.333;  -60.200;    0.000;143.53334
 750.14;   64.400;  -52.933;    0.000;117.33334
 750.40;   56.400;  -66.867;    0.000;123.26667
 750.66;   65.867;  -42.267;    0.000;108.13334
 750.91;   57.067;  -65.000;    0.000;122.06667
 751.17;   54.600;  -47.800;    0.000;102.40000
 751.43;   44.867;  -63.200;    0.000;108.06667
 751.69;   62.733;  -49.200;    0.000;111.93333
 751.95;   60.000;  -55.067;    0.000;115.06667
 752.21;   74.933;  -60.867;    0.000;135.80000
 752.47;   60.267;  -65.267;    0.000;125.53334
 752.73;   41.800;  -59.400;    0.000;101.20000
 752.99;   32.467;  -65.400;    0.000;97.86667
 753.25;   31.133;  -73.400;    0.000;104.53333
 753.51;   64.533;  -59.533;    0.000;124.06667
 753.77;   42.667;  -50.333;    0.000;93.00000
 754.03;   43.800;  -60.267;    0.000;104.06667
 754.29;   44.733;  -66.800;    0.000;111.53334
 754.55;   47.400;  -50.267;    0.000;97.66667
 754.81;   41.200;  -63.000;    0.000;104.20000
 755.07;   41.467;  -47.200;    0.000;88.66667
 755.33;   35.867;  -67.200;    0.000;103.06666
 755.59;   25.800;  -77.200;    0.000;103.00000
 755.85;   19.067;  -57.800;    0.000;76.86667
 756.10;   48.333;  -52.867;    0.000;101.20000
 756.36;   35.933;  -75.333;    0.000;111.26667
 756.62;   33.000;  -74.600;    0.000;107.60000
 756.88;   34.933;  -34.600;    0.000;69.53333
 757.14;   18.933;  -54.800;    0.000;73.73333
 757.40;   19.467;  -46.000;    0.000;65.46667
 757.66;   40.133;  -63.133;    0.000;103.26667
 757.92;   27.467;  -58.133;    0.000;85.60000
 758.18;   29.600;  -64.200;    0.000;93.80000
 758.44;   33.867;  -61.867;    0.000;95.73333
 758.70;   23.867;  -54.267;    0.000;78.13333
 758.95;   34.533;  -64.600;    0.000;99.13333
 759.21;   16.533;  -65.467;    0.000;82.00000
 759.47;   20.800;  -47.933;    0.000;68.73333
 759.73;   24.200;  -52.200;    0.000;76.40000
 759.99;    7.733;  -67.200;    0.000;74.93333
 760.25;   22.267;  -85.533;    0.000;107.80000
 760.51;    6.667;  -56.267;    0.000;62.93333
 760.77;   14.267;  -59.467;    0.000;73.73333
 761.02;    8.667;  -65.533;    0.000;74.20000
 761.28;   16.133;  -75.000;    0.000;91.13333
 761.54;   20.600;  -67.067;    0.000;87.66667
 761.80;   35.867;  -59.933;    0.000;95.80000
 762.06;   16.733;  -33.267;    0.000;50.00000
 762.32;   24.667;  -89.467;    0.000;114.13333
 762.58;    9.733;  -63.533;    0.000;73.26667
 762.83;   21.467;  -54.533;    0.000;76.00000
 763.09;   20.533;  -56.533;    0.000;77.06667
 763.35;  -11.800;  -54.800;    0.000;43.00000
 763.61;  -12.600;  -50.467;    0.000;37.86667
 763.87;   19.267;  -61.667;    0.000;80.93333
 764.13;    9.133;  -69.067;    0.000;78.20000
 764.38;  -18.333;  -65.867;    0.000;47.53333
 764.64;  -17.533;  -72.200;    0.000;54.66666
 764.90;    5.000;  -88.533;    0.000;93.53333
 765.16;    6.733;  -62.133;    0.000;68.86667
 765.42;    6.533;  -46.000;    0.000;52.53333
 765.68;    5.267;  -65.800;    0.000;71.06667
 765.93;    5.133;  -66.800;    0.000;71.93334
 766.19;    5.733;  -62.400;    0.000;68.13333
 766.45;   -0.867;  -74.533;    0.000;73.66667
 766.71;   -9.933;  -51.667;    0.000;41.73333
 766.97;   -5.933;  -63.400;    0.000;57.46667
 767.22;  -17.467;  -78.733;    0.000;61.26666
 767.48;   17.533;  -63.733;    0.000;81.26667
 767.74;   -2.400;  -74.067;    0.000;71.66667
 768.00;   -1.467;  -57.333;    0.000;55.86667
 768.26;  -18.467;  -68.067;    0.000;49.60000
 768.51;   11.200;  -64.333;    0.000;75.53334
 768.77;   -0.733;  -49.533;    0.000;48.80000
 769.03;    4.267;  -83.267;    0.000;87.53334
 769.29;   -9.733;  -65.467;    0.000;55.73333
 769.54;   -3.867;  -74.467;    0.000;70.60000
 769.80;  -10.600;  -68.867;    0.000;58.26667
 770.06;   -5.667;  -57.933;    0.000;52.26667
 770.32;   -2.333;  -61.267;    0.000;58.93333
 770.57;    0.067;  -60.933;    0.000;61.00000
 770.83;  -13.800;  -63.000;    0.000;49.20000
 771.09;  -10.667;  -81.133;    0.000;70.46666
 771.35;   -4.867;  -61.333;    0.000;56.46667
 771.61;  -32.467;  -83.200;    0.000;50.73333
 771.86;   -5.933;  -65.400;    0.000;59.46667
 772.12;  -11.400;  -74.067;    0.000;62.66667
 772.38;  -10.867;  -61.333;    0.000;50.46667
 772.63;  -19.200;  -78.867;    0.000;59.66667
 772.89;   -7.200;  -62.933;    0.000;55.73333
 773.15;  -19.800;  -81.667;    0.000;61.86666
 773.41;   -8.533;  -64.867;    0.000;56.33333
 773.66;  -17.667;  -80.733;    0.000;63.06666
 773.92;  -14.067;  -68.000;    0.000;53.93333
 774.18;    2.733;  -76.400;    0.000;79.13333
 774.44;  -20.400;  -71.467;    0.000;51.06667
 774.69;   10.933;  -74.933;    0.000;85.86667
 774.95;   -8.067;  -64.933;    0.000;56.86667
 775.21;  -14.800;  -53.200;    0.000;38.40000
 775.46;  -23.733;  -74.600;    0.000;50.86666
 775.72;   -7.867;  -72.733;    0.000;64.86666
 775.98;  -19.867;  -45.933;    0.000;26.06667
 776.24;    1.533;  -90.733;    0.000;92.26666
 776.49;  -11.933;  -83.400;    0.000;71.46667
 776.75;   -6.800;  -61.200;    0.000;54.40000
 777.01;  -30.200;  -78.733;    0.000;48.53333
 777.26;   -8.600;  -65.800;    0.000;57.20000
 777.52;  -44.933;  -63.133;    0.000;18.20000
 777.78;  -10.333;  -53.933;    0.000;43.60000
 778.03;  -17.800;  -60.200;    0.000;42.40000
 778.29;   -1.867;  -71.733;    0.000;69.86666
 778.55;  -35.733;  -67.733;    0.000;32.00000
 778.80;  -22.600;  -77.000;    0.000;54.40000
 779.06;  -21.000;  -71.400;    0.000;50.40000
 779.32;   -7.600;  -68.067;    0.000;60.46667
 779.57;  -27.000;  -83.600;    0.000;56.60000
 779.83;  -30.667;  -69.533;    0.000;38.86667
 780.09;  -32.533;  -68.267;    0.000;35.73334
 780.34;  -30.400;  -65.200;    0.000;34.80000
 780.60;    6.733;  -37.000;    0.000;43.73333
 780.86;  -32.333;  -63.200;    0.000;30.86667
 781.11;   -7.267;  -62.667;    0.000;55.40000
 781.37;   -3.600;  -65.133;    0.000;61.53333
 781.63;  -31.267;  -57.733;    0.000;26.46667
 781.88;  -31.733;  -61.333;    0.000;29.60000
 782.14;  -26.000;  -46.600;    0.000;20.60000
 782.39;  -12.067;  -60.067;    0.000;48.00000
 782.65;  -35.000;  -53.667;    0.000;18.66667
 782.91;  -18.067;  -52.267;    0.000;34.20000
 783.16;  -32.600;  -68.800;    0.000;36.20000
 783.42;  -28.733;  -69.600;    0.000;40.86666
 783.67;  -23.267;  -68.467;    0.000;45.20000
 783.93;  -49.267;  -86.867;    0.000;37.60000
 784.19;  -27.600;  -59.600;    0.000;32.00000
 784.44;  -12.333;  -56.933;    0.000;44.60000
 784.70;  -25.067;  -64.933;    0.000;39.86667
 784.96;  -29.267;  -66.867;    0.000;37.60000
 785.21;  -30.867;  -82.800;    0.000;51.93334
 785.47;   -6.933;  -64.800;    0.000;57.86667
 785.72;  -76.600;  -63.733;    0.000;-12.86666
 785.98;  -45.867;  -62.400;    0.000;16.53334
 786.23;  -28.133;  -69.267;    0.000;41.13334
 786.49;  -15.867;  -81.600;    0.000;65.73333
 786.75;  -49.733;  -66.333;    0.000;16.60000
 787.00;  -35.200;  -48.533;    0.000;13.33333
 787.26;  -39.000;  -73.800;    0.000;34.80000
 787.51;  -23.867;  -71.333;    0.000;47.46667
 787.77;  -19.400;  -50.067;    0.000;30.66667
 788.02;   -8.200;  -56.600;    0.000;48.40000
 788.28;  -45.600;  -69.733;    0.000;24.13333
 788.54;  -31.733;  -69.267;    0.000;37.53334
 788.79;  -16.867;  -42.400;    0.000;25.53333
 789.05;  -23.800;  -84.600;    0.000;60.80000
 789.30;  -24.867;  -57.467;    0.000;32.60000
 789.56;  -45.133;  -85.133;    0.000;40.00000
 789.81;  -41.200;  -69.400;    0.000;28.20000
 790.07;  -50.733;  -63.400;    0.000;12.66667
 790.32;  -34.133; -103.600;    0.000;69.46666
 790.58;  -42.133;  -69.133;    0.000;27.00000
 790.83;  -36.600;  -61.667;    0.000;25.06667
 791.09;  -31.667;  -83.333;    0.000;51.66667
 791.35;  -66.600;  -82.400;    0.000;15.80000
 791.60;  -36.267;  -63.867;    0.000;27.60000
 791.86;  -30.467;  -56.133;    0.000;25.66667
 792.11;  -22.667;  -50.400;    0.000;27.73334
 792.37;  -38.600;  -62.133;    0.000;23.53334
 792.62;  -35.300;  -63.867;    0.000;28.56667
 792.88;  -32.000;  -65.600;    0.000;33.60000
 793.13;  -60.200;  -80.333;    0.000;20.13334
 793.39;  -49.867;  -62.533;    0.000;12.66667
 793.64;  -37.400;  -81.467;    0.000;44.06667
 793.90;  -25.000;  -72.067;    0.000;47.06667
 794.15;  -37.200;  -72.133;    0.000;34.93333
 794.41;  -44.867;  -68.667;    0.000;23.80000
 794.66;  -36.267;  -76.733;    0.000;40.46666
 794.92;  -44.667;  -51.867;    0.000; 7.20000
 795.17;  -52.467;  -73.400;    0.000;20.93333
 795.43;  -60.533;  -77.667;    0.000;17.13333
 795.68;  -26.333;  -64.200;    0.000;37.86666
 795.94;  -65.600;  -68.400;    0.000; 2.80000
 796.19;  -48.200;  -69.200;    0.000;21.00000
 796.44;  -35.667;  -60.600;    0.000;24.93333
 796.70;  -44.133;  -56.667;    0.000;12.53333
 796.95;  -27.067;  -67.467;    0.000;40.40000
 797.21;  -54.267;  -76.867;    0.000;22.60000
 797.46;  -41.533;  -64.733;    0.000;23.20000
 797.72;  -44.000;  -68.533;    0.000;24.53333
 797.97;  -60.400;  -71.933;    0.000;11.53333
 798.23;  -36.600;  -68.333;    0.000;31.73334
 798.48;  -52.600;  -74.600;    0.000;22.00000
 798.74;  -55.800;  -88.200;    0.000;32.40000
 798.99;  -46.933;  -81.733;    0.000;34.80000
 799.24;  -47.067;  -77.733;    0.000;30.66666
 799.50;  -50.867;  -74.600;    0.000;23.73333
 799.75;  -33.800;  -66.000;    0.000;32.20000
 800.01;  -54.467;  -74.333;    0.000;19.86667
 800.26;  -40.933;  -78.000;    0.000;37.06667
 800.52;  -50.067;  -85.667;    0.000;35.60000
 800.77;  -47.800;  -75.933;    0.000;28.13334
 801.02;  -50.200;  -83.000;    0.000;32.80000
 801.28;  -62.667; -101.667;    0.000;39.00000
 801.53;  -58.667;  -58.800;    0.000; 0.13333
 801.79;  -40.000;  -69.533;    0.000;29.53333
 802.04;  -68.733;  -64.867;    0.000;-3.86666
 802.29;  -52.467;  -84.667;    0.000;32.20000
 802.55;  -55.067;  -71.133;    0.000;16.06667
 802.80;  -33.867;  -61.600;    0.000;27.73333
 803.06;  -50.933;  -60.267;    0.000; 9.33333
 803.31;  -50.600;  -78.267;    0.000;27.66667
 803.56;  -45.533;  -57.400;    0.000;11.86667
 803.82;  -33.800;  -80.667;    0.000;46.86666
 804.07;  -58.133;  -55.067;    0.000;-3.06667
 804.32;  -42.267;  -68.667;    0.000;26.40000
 804.58;  -54.267;  -89.067;    0.000;34.80000
 804.83;  -39.200;  -89.400;    0.000;50.20000
 805.09;  -32.200;  -64.467;    0.000;32.26667
 805.34;  -56.533;  -66.933;    0.000;10.40000
 805.59;  -34.800;  -56.267;    0.000;21.46667
 805.85;  -45.733;  -63.667;    0.000;17.93333
 806.10;  -46.600;  -57.067;    0.000;10.46667
 806.35;  -39.000;  -62.933;    0.000;23.93333
 806.61;  -63.333;  -76.933;    0.000;13.60000
 806.86;  -84.533;  -92.800;    0.000; 8.26667
 807.11;  -45.600;  -68.933;    0.000;23.33334
 807.37;   -4.133;  -47.867;    0.000;43.73333
 807.62;  -65.733;  -82.333;    0.000;16.60001
 807.87;  -50.400;  -59.600;    0.000; 9.20000
 808.13;  -72.867;  -69.400;    0.000;-3.46667
 808.38;  -60.000;  -70.200;    0.000;10.20000
 808.63;  -51.600;  -78.867;    0.000;27.26667
 808.89;  -56.933;  -77.533;    0.000;20.60000
 809.14;  -60.533;  -78.000;    0.000;17.46667
 809.39;  -64.667;  -71.600;    0.000; 6.93333
 809.65;  -59.733;  -59.800;    0.000; 0.06667
 809.90;  -59.067;  -57.000;    0.000;-2.06667
 810.15;  -60.000;  -86.600;    0.000;26.60000
 810.41;  -32.467;  -78.467;    0.000;46.00000
 810.66;  -58.800;  -68.533;    0.000; 9.73333
 810.91;  -28.067;  -62.933;    0.000;34.86667
 811.16;  -53.533;  -82.533;    0.000;29.00000
 811.42;  -46.133;  -70.533;    0.000;24.40000
 811.67;  -52.533;  -66.733;    0.000;14.20000
 811.92;  -61.067;  -86.133;    0.000;25.06667
 812.18;  -47.933;  -67.067;    0.000;19.13333
 812.43;  -63.867;  -87.867;    0.000;24.00000
 812.68;  -63.733;  -80.467;    0.000;16.73333
 812.93;  -53.133;  -75.067;    0.000;21.93333
 813.19;  -40.467;  -24.667;    0.000;-15.80000
 813.44;  -65.667;  -87.467;    0.000;21.80000
 813.69;  -55.733;  -67.867;    0.000;12.13334
 813.95;  -52.867;  -72.800;    0.000;19.93334
 814.20;  -40.600;  -64.267;    0.000;23.66667
 814.45;  -35.067;  -88.133;    0.000;53.06667
 814.70;  -64.467;  -73.733;    0.000; 9.26666
 814.96;  -44.733;  -85.400;    0.000;40.66667
 815.21;  -48.867;  -80.733;    0.000;31.86666
 815.46;  -57.533;  -80.333;    0.000;22.80000
 815.71;  -61.667;  -58.667;    0.000;-3.00000
 815.96;  -43.467;  -64.000;    0.000;20.53333
 816.22;  -68.733;  -81.467;    0.000;12.73334
 816.47;  -53.867;  -70.733;    0.000;16.86666
 816.72;  -43.800;  -81.733;    0.000;37.93333
 816.97;  -35.133;  -61.333;    0.000;26.20000
 817.23;  -50.667;  -71.600;    0.000;20.93333
 817.48;  -54.533;  -72.533;    0.000;18.00000
 817.73;  -50.400;  -74.467;    0.000;24.06667
 817.98;  -37.533;  -69.667;    0.000;32.13333
 818.23;  -49.667;  -54.667;    0.000; 5.00000
 818.49;  -60.600;  -83.600;    0.000;23.00000
 818.74;  -38.000;  -62.733;    0.000;24.73333
 818.99;  -50.800;  -89.667;    0.000;38.86666
 819.24;  -41.467;  -62.067;    0.000;20.60000
 819.50;  -57.800;  -71.600;    0.000;13.80000
 819.75;  -55.667;  -65.667;    0.000;10.00000
 820.00;  -31.000;  -59.067;    0.000;28.06667
 820.25;  -60.333;  -70.467;    0.000;10.13334
 820.50;  -53.400;  -83.933;    0.000;30.53333
 820.75;  -54.267;  -48.400;    0.000;-5.86666
 821.01;  -53.933;  -73.533;    0.000;19.60000
 821.26;  -43.000;  -70.133;    0.000;27.13333
 821.51;  -49.333;  -76.200;    0.000;26.86666
 821.76;  -66.067;  -92.000;    0.000;25.93333
 822.01;  -49.333;  -63.133;    0.000;13.80000
 822.26;  -58.000;  -64.600;    0.000; 6.60000
 822.52;  -23.400;  -70.400;    0.000;47.00000
 822.77;  -60.600;  -69.733;    0.000; 9.13333
 823.02;  -59.067;  -64.267;    0.000; 5.20000
 823.27;  -77.867;  -72.400;    0.000;-5.46667
 823.52;  -62.533;  -87.267;    0.000;24.73334
 823.77;  -58.133;  -66.067;    0.000; 7.93333
 824.03;  -53.733;  -56.733;    0.000; 3.00000
 824.28;  -70.800;  -74.600;    0.000; 3.80000
 824.53;  -54.933;  -67.933;    0.000;13.00000
 824.78;  -48.533;  -69.600;    0.000;21.06667
 825.03;  -68.667;  -83.533;    0.000;14.86667
 825.28;  -43.200;  -68.467;    0.000;25.26667
 825.53;  -43.067;  -68.867;    0.000;25.80000
 825.78;  -50.067;  -77.333;    0.000;27.26667
 826.04;  -55.133;  -91.467;    0.000;36.33333
 826.29;  -54.133;  -86.733;    0.000;32.59999
 826.54;  -46.467;  -71.600;    0.000;25.13333
 826.79;  -55.133;  -63.733;    0.000; 8.60000
 827.04;  -76.600;  -84.333;    0.000; 7.73334
 827.29;  -51.667;  -56.933;    0.000; 5.26667
 827.54;  -62.400;  -52.867;    0.000;-9.53334
 827.79;  -45.800;  -70.333;    0.000;24.53334
 828.04;  -60.467;  -62.933;    0.000; 2.46667
 828.29;  -38.267;  -69.600;    0.000;31.33333
 828.55;  -56.333;  -87.533;    0.000;31.20000
 828.80;  -46.800;  -68.333;    0.000;21.53334
 829.05;  -47.200;  -71.667;    0.000;24.46666
 829.30;  -91.933;  -83.333;    0.000;-8.60000
 829.55;  -61.933;  -75.933;    0.000;14.00000
 829.80;  -55.533;  -64.200;    0.000; 8.66666
 830.05;  -62.600;  -76.400;    0.000;13.80000
 830.30;  -66.467;  -73.067;    0.000; 6.60000
 830.55;  -55.933;  -69.733;    0.000;13.80000
 830.80;  -58.867;  -86.867;    0.000;28.00000
 831.05;  -66.333;  -75.267;    0.000; 8.93333
 831.30;  -56.933;  -59.467;    0.000; 2.53333
 831.55;  -66.267;  -70.867;    0.000; 4.60000
 831.80;  -54.333;  -60.733;    0.000; 6.40000
 832.05;  -58.200;  -69.333;    0.000;11.13334
 832.30;  -45.800;  -57.267;    0.000;11.46667
 832.56;  -54.000; -102.267;    0.000;48.26667
 832.81;  -73.933;  -71.533;    0.000;-2.40000
 833.06;  -70.667;  -53.533;    0.000;-17.13333
 833.31;  -77.533; -111.533;    0.000;34.00000
 833.56;  -57.400;  -66.267;    0.000; 8.86667
 833.81;  -77.667;  -89.600;    0.000;11.93333
 834.06;  -50.200;  -59.067;    0.000; 8.86666
 834.31;  -50.000;  -80.667;    0.000;30.66666
 834.56;  -50.200;  -78.333;    0.000;28.13334
 834.81;  -67.933;  -62.800;    0.000;-5.13334
 835.06;  -64.000;  -76.800;    0.000;12.80000
 835.31;  -65.867;  -70.200;    0.000; 4.33333
 835.56;  -44.467;  -61.333;    0.000;16.86666
 835.81;  -66.733;  -74.400;    0.000; 7.66667
 836.06;  -55.800;  -70.733;    0.000;14.93333
 836.31;  -68.333;  -75.733;    0.000; 7.39999
 836.56;  -53.667;  -61.533;    0.000; 7.86666
 836.81;  -71.067;  -85.533;    0.000;14.46667
 837.06;  -43.333;  -67.867;    0.000;24.53334
 837.31;  -65.000;  -89.933;    0.000;24.93333
 837.56;  -52.933;  -90.000;    0.000;37.06667
 837.81;  -60.533;  -79.533;    0.000;19.00000
 838.06;  -54.800;  -71.533;    0.000;16.73333
 838.31;  -76.467;  -78.800;    0.000; 2.33334
 838.56;  -61.733;  -87.600;    0.000;25.86666
 838.80;  -84.400;  -66.667;    0.000;-17.73334
 839.05;  -57.533;  -74.467;    0.000;16.93333
 839.30;  -75.733;  -77.867;    0.000; 2.13334
 839.55;  -69.400;  -90.333;    0.000;20.93333
 839.80;  -74.267;  -77.133;    0.000; 2.86666
 840.05;  -70.733;  -59.267;    0.000;-11.46666
 840.30;  -61.533;  -67.933;    0.000; 6.40000
 840.55;  -55.267;  -76.133;    0.000;20.86666
 840.80;  -56.267;  -58.333;    0.000; 2.06667
 841.05;  -61.533;  -72.533;    0.000;11.00000
 841.30;  -61.333;  -85.533;    0.000;24.20000
 841.55;  -71.200;  -85.200;    0.000;14.00000
 841.80;  -73.533;  -68.733;    0.000;-4.80000
 842.05;  -49.400;  -86.733;    0.000;37.33333
 842.30;  -78.533;  -84.200;    0.000; 5.66666
 842.55;  -56.400;  -53.200;    0.000;-3.20000
 842.79;  -76.867;  -88.600;    0.000;11.73333
 843.04;  -41.800;  -59.667;    0.000;17.86667
 843.29;  -50.600;  -63.867;    0.000;13.26667
 843.54;  -36.667;  -70.400;    0.000;33.73333
 843.79;  -67.067;  -78.200;    0.000;11.13333
 844.04;  -65.000;  -67.133;    0.000; 2.13333
 844.29;  -61.133;  -61.333;    0.000; 0.20000
 844.54;  -48.733;  -72.067;    0.000;23.33333
 844.79;  -61.933;  -76.467;    0.000;14.53333
 845.04;  -62.267;  -74.200;    0.000;11.93333
 845.28;  -73.733;  -86.867;    0.000;13.13334
 845.53;  -52.000;  -81.933;    0.000;29.93333
 845.78;  -54.200;  -61.400;    0.000; 7.20000
 846.03;  -53.600;  -65.400;    0.000;11.80000
 846.28;  -68.133;  -75.400;    0.000; 7.26667
 846.53;  -54.333;  -60.333;    0.000; 6.00000
 846.78;  -77.867;  -72.400;    0.000;-5.46667
 847.02;  -56.467;  -75.400;    0.000;18.93333
 847.27;  -64.067;  -81.467;    0.000;17.40000
 847.52;  -77.600;  -89.867;    0.000;12.26667
 847.77;  -62.600;  -76.533;    0.000;13.93333
 848.02;  -57.067;  -92.067;    0.000;35.00000
 848.27;  -59.267;  -69.133;    0.000; 9.86666
 848.52;  -68.000;  -87.733;    0.000;19.73333
 848.76;  -63.067;  -70.733;    0.000; 7.66666
 849.01;  -69.600;  -71.533;    0.000; 1.93333
 849.26;  -80.133;  -81.667;    0.000; 1.53333
 849.51;  -46.067;  -78.867;    0.000;32.80000
 849.76;  -69.333;  -80.067;    0.000;10.73333
 850.01;  -71.067;  -86.267;    0.000;15.20000
 850.25;  -53.400;  -74.067;    0.000;20.66666
 850.50;  -65.600;  -73.533;    0.000; 7.93333
 850.75;  -54.133;  -71.400;    0.000;17.26667
 851.00;  -59.467;  -85.600;    0.000;26.13333
 851.25;  -72.400;  -72.333;    0.000;-0.06667
 851.49;  -70.867;  -75.200;    0.000; 4.33333
 851.74;  -89.933;  -65.933;    0.000;-24.00000
 851.99;  -53.133;  -88.667;    0.000;35.53333
 852.24;  -51.933;  -57.333;    0.000; 5.40000
 852.49;  -60.667;  -90.000;    0.000;29.33333
 852.73;  -58.333;  -85.333;    0.000;27.00000
 852.98;  -73.000;  -84.133;    0.000;11.13333
 853.23;  -63.000;  -70.533;    0.000; 7.53333
 853.48;  -74.133;  -68.067;    0.000;-6.06667
 853.73;  -50.533;  -81.467;    0.000;30.93333
 853.97;  -58.133;  -71.733;    0.000;13.59999
 854.22;  -61.133;  -76.867;    0.000;15.73333
 854.47;  -62.933;  -81.467;    0.000;18.53333
 854.72;  -63.533;  -51.200;    0.000;-12.33333
 854.96;  -57.867;  -77.600;    0.000;19.73333
 855.21;  -68.733;  -41.133;    0.000;-27.59999
 855.46;  -63.667;  -43.267;    0.000;-20.40000
 855.71;  -72.733;  -74.067;    0.000; 1.33334
 855.95;  -36.467;  -68.800;    0.000;32.33334
 856.20;  -73.800;  -74.267;    0.000; 0.46667
 856.45;  -69.600;  -75.800;    0.000; 6.20000
 856.70;  -71.000;  -70.200;    0.000;-0.80000
 856.94;  -68.267;  -84.733;    0.000;16.46666
 857.19;  -65.333;  -60.533;    0.000;-4.80000
 857.44;  -77.467;  -81.667;    0.000; 4.20000
 857.69;  -68.733;  -57.800;    0.000;-10.93333
 857.93;  -65.867;  -75.133;    0.000; 9.26666
 858.18;  -49.533;  -61.000;    0.000;11.46667
 858.43;  -61.133;  -87.067;    0.000;25.93333
 858.67;  -37.067;  -57.133;    0.000;20.06667
 858.92;  -66.267;  -69.667;    0.000; 3.39999
 859.17;  -59.467;  -38.067;    0.000;-21.40000
 859.42;  -77.600;  -86.667;    0.000; 9.06667
 859.66;  -73.200;  -94.467;    0.000;21.26667
 859.91;  -68.467;  -87.200;    0.000;18.73333
 860.16;  -72.533;  -85.800;    0.000;13.26667
 860.40;  -62.400;  -62.867;    0.000; 0.46666
 860.65;  -75.333;  -78.800;    0.000; 3.46667
 860.90;  -64.867;  -75.267;    0.000;10.40000
 861.14;  -65.333;  -71.733;    0.000; 6.39999
 861.39;  -80.067;  -79.933;    0.000;-0.13333
 861.64;  -73.667;  -79.067;    0.000; 5.40000
 861.88;  -76.267;  -71.200;    0.000;-5.06667
 862.13;  -59.267;  -64.000;    0.000; 4.73333
 862.38;  -81.600;  -97.267;    0.000;15.66667
 862.62;  -58.733;  -82.400;    0.000;23.66667
 862.87;  -81.467;  -74.133;    0.000;-7.33334
 863.12;  -76.933;  -60.467;    0.000;-16.46667
 863.36;  -57.133;  -95.667;    0.000;38.53333
 863.61;  -58.267;  -74.333;    0.000;16.06667
 863.86;  -81.933;  -88.600;    0.000; 6.66666
 864.10;  -69.000;  -80.733;    0.000;11.73333
 864.35;  -55.867;  -83.067;    0.000;27.20000
 864.60;  -71.333;  -73.067;    0.000; 1.73333
 864.84;  -55.400;  -63.667;    0.000; 8.26667
 865.09;  -66.867;  -83.133;    0.000;16.26666
 865.33;  -81.733;  -63.133;    0.000;-18.59999
 865.58;  -57.400;  -73.467;    0.000;16.06667
 865.83;  -71.000;  -67.333;    0.000;-3.66666
 866.07;  -90.400;  -83.133;    0.000;-7.26667
 866.32;  -43.200;  -46.800;    0.000; 3.60000
 866.57;  -78.600;  -50.000;    0.000;-28.60000
 866.81;  -55.200;  -63.133;    0.000; 7.93333
 867.06;  -87.800;  -92.933;    0.000; 5.13333
 867.30;  -77.267; -100.800;    0.000;23.53333
 867.55;  -85.133;  -64.267;    0.000;-20.86666
 867.80;  -57.467;  -80.067;    0.000;22.60000
 868.04;  -78.667;  -71.933;    0.000;-6.73333
 868.29;  -59.467;  -74.400;    0.000;14.93333
 868.53;  -76.600;  -89.933;    0.000;13.33334
 868.78;  -54.733;  -63.267;    0.000; 8.53333
 869.03;  -62.333;  -58.933;    0.000;-3.40000
 869.27;  -53.467;  -77.333;    0.000;23.86667
 869.52;  -61.533;  -63.800;    0.000; 2.26667
 869.76;  -61.267;  -69.533;    0.000; 8.26667
 870.01;  -66.000;  -65.733;    0.000;-0.26667
 870.25;  -66.867;  -58.133;    0.000;-8.73333
 870.50;  -61.600;  -69.067;    0.000; 7.46667
 870.75;  -77.400;  -86.600;    0.000; 9.20000
 870.99;  -56.600;  -66.133;    0.000; 9.53333
 871.24;  -70.733;  -61.267;    0.000;-9.46666
 871.48;  -65.667;  -73.533;    0.000; 7.86667
 871.73;  -53.867;  -60.133;    0.000; 6.26667
 871.97;  -78.867;  -95.400;    0.000;16.53333
 872.22;  -65.000;  -61.200;    0.000;-3.80000
 872.46;  -56.133;  -75.933;    0.000;19.80000
 872.71;  -81.933;  -91.600;    0.000; 9.66666
 872.95;  -79.867;  -66.800;    0.000;-13.06667
 873.20;  -52.267;  -71.400;    0.000;19.13334
 873.44;  -82.267;  -48.267;    0.000;-34.00000
 873.69;  -65.467;  -72.000;    0.000; 6.53333
 873.94;  -76.000;  -80.600;    0.000; 4.60000
 874.18;  -75.733;  -71.867;    0.000;-3.86666
 874.43;  -73.600;  -52.733;    0.000;-20.86666
 874.67;  -64.133;  -70.333;    0.000; 6.20000
 874.92;  -63.400;  -58.200;    0.000;-5.20000
 875.16;  -79.533;  -77.933;    0.000;-1.60000
 875.41;  -67.133;  -67.400;    0.000; 0.26667
 875.65;  -67.267;  -62.867;    0.000;-4.40001
 875.90;  -63.067;  -51.067;    0.000;-12.00000
 876.14;  -67.333;  -94.333;    0.000;27.00000
 876.39;  -65.267;  -78.867;    0.000;13.60000
 876.63;  -89.067;  -60.867;    0.000;-28.20000
 876.88;  -55.667;  -54.467;    0.000;-1.20000
 877.12;  -59.600;  -64.933;    0.000; 5.33334
 877.36;  -70.067;  -68.333;    0.000;-1.73333
 877.61;  -65.267;  -81.000;    0.000;15.73333
 877.85;  -64.067;  -50.933;    0.000;-13.13333
 878.10;  -74.200;  -65.400;    0.000;-8.80000
 878.34;  -54.133;  -51.133;    0.000;-3.00000
 878.59;  -78.600;  -72.400;    0.000;-6.20000
 878.83;  -74.933;  -71.400;    0.000;-3.53333
 879.08;  -64.200;  -68.267;    0.000; 4.06667
 879.32;  -73.533;  -73.800;    0.000; 0.26667
 879.57;  -53.267;  -63.333;    0.000;10.06667
 879.81;  -57.400;  -62.267;    0.000; 4.86666
 880.05;  -45.533;  -43.733;    0.000;-1.80000
 880.30;  -55.600;  -63.733;    0.000; 8.13334
 880.54;  -68.000;  -67.067;    0.000;-0.93333
 880.79;  -91.067;  -80.867;    0.000;-10.20000
 881.03;  -63.400;  -50.667;    0.000;-12.73333
 881.28;  -64.800;  -65.067;    0.000; 0.26666
 881.52;  -71.467;  -70.267;    0.000;-1.20000
 881.76;  -63.667;  -58.333;    0.000;-5.33334
 882.01;  -61.000;  -68.600;    0.000; 7.60000
 882.25;  -62.133;  -60.467;    0.000;-1.66667
 882.50;  -66.800;  -83.800;    0.000;17.00000
 882.74;  -52.400;  -74.200;    0.000;21.80000
 882.98;  -61.000;  -63.067;    0.000; 2.06667
 883.23;  -81.867;  -51.800;    0.000;-30.06667
 883.47;  -40.733;  -83.067;    0.000;42.33333
 883.72;  -42.267;  -49.800;    0.000; 7.53333
 883.96;  -63.000;  -82.000;    0.000;19.00000
 884.20;  -41.467;  -58.733;    0.000;17.26667
 884.45;  -45.733;  -49.933;    0.000; 4.20000
 884.69;  -50.200;  -55.733;    0.000; 5.53333
 884.94;  -41.067;  -39.267;    0.000;-1.80000
 885.18;  -61.933;  -80.733;    0.000;18.80000
 885.42;  -53.267;  -70.333;    0.000;17.06667
 885.67;  -61.467;  -76.467;    0.000;15.00000
 885.91;  -63.733;  -86.933;    0.000;23.20000
 886.15;  -58.000;  -58.533;    0.000; 0.53333
 886.40;  -39.333;  -43.733;    0.000; 4.40000
 886.64;  -57.267;  -75.133;    0.000;17.86666
 886.88;  -49.800;  -73.800;    0.000;24.00000
 887.13;  -43.933;  -38.000;    0.000;-5.93333
 887.37;  -70.133;  -62.200;    0.000;-7.93333
 887.62;  -42.200;  -59.600;    0.000;17.40000
 887.86;  -42.933;  -69.067;    0.000;26.13333
 888.10;  -70.933;  -49.933;    0.000;-21.00000
 888.35;  -57.867;  -47.400;    0.000;-10.46666
 888.59;  -67.400;  -45.133;    0.000;-22.26667
 888.83;  -73.733;  -50.867;    0.000;-22.86666
 889.07;  -72.667;  -48.400;    0.000;-24.26666
 889.32;  -53.600;  -79.267;    0.000;25.66667
 889.56;  -50.800;  -60.933;    0.000;10.13334
 889.80;  -57.667;  -58.933;    0.000; 1.26667
 890.05;  -52.867;  -58.600;    0.000; 5.73333
 890.29;  -48.200;  -53.867;    0.000; 5.66666
 890.53;  -71.867;  -65.267;    0.000;-6.60000
 890.78;  -51.800;  -63.667;    0.000;11.86667
 891.02;  -57.667;  -57.667;    0.000; 0.00000
 891.26;  -58.667;  -77.400;    0.000;18.73333
 891.51;  -42.133;  -58.267;    0.000;16.13333
 891.75;  -28.467;  -39.000;    0.000;10.53333
 891.99;  -73.467;  -59.200;    0.000;-14.26667
 892.23;  -51.200;  -64.467;    0.000;13.26667
 892.48;  -55.200;  -37.800;    0.000;-17.40000
 892.72;  -31.067;  -51.467;    0.000;20.40000
 892.96;  -44.333;  -30.000;    0.000;-14.33333
 893.20;  -46.667;  -45.867;    0.000;-0.80000
 893.45;  -50.200;  -49.400;    0.000;-0.80000
 893.69;  -41.733;  -49.400;    0.000; 7.66667
 893.93;  -41.600;  -34.400;    0.000;-7.20000
 894.17;  -20.733;  -40.400;    0.000;19.66667
 894.42;  -38.600;  -47.600;    0.000; 9.00000
 894.66;  -23.867;  -43.067;    0.000;19.20000
 894.90;  -23.667;  -56.267;    0.000;32.60000
 895.14;  -16.667;  -27.200;    0.000;10.53333
 895.39;  -45.600;  -47.267;    0.000; 1.66667
 895.63;  -32.667;  -31.600;    0.000;-1.06667
 895.87;  -52.133;  -22.000;    0.000;-30.13334
 896.11;   -6.733;  -50.533;    0.000;43.80000
 896.36;  -39.667;  -47.333;    0.000; 7.66666
 896.60;  -42.467;  -46.933;    0.000; 4.46667
 896.84;  -27.867;  -11.200;    0.000;-16.66667
 897.08;   -2.333;  -20.133;    0.000;17.80000
 897.32;   16.600;  -21.733;    0.000;38.33333
 897.57;  -31.400;  -10.467;    0.000;-20.93333
 897.81;  -45.733;  -28.467;    0.000;-17.26667
 898.05;  -19.667;  -29.467;    0.000; 9.80000
 898.29;  -18.000;    1.067;    0.000;-19.06667
 898.53;   -7.000;  -28.600;    0.000;21.60000
 898.78;  -13.467;   -6.667;    0.000;-6.80000
 899.02;  -12.667;  -13.933;    0.000; 1.26667
 899.26;    1.267;    3.933;    0.000;-2.66667
 899.50;   40.733;   28.600;    0.000;12.13333
 899.74;  -15.467;    1.067;    0.000;-16.53333
 899.99;   11.400;   -0.133;    0.000;11.53333
 900.23;   13.667;    9.000;    0.000; 4.66667
 900.47;    2.800;   29.733;    0.000;-26.93333
 900.71;   38.067;   20.800;    0.000;17.26667
 900.95;   27.067;   40.533;    0.000;-13.46667
 901.19;   22.600;   60.733;    0.000;-38.13333
 901.44;   48.400;   33.933;    0.000;14.46667
 901.68;   74.400;   70.600;    0.000; 3.80000
 901.92;   72.667;  100.133;    0.000;-27.46667
 902.16;   84.800;  102.200;    0.000;-17.39999
 902.40;  102.733;  106.800;    0.000;-4.06667
 902.64;  136.067;  130.600;    0.000; 5.46666
 902.88;  176.133;  171.533;    0.000; 4.59999
 903.13;  157.467;  185.200;    0.000;-27.73334

