point1
Integration time [ms]:  30.000
Averaging Nr. [scans]: 15
Smoothing Nr. [pixels]: 0
Data measured with spectrometer [name]: 1307077U2
Wave   ;Sample   ;Dark     ;Reference;Scope Corrected for Dark
[nm]   ;[counts] ;[counts] ;[counts] 

 350.80;    6.067;  -10.667;    0.000;16.73333
 351.10;    5.000;   -8.067;    0.000;13.06667
 351.39;   12.267;   26.067;    0.000;-13.80000
 351.69;   -5.667;   -3.733;    0.000;-1.93333
 351.99;  -13.000;   -3.067;    0.000;-9.93333
 352.28;  -18.933;  -15.133;    0.000;-3.80000
 352.58;    1.400;  -14.067;    0.000;15.46667
 352.88;   -1.200;  -14.133;    0.000;12.93333
 353.17;  -12.400;   14.200;    0.000;-26.60000
 353.47;  -12.867;  -16.667;    0.000; 3.80000
 353.76;    1.600;  -10.600;    0.000;12.20000
 354.06;   -6.267;  -14.867;    0.000; 8.60000
 354.36;    8.333;   -5.800;    0.000;14.13333
 354.65;    2.133;   14.067;    0.000;-11.93333
 354.95;   -3.000;   -1.600;    0.000;-1.40000
 355.24;    0.067;  -15.667;    0.000;15.73333
 355.54;    1.000;   -5.000;    0.000; 6.00000
 355.84;   -3.733;   -6.600;    0.000; 2.86667
 356.13;   34.400;   12.733;    0.000;21.66667
 356.43;   -8.867;  -19.667;    0.000;10.80000
 356.72;  -15.667;  -21.133;    0.000; 5.46667
 357.02;  -11.800;    2.133;    0.000;-13.93333
 357.31;   24.400;    4.667;    0.000;19.73333
 357.61;   14.400;    0.200;    0.000;14.20000
 357.91;  -20.600;  -11.800;    0.000;-8.80000
 358.20;    1.933;   -3.400;    0.000; 5.33333
 358.50;  -21.600;  -28.600;    0.000; 7.00000
 358.79;  -12.733;    9.933;    0.000;-22.66667
 359.09;   24.400;   10.067;    0.000;14.33333
 359.38;  -19.733;   -0.600;    0.000;-19.13333
 359.68;  -13.600;  -34.933;    0.000;21.33333
 359.98;   -9.267;   -6.533;    0.000;-2.73333
 360.27;    0.133;    3.667;    0.000;-3.53333
 360.57;   -8.067;    7.267;    0.000;-15.33333
 360.86;    7.867;  -18.067;    0.000;25.93333
 361.16;  -12.200;  -31.667;    0.000;19.46667
 361.45;   11.400;   -6.333;    0.000;17.73333
 361.75;  -24.867;  -27.533;    0.000; 2.66667
 362.04;   22.867;   17.200;    0.000; 5.66667
 362.34;  -15.867;   -6.667;    0.000;-9.20000
 362.64;   -2.733;    2.267;    0.000;-5.00000
 362.93;   -7.667;    0.600;    0.000;-8.26667
 363.23;  -15.533;  -25.467;    0.000; 9.93333
 363.52;  -23.733;  -21.333;    0.000;-2.40000
 363.82;   -4.733;  -17.933;    0.000;13.20000
 364.11;    1.867;  -12.867;    0.000;14.73333
 364.41;  -16.933;  -22.067;    0.000; 5.13334
 364.70;  -24.667;    3.333;    0.000;-28.00000
 365.00;   18.667;  -18.133;    0.000;36.80000
 365.29;  -26.600;  -21.267;    0.000;-5.33333
 365.59;  -22.867;  -18.800;    0.000;-4.06667
 365.88;  -20.867;  -11.133;    0.000;-9.73333
 366.18;   -5.133;   -9.533;    0.000; 4.40000
 366.47;  -16.400;  -19.333;    0.000; 2.93333
 366.77;   11.867;  -15.067;    0.000;26.93333
 367.06;  -10.667;  -14.133;    0.000; 3.46667
 367.36;   11.667;    0.467;    0.000;11.20000
 367.65;    8.933;   -4.733;    0.000;13.66667
 367.95;    9.333;  -20.400;    0.000;29.73333
 368.24;   -1.733;    2.467;    0.000;-4.20000
 368.54;   -2.133;  -22.867;    0.000;20.73333
 368.83;    6.400;   11.067;    0.000;-4.66667
 369.13;  -16.667;    1.133;    0.000;-17.80000
 369.42;  -13.000;  -12.000;    0.000;-1.00000
 369.72;    8.867;    6.800;    0.000; 2.06667
 370.01;  -15.867;   -6.733;    0.000;-9.13333
 370.31;    0.267;   -5.067;    0.000; 5.33333
 370.60;   30.000;   28.667;    0.000; 1.33333
 370.90;   -9.067;  -16.200;    0.000; 7.13333
 371.19;  -13.467;  -13.867;    0.000; 0.40000
 371.49;  -22.267;  -27.000;    0.000; 4.73333
 371.78;  -22.400;  -13.800;    0.000;-8.60000
 372.08;    5.533;  -15.333;    0.000;20.86667
 372.37;    2.400;    3.200;    0.000;-0.80000
 372.67;   20.400;   -0.533;    0.000;20.93333
 372.96;  -17.467;  -21.667;    0.000; 4.20000
 373.26;  -18.600;  -18.467;    0.000;-0.13333
 373.55;  -12.800;   -9.867;    0.000;-2.93333
 373.85;  -18.467;   -1.933;    0.000;-16.53333
 374.14;    1.133;    3.333;    0.000;-2.20000
 374.43;   -5.067;  -28.533;    0.000;23.46667
 374.73;  -17.067;  -17.400;    0.000; 0.33333
 375.02;   -2.933;    6.933;    0.000;-9.86667
 375.32;  -24.600;  -13.000;    0.000;-11.60000
 375.61;   -0.933;  -28.133;    0.000;27.20000
 375.91;  -23.467;   -3.067;    0.000;-20.40000
 376.20;   -6.733;  -32.933;    0.000;26.20000
 376.50;  -17.533;  -31.933;    0.000;14.40000
 376.79;  -18.067;  -14.400;    0.000;-3.66667
 377.08;  -24.400;  -19.400;    0.000;-5.00000
 377.38;  -30.933;  -25.333;    0.000;-5.60000
 377.67;  -10.467;  -22.733;    0.000;12.26667
 377.97;  -23.067;  -36.200;    0.000;13.13333
 378.26;  -24.067;    7.000;    0.000;-31.06667
 378.56;  -35.133;  -28.000;    0.000;-7.13334
 378.85;  -10.867;   -7.867;    0.000;-3.00000
 379.14;  -10.133;  -26.200;    0.000;16.06667
 379.44;  -29.600;    1.600;    0.000;-31.20000
 379.73;    0.200;   -8.333;    0.000; 8.53333
 380.03;    7.800;   -5.000;    0.000;12.80000
 380.32;   21.533;  -14.000;    0.000;35.53333
 380.62;  -10.467;    4.000;    0.000;-14.46667
 380.91;   -4.667;   -8.933;    0.000; 4.26667
 381.20;   -7.733;    1.133;    0.000;-8.86667
 381.50;    1.800;  -19.467;    0.000;21.26667
 381.79;  -14.933;  -13.600;    0.000;-1.33333
 382.09;  -14.133;  -21.400;    0.000; 7.26667
 382.38;   -3.933;    8.867;    0.000;-12.80000
 382.67;  -11.200;  -24.733;    0.000;13.53333
 382.97;  -24.267;  -13.200;    0.000;-11.06667
 383.26;  -22.600;    3.467;    0.000;-26.06667
 383.56;  -24.533;   -0.267;    0.000;-24.26667
 383.85;  -21.400;  -25.267;    0.000; 3.86667
 384.14;    9.800;   20.000;    0.000;-10.20000
 384.44;  -24.000;  -19.600;    0.000;-4.40000
 384.73;   -4.933;  -17.200;    0.000;12.26667
 385.02;  -10.133;  -20.200;    0.000;10.06667
 385.32;   -1.333;  -14.933;    0.000;13.60000
 385.61;  -35.267;  -26.667;    0.000;-8.60000
 385.91;  -16.533;   -2.333;    0.000;-14.20000
 386.20;   -5.867;  -23.533;    0.000;17.66667
 386.49;  -31.200;  -21.800;    0.000;-9.40000
 386.79;   -8.333;  -18.800;    0.000;10.46667
 387.08;  -21.400;  -15.467;    0.000;-5.93333
 387.37;  -16.867;  -16.733;    0.000;-0.13333
 387.67;  -22.667;  -18.667;    0.000;-4.00000
 387.96;  -17.467;  -20.533;    0.000; 3.06667
 388.25;    0.467;   18.467;    0.000;-18.00000
 388.55;  -12.800;  -22.933;    0.000;10.13333
 388.84;  -39.133;  -23.867;    0.000;-15.26667
 389.14;  -15.467;  -27.800;    0.000;12.33333
 389.43;  -12.867;   -8.267;    0.000;-4.60000
 389.72;  -22.667;  -30.867;    0.000; 8.20000
 390.02;  -14.733;   -6.533;    0.000;-8.20000
 390.31;  -19.667;  -15.667;    0.000;-4.00000
 390.60;  -24.333;  -17.267;    0.000;-7.06667
 390.90;  -14.533;  -27.867;    0.000;13.33333
 391.19;  -32.933;   -2.933;    0.000;-30.00000
 391.48;   -5.800;   -2.333;    0.000;-3.46667
 391.78;  -12.733;   -2.867;    0.000;-9.86667
 392.07;   25.533;   34.933;    0.000;-9.40000
 392.36;    7.400;   -3.400;    0.000;10.80000
 392.66;  -11.333;  -14.733;    0.000; 3.40000
 392.95;  -29.467;  -17.867;    0.000;-11.60000
 393.24;  -27.267;  -34.867;    0.000; 7.60000
 393.53;  -19.733;   -1.600;    0.000;-18.13333
 393.83;    3.000;  -34.933;    0.000;37.93333
 394.12;  -27.333;   -8.600;    0.000;-18.73333
 394.41;   -2.733;  -29.600;    0.000;26.86667
 394.71;   -6.733;   -6.600;    0.000;-0.13333
 395.00;  -13.333;  -28.000;    0.000;14.66667
 395.29;  -13.333;   -1.800;    0.000;-11.53333
 395.59;  -24.200;  -28.533;    0.000; 4.33333
 395.88;  -35.467;  -21.267;    0.000;-14.20000
 396.17;  -16.867;  -20.067;    0.000; 3.20000
 396.46;   -0.667;    5.867;    0.000;-6.53333
 396.76;  -20.133;  -37.933;    0.000;17.80000
 397.05;   13.600;   10.333;    0.000; 3.26667
 397.34;  -17.133;  -40.800;    0.000;23.66667
 397.64;  -26.133;   -8.133;    0.000;-18.00000
 397.93;  -27.467;  -30.533;    0.000; 3.06667
 398.22;  -25.467;  -32.133;    0.000; 6.66667
 398.51;  -16.867;  -13.467;    0.000;-3.40000
 398.81;  -36.867;   -3.000;    0.000;-33.86666
 399.10;   -1.533;   -8.800;    0.000; 7.26667
 399.39;   -5.733;   -8.067;    0.000; 2.33333
 399.69;   -7.200;   -5.067;    0.000;-2.13333
 399.98;  -13.800;    1.200;    0.000;-15.00000
 400.27;  -13.133;  -36.133;    0.000;23.00000
 400.56;  -23.333;   -8.467;    0.000;-14.86667
 400.86;  -17.800;  -19.333;    0.000; 1.53333
 401.15;   -9.267;  -11.067;    0.000; 1.80000
 401.44;  -32.667;  -40.467;    0.000; 7.80000
 401.73;   -1.067;    0.133;    0.000;-1.20000
 402.03;   16.533;   -9.000;    0.000;25.53333
 402.32;  -19.000;  -26.933;    0.000; 7.93333
 402.61;   -8.467;   -7.467;    0.000;-1.00000
 402.90;  -16.133;  -32.067;    0.000;15.93333
 403.20;   -2.800;    2.933;    0.000;-5.73333
 403.49;   11.867;  -12.067;    0.000;23.93333
 403.78;  -27.933;  -33.600;    0.000; 5.66667
 404.07;    0.067;  -20.400;    0.000;20.46667
 404.37;  -11.600;  -10.867;    0.000;-0.73333
 404.66;  -26.933;    6.467;    0.000;-33.40000
 404.95;  -13.933;   -8.400;    0.000;-5.53333
 405.24;  -29.200;   -6.800;    0.000;-22.40000
 405.53;  -12.867;  -17.333;    0.000; 4.46667
 405.83;    3.333;    1.600;    0.000; 1.73333
 406.12;  -11.933;  -21.133;    0.000; 9.20000
 406.41;   -5.533;   15.533;    0.000;-21.06667
 406.70;  -16.467;  -22.467;    0.000; 6.00000
 407.00;  -18.200;    5.067;    0.000;-23.26667
 407.29;  -10.800;  -20.000;    0.000; 9.20000
 407.58;  -24.067;  -19.000;    0.000;-5.06667
 407.87;  -16.133;  -29.333;    0.000;13.20000
 408.16;  -22.933;  -21.400;    0.000;-1.53333
 408.46;  -22.333;  -36.867;    0.000;14.53333
 408.75;  -27.600;  -28.667;    0.000; 1.06667
 409.04;   -7.667;  -29.733;    0.000;22.06667
 409.33;   -2.600;  -13.533;    0.000;10.93333
 409.62;   -5.933;    2.267;    0.000;-8.20000
 409.92;   -0.933;  -16.000;    0.000;15.06667
 410.21;  -14.733;  -34.867;    0.000;20.13333
 410.50;  -32.800;  -19.000;    0.000;-13.80000
 410.79;    2.000;   -0.933;    0.000; 2.93333
 411.08;  -25.067;  -12.267;    0.000;-12.80000
 411.37;  -19.600;  -24.400;    0.000; 4.80000
 411.67;  -23.133;  -24.667;    0.000; 1.53333
 411.96;  -20.600;  -21.533;    0.000; 0.93333
 412.25;  -11.733;  -11.000;    0.000;-0.73333
 412.54;  -12.600;  -18.200;    0.000; 5.60000
 412.83;  -32.467;  -14.667;    0.000;-17.80000
 413.13;   -6.600;  -19.400;    0.000;12.80000
 413.42;  -30.467;  -18.667;    0.000;-11.80000
 413.71;  -12.067;  -21.000;    0.000; 8.93333
 414.00;  -12.467;  -32.467;    0.000;20.00000
 414.29;  -20.733;  -19.867;    0.000;-0.86667
 414.58;   -7.400;  -29.867;    0.000;22.46667
 414.87;  -15.467;  -40.667;    0.000;25.20000
 415.17;  -23.933;  -30.333;    0.000; 6.40000
 415.46;  -20.200;  -29.000;    0.000; 8.80000
 415.75;  -19.133;   -8.733;    0.000;-10.40000
 416.04;    2.467;  -10.400;    0.000;12.86667
 416.33;  -15.867;  -15.933;    0.000; 0.06667
 416.62;  -18.267;  -25.867;    0.000; 7.60000
 416.91;  -10.533;   14.667;    0.000;-25.20000
 417.21;   -7.600;  -36.667;    0.000;29.06667
 417.50;  -32.000;  -42.533;    0.000;10.53333
 417.79;  -21.200;  -17.800;    0.000;-3.40000
 418.08;  -15.333;   -5.933;    0.000;-9.40000
 418.37;   -1.533;  -20.867;    0.000;19.33333
 418.66;  -33.133;  -16.133;    0.000;-17.00000
 418.95;   16.800;  -16.733;    0.000;33.53333
 419.24;  -27.400;  -30.933;    0.000; 3.53333
 419.54;  -19.400;  -19.600;    0.000; 0.20000
 419.83;   -9.133;  -17.600;    0.000; 8.46667
 420.12;  -18.933;  -29.933;    0.000;11.00000
 420.41;   13.400;   17.667;    0.000;-4.26667
 420.70;  -21.733;  -33.733;    0.000;12.00000
 420.99;   -9.000;   -4.667;    0.000;-4.33333
 421.28;  -17.000;  -20.067;    0.000; 3.06667
 421.57;  -29.667;   -5.067;    0.000;-24.60000
 421.86;    0.667;    1.267;    0.000;-0.60000
 422.16;    5.067;  -14.000;    0.000;19.06667
 422.45;  -22.933;  -40.467;    0.000;17.53333
 422.74;  -17.733;  -16.867;    0.000;-0.86667
 423.03;  -23.800;  -15.133;    0.000;-8.66667
 423.32;  -32.000;  -11.533;    0.000;-20.46667
 423.61;  -14.533;  -12.733;    0.000;-1.80000
 423.90;  -23.933;  -27.000;    0.000; 3.06667
 424.19;   40.933;   27.933;    0.000;13.00000
 424.48;  -25.000;  -15.733;    0.000;-9.26667
 424.77;  -15.667;  -11.533;    0.000;-4.13333
 425.06;  -15.733;    0.400;    0.000;-16.13333
 425.35;  -14.667;   -3.200;    0.000;-11.46667
 425.65;  -24.067;  -21.733;    0.000;-2.33333
 425.94;  -16.667;  -35.067;    0.000;18.40000
 426.23;  -24.933;  -37.200;    0.000;12.26667
 426.52;  -21.667;  -32.333;    0.000;10.66667
 426.81;   15.933;   30.267;    0.000;-14.33333
 427.10;   -7.667;  -34.267;    0.000;26.60000
 427.39;   -5.733;  -18.133;    0.000;12.40000
 427.68;   -4.800;  -21.067;    0.000;16.26667
 427.97;  -10.800;    5.667;    0.000;-16.46667
 428.26;  -26.467;  -31.667;    0.000; 5.20000
 428.55;  -15.867;   -6.133;    0.000;-9.73333
 428.84;   -2.333;   -9.933;    0.000; 7.60000
 429.13;  -23.000;  -28.067;    0.000; 5.06667
 429.42;   -2.467;  -16.867;    0.000;14.40000
 429.71;  -19.667;  -20.600;    0.000; 0.93333
 430.00;  -10.400;   -8.267;    0.000;-2.13333
 430.29;  -20.467;  -40.733;    0.000;20.26667
 430.58;  -22.133;  -24.933;    0.000; 2.80000
 430.87;  -37.867;  -30.667;    0.000;-7.20000
 431.16;  -32.533;  -11.200;    0.000;-21.33333
 431.46;   -3.933;  -15.733;    0.000;11.80000
 431.75;  -19.000;  -28.133;    0.000; 9.13333
 432.04;   -8.867;  -15.867;    0.000; 7.00000
 432.33;   -8.133;  -12.800;    0.000; 4.66667
 432.62;  -17.533;  -21.933;    0.000; 4.40000
 432.91;  -28.133;  -26.333;    0.000;-1.80000
 433.20;  -31.200;  -20.867;    0.000;-10.33333
 433.49;  -11.933;  -45.733;    0.000;33.80000
 433.78;  -31.067;  -30.000;    0.000;-1.06667
 434.07;   -3.400;  -22.133;    0.000;18.73333
 434.36;  -29.200;  -20.933;    0.000;-8.26667
 434.65;  -23.000;  -26.733;    0.000; 3.73333
 434.94;  -15.667;  -41.800;    0.000;26.13333
 435.23;  -12.333;  -13.067;    0.000; 0.73333
 435.52;   -9.933;   -6.467;    0.000;-3.46667
 435.81;  -35.400;  -18.200;    0.000;-17.20000
 436.10;  -24.067;  -25.267;    0.000; 1.20000
 436.39;    4.333;  -15.267;    0.000;19.60000
 436.68;   -3.667;  -22.333;    0.000;18.66667
 436.97;  -21.400;  -24.333;    0.000; 2.93333
 437.26;  -25.933;   -8.200;    0.000;-17.73333
 437.55;  -17.133;  -33.800;    0.000;16.66667
 437.83;  -35.467;  -24.733;    0.000;-10.73333
 438.12;  -46.733;  -37.200;    0.000;-9.53333
 438.41;  -21.867;  -15.267;    0.000;-6.60000
 438.70;   20.067;   23.600;    0.000;-3.53333
 438.99;   11.400;   -2.933;    0.000;14.33333
 439.28;  -12.467;  -22.600;    0.000;10.13333
 439.57;  -38.733;  -18.667;    0.000;-20.06667
 439.86;  -13.867;  -32.467;    0.000;18.60000
 440.15;   -7.267;   -6.933;    0.000;-0.33333
 440.44;   -2.333;  -29.667;    0.000;27.33333
 440.73;  -28.533;  -41.400;    0.000;12.86667
 441.02;   -4.467;  -29.800;    0.000;25.33333
 441.31;   -5.933;  -15.733;    0.000; 9.80000
 441.60;  -11.133;  -20.667;    0.000; 9.53333
 441.89;  -39.800;  -26.867;    0.000;-12.93333
 442.18;  -19.067;  -16.800;    0.000;-2.26667
 442.47;  -14.067;  -13.200;    0.000;-0.86667
 442.76;   -7.333;  -26.667;    0.000;19.33333
 443.05;   -1.533;  -11.400;    0.000; 9.86667
 443.34;   -2.400;  -25.333;    0.000;22.93333
 443.63;  -33.933;  -34.067;    0.000; 0.13333
 443.91;    0.400;  -28.533;    0.000;28.93333
 444.20;  -29.867;  -36.600;    0.000; 6.73333
 444.49;  -40.267;  -36.200;    0.000;-4.06667
 444.78;  -12.133;    1.933;    0.000;-14.06667
 445.07;    9.000;  -20.067;    0.000;29.06667
 445.36;  -21.533;  -35.800;    0.000;14.26667
 445.65;  -24.200;  -16.267;    0.000;-7.93333
 445.94;  -30.733;  -21.400;    0.000;-9.33333
 446.23;   -5.933;  -38.067;    0.000;32.13333
 446.52;  -10.333;   -5.467;    0.000;-4.86667
 446.81;  -21.867;  -17.400;    0.000;-4.46667
 447.10;  -33.400;  -19.533;    0.000;-13.86667
 447.38;  -20.133;  -38.600;    0.000;18.46667
 447.67;  -22.733;  -50.000;    0.000;27.26667
 447.96;  -27.800;  -49.267;    0.000;21.46667
 448.25;  -17.667;  -11.933;    0.000;-5.73333
 448.54;   81.400;   81.200;    0.000; 0.20000
 448.83;  -28.867;  -28.067;    0.000;-0.80000
 449.12;  -24.333;  -47.133;    0.000;22.80000
 449.41;  -20.533;  -25.467;    0.000; 4.93333
 449.70;  -18.067;  -39.867;    0.000;21.80000
 449.98;  -35.333;  -28.800;    0.000;-6.53333
 450.27;   -6.067;  -24.600;    0.000;18.53333
 450.56;  -43.800;  -23.733;    0.000;-20.06667
 450.85;  -11.533;  -14.533;    0.000; 3.00000
 451.14;  -26.600;  -27.867;    0.000; 1.26667
 451.43;  -30.467;  -44.133;    0.000;13.66667
 451.72;  -15.333;  -29.800;    0.000;14.46667
 452.01;   -9.400;  -25.533;    0.000;16.13333
 452.29;  -36.200;  -27.533;    0.000;-8.66667
 452.58;  -27.467;  -35.333;    0.000; 7.86666
 452.87;  -24.200;  -17.133;    0.000;-7.06667
 453.16;   -8.733;  -26.533;    0.000;17.80000
 453.45;   -2.333;   -0.200;    0.000;-2.13333
 453.74;   -8.200;  -14.467;    0.000; 6.26667
 454.03;  -26.800;  -18.267;    0.000;-8.53333
 454.31;   -8.933;  -32.933;    0.000;24.00000
 454.60;  -20.133;  -23.133;    0.000; 3.00000
 454.89;   -2.400;  -17.333;    0.000;14.93333
 455.18;  -16.600;  -21.933;    0.000; 5.33333
 455.47;  -47.733;  -49.200;    0.000; 1.46667
 455.76;  -35.067;  -17.267;    0.000;-17.80000
 456.04;  -15.733;  -30.333;    0.000;14.60000
 456.33;  -27.467;  -26.533;    0.000;-0.93333
 456.62;    1.933;  -24.867;    0.000;26.80000
 456.91;  -16.333;  -47.000;    0.000;30.66667
 457.20;   11.667;  -13.333;    0.000;25.00000
 457.49;  -16.733;  -22.933;    0.000; 6.20000
 457.77;  -21.467;  -28.667;    0.000; 7.20000
 458.06;  -22.400;  -19.333;    0.000;-3.06667
 458.35;  -16.267;  -35.133;    0.000;18.86667
 458.64;  -19.133;  -13.733;    0.000;-5.40000
 458.93;    2.533;  -33.933;    0.000;36.46667
 459.21;  -21.933;  -45.267;    0.000;23.33333
 459.50;  -29.867;  -24.333;    0.000;-5.53333
 459.79;  -38.667;  -36.400;    0.000;-2.26667
 460.08;  -22.533;  -42.400;    0.000;19.86667
 460.37;  -22.667;  -24.333;    0.000; 1.66667
 460.65;  -10.600;  -26.333;    0.000;15.73333
 460.94;  -28.267;  -36.333;    0.000; 8.06667
 461.23;  -13.867;  -32.533;    0.000;18.66667
 461.52;   -7.600;   17.333;    0.000;-24.93333
 461.81;  -12.933;  -33.933;    0.000;21.00000
 462.09;  -25.000;  -24.667;    0.000;-0.33333
 462.38;   -7.133;  -53.333;    0.000;46.20000
 462.67;  -22.467;  -15.400;    0.000;-7.06667
 462.96;   -9.800;  -40.267;    0.000;30.46667
 463.24;  -25.467;  -18.467;    0.000;-7.00000
 463.53;    0.867;  -25.467;    0.000;26.33333
 463.82;  -22.600;   -2.667;    0.000;-19.93333
 464.11;  -27.400;  -34.867;    0.000; 7.46667
 464.40;  -19.867;  -35.800;    0.000;15.93333
 464.68;  -45.800;  -47.400;    0.000; 1.60000
 464.97;  -16.533;  -32.333;    0.000;15.80000
 465.26;   -5.600;   -9.533;    0.000; 3.93333
 465.55;  -27.067;  -12.600;    0.000;-14.46667
 465.83;  -15.533;  -36.467;    0.000;20.93333
 466.12;  -48.867;  -22.400;    0.000;-26.46667
 466.41;   -6.867;  -38.200;    0.000;31.33333
 466.70;  -15.267;  -33.533;    0.000;18.26667
 466.98;  -19.000;  -44.333;    0.000;25.33333
 467.27;  -10.067;  -12.800;    0.000; 2.73333
 467.56;   10.000;   -5.267;    0.000;15.26667
 467.85;  -19.733;  -13.867;    0.000;-5.86667
 468.13;  -26.133;  -48.000;    0.000;21.86667
 468.42;  -17.867;  -30.467;    0.000;12.60000
 468.71;   -7.133;  -39.200;    0.000;32.06667
 468.99;  -34.667;  -11.267;    0.000;-23.40000
 469.28;  -11.200;  -31.867;    0.000;20.66667
 469.57;  -28.133;  -35.200;    0.000; 7.06667
 469.86;   -1.200;  -50.333;    0.000;49.13333
 470.14;  -37.667;  -14.333;    0.000;-23.33333
 470.43;   -8.200;  -24.800;    0.000;16.60000
 470.72;  -23.467;  -28.933;    0.000; 5.46667
 471.00;  -24.267;  -41.667;    0.000;17.40000
 471.29;   22.133;   12.733;    0.000; 9.40000
 471.58;   13.867;   -6.133;    0.000;20.00000
 471.87;  -16.533;  -29.800;    0.000;13.26667
 472.15;   -8.333;  -34.400;    0.000;26.06667
 472.44;   16.933;    8.400;    0.000; 8.53333
 472.73;  -19.267;  -59.467;    0.000;40.20000
 473.01;   -8.733;  -23.667;    0.000;14.93333
 473.30;   -1.200;  -31.000;    0.000;29.80000
 473.59;    2.733;  -31.467;    0.000;34.20000
 473.87;   -6.867;  -26.933;    0.000;20.06667
 474.16;  -38.533;  -33.600;    0.000;-4.93333
 474.45;   11.133;  -42.133;    0.000;53.26667
 474.74;   -5.400;  -44.467;    0.000;39.06667
 475.02;   23.133;  -35.067;    0.000;58.20000
 475.31;   13.000;  -24.800;    0.000;37.80000
 475.60;   29.200;  -15.400;    0.000;44.60000
 475.88;   21.733;  -26.733;    0.000;48.46667
 476.17;   38.533;   -1.333;    0.000;39.86667
 476.46;   36.400;  -39.867;    0.000;76.26667
 476.74;   39.667;  -49.867;    0.000;89.53333
 477.03;   11.000;  -24.000;    0.000;35.00000
 477.32;   70.733;    2.133;    0.000;68.60000
 477.60;   57.200;  -24.133;    0.000;81.33333
 477.89;   75.600;  -30.400;    0.000;106.00000
 478.18;   76.067;    0.067;    0.000;76.00000
 478.46;   88.733;  -30.333;    0.000;119.06666
 478.75;   79.000;  -35.267;    0.000;114.26667
 479.03;  110.600;  -44.067;    0.000;154.66666
 479.32;   99.000;  -44.533;    0.000;143.53333
 479.61;  119.200;  -42.200;    0.000;161.40000
 479.89;  101.400;  -29.667;    0.000;131.06667
 480.18;  140.533;  -38.467;    0.000;179.00001
 480.47;  139.267;   -6.133;    0.000;145.40000
 480.75;  168.267;  -42.133;    0.000;210.40000
 481.04;  193.933;  -16.667;    0.000;210.60000
 481.33;  213.400;  -30.800;    0.000;244.19999
 481.61;  227.133;  -19.933;    0.000;247.06666
 481.90;  200.867;  -63.733;    0.000;264.60000
 482.18;  283.600;   -9.067;    0.000;292.66667
 482.47;  284.200;  -22.667;    0.000;306.86668
 482.76;  296.600;  -45.333;    0.000;341.93334
 483.04;  308.600;  -37.667;    0.000;346.26667
 483.33;  324.000;  -22.333;    0.000;346.33333
 483.61;  376.600;  -40.933;    0.000;417.53334
 483.90;  380.400;  -16.333;    0.000;396.73333
 484.19;  410.333;  -46.400;    0.000;456.73335
 484.47;  452.733;  -21.733;    0.000;474.46667
 484.76;  478.067;  -59.933;    0.000;538.00002
 485.05;  518.133;  -19.600;    0.000;537.73336
 485.33;  547.867;  -16.000;    0.000;563.86664
 485.62;  553.933;  -34.400;    0.000;588.33335
 485.90;  613.267;  -30.133;    0.000;643.40000
 486.19;  625.400;  -33.000;    0.000;658.40002
 486.47;  678.333;   -8.200;    0.000;686.53331
 486.76;  723.333;  -31.467;    0.000;754.79998
 487.05;  770.333;  -10.333;    0.000;780.66665
 487.33;  798.533;  -27.067;    0.000;825.59999
 487.62;  843.600;  -68.133;    0.000;911.73331
 487.90;  867.733;  -23.600;    0.000;891.33334
 488.19;  960.267;  -18.533;    0.000;978.80000
 488.47; 1013.733;  -20.467;    0.000;1034.20000
 488.76; 1019.733;  -36.333;    0.000;1056.06667
 489.05; 1085.000;    1.000;    0.000;1084.00000
 489.33; 1129.000;  -36.867;    0.000;1165.86666
 489.62; 1163.067;  -14.000;    0.000;1177.06665
 489.90; 1209.200;  -38.533;    0.000;1247.73328
 490.19; 1280.667;  -51.933;    0.000;1332.59996
 490.47; 1346.600;  -24.200;    0.000;1370.79998
 490.76; 1364.733;  -36.733;    0.000;1401.46661
 491.05; 1469.667;  -16.533;    0.000;1486.19996
 491.33; 1506.267;  -19.267;    0.000;1525.53339
 491.62; 1549.000;  -30.267;    0.000;1579.26667
 491.90; 1601.133;  -27.867;    0.000;1628.99997
 492.19; 1675.533;  -30.133;    0.000;1705.66666
 492.47; 1740.133;  -37.333;    0.000;1777.46663
 492.76; 1801.600;  -42.867;    0.000;1844.46664
 493.04; 1893.600;  -25.800;    0.000;1919.39997
 493.33; 1910.800;  -39.733;    0.000;1950.53338
 493.61; 1998.267;  -22.400;    0.000;2020.66672
 493.90; 2084.400;  -21.200;    0.000;2105.59990
 494.18; 2146.933;  -20.400;    0.000;2167.33335
 494.47; 2189.200;  -32.400;    0.000;2221.59995
 494.75; 2257.667;  -39.067;    0.000;2296.73341
 495.04; 2314.533;  -26.733;    0.000;2341.26678
 495.32; 2362.133;  -21.733;    0.000;2383.86663
 495.61; 2511.400;  -37.333;    0.000;2548.73323
 495.89; 2518.200;  -36.000;    0.000;2554.19995
 496.18; 2585.267;  -30.333;    0.000;2615.59994
 496.46; 2709.600;  -37.533;    0.000;2747.13343
 496.75; 2756.067;  -29.400;    0.000;2785.46665
 497.03; 2835.867;  -29.600;    0.000;2865.46670
 497.32; 2958.333;  -39.400;    0.000;2997.73325
 497.60; 2977.867;  -52.200;    0.000;3030.06670
 497.89; 3088.000;  -42.200;    0.000;3130.20000
 498.17; 3130.067;  -17.667;    0.000;3147.73332
 498.46; 3247.800;  -34.067;    0.000;3281.86671
 498.74; 3335.733;  -29.533;    0.000;3365.26673
 499.03; 3389.933;  -39.000;    0.000;3428.93335
 499.31; 3425.867;  -31.867;    0.000;3457.73337
 499.60; 3556.000;  -12.933;    0.000;3568.93333
 499.88; 3598.867;   -4.267;    0.000;3603.13337
 500.17; 3711.200;  -41.800;    0.000;3752.99995
 500.45; 3734.333;  -25.400;    0.000;3759.73325
 500.74; 3864.933;  -10.133;    0.000;3875.06668
 501.02; 3918.800;  -39.933;    0.000;3958.73338
 501.31; 4024.000;  -54.867;    0.000;4078.86666
 501.59; 4065.667;  -21.000;    0.000;4086.66675
 501.88; 4221.600;  -40.667;    0.000;4262.26677
 502.16; 4275.067;  -30.400;    0.000;4305.46689
 502.45; 4380.200;  -35.400;    0.000;4415.60020
 502.73; 4375.733;  -27.067;    0.000;4402.80007
 503.01; 4509.867;  -29.133;    0.000;4539.00003
 503.30; 4548.000;  -24.000;    0.000;4572.00000
 503.58; 4665.400;  -41.333;    0.000;4706.73323
 503.87; 4698.133;  -26.600;    0.000;4724.73330
 504.15; 4806.667;  -50.067;    0.000;4856.73317
 504.44; 4923.533;  -17.267;    0.000;4940.79987
 504.72; 5000.733;  -13.600;    0.000;5014.33340
 505.00; 5045.133;  -13.800;    0.000;5058.93330
 505.29; 5161.467;  -11.600;    0.000;5173.06680
 505.57; 5253.733;   -9.867;    0.000;5263.60007
 505.86; 5307.867;  -41.533;    0.000;5349.40003
 506.14; 5354.867;  -44.800;    0.000;5399.66670
 506.43; 5469.333;  -21.267;    0.000;5490.60016
 506.71; 5575.733;  -54.400;    0.000;5630.13340
 506.99; 5525.000;  -38.133;    0.000;5563.13334
 507.28; 5665.667;  -29.667;    0.000;5695.33317
 507.56; 5726.467;  -60.133;    0.000;5786.60013
 507.85; 5787.867;  -35.067;    0.000;5822.93336
 508.13; 5917.733;  -49.667;    0.000;5967.40007
 508.41; 5975.000;    8.133;    0.000;5966.86667
 508.70; 6063.867;  -51.733;    0.000;6115.60003
 508.98; 6163.000;  -44.333;    0.000;6207.33333
 509.27; 6225.333;  -22.600;    0.000;6247.93350
 509.55; 6337.600;  -29.467;    0.000;6367.06676
 509.83; 6347.667;  -49.867;    0.000;6397.53317
 510.12; 6420.733;  -51.267;    0.000;6472.00006
 510.40; 6600.667;  -24.867;    0.000;6625.53317
 510.69; 6615.667;  -34.133;    0.000;6649.79984
 510.97; 6655.800;  -31.800;    0.000;6687.59980
 511.25; 6700.400;  -23.400;    0.000;6723.79990
 511.54; 6795.267;  -37.933;    0.000;6833.19994
 511.82; 6947.067;  -34.067;    0.000;6981.13356
 512.11; 6922.200;  -59.467;    0.000;6981.66686
 512.39; 7041.467;  -46.467;    0.000;7087.93346
 512.67; 7083.733;  -50.600;    0.000;7134.33340
 512.96; 7270.600;  -34.533;    0.000;7305.13343
 513.24; 7276.533;  -33.200;    0.000;7309.73320
 513.52; 7348.800;  -25.933;    0.000;7374.73314
 513.81; 7386.733;  -26.267;    0.000;7413.00006
 514.09; 7414.933;  -41.533;    0.000;7456.46644
 514.37; 7605.933;  -47.200;    0.000;7653.13311
 514.66; 7611.667;  -16.733;    0.000;7628.39984
 514.94; 7625.600;  -24.667;    0.000;7650.26676
 515.22; 7619.467;  -39.133;    0.000;7658.60013
 515.51; 7722.067;  -47.133;    0.000;7769.20023
 515.79; 7813.400;  -46.467;    0.000;7859.86657
 516.07; 7897.600;  -38.200;    0.000;7935.80010
 516.36; 7941.733;  -33.133;    0.000;7974.86673
 516.64; 7925.467;  -40.867;    0.000;7966.33346
 516.92; 8064.200;  -45.533;    0.000;8109.73353
 517.21; 8142.133;  -66.133;    0.000;8208.26663
 517.49; 8351.533;  -37.800;    0.000;8389.33320
 517.77; 8374.533;  -41.933;    0.000;8416.46654
 518.06; 8464.134;  -37.667;    0.000;8501.80046
 518.34; 8530.333;  -19.533;    0.000;8549.86634
 518.62; 8586.134;  -19.933;    0.000;8606.06712
 518.91; 8784.134;  143.200;    0.000;8640.93379
 519.19; 8694.600;  -42.733;    0.000;8737.33294
 519.47; 8859.200;  -29.533;    0.000;8888.73353
 519.76; 8871.800;  -29.133;    0.000;8900.93314
 520.04; 8997.467;  -37.467;    0.000;9034.93346
 520.32; 8987.934;    4.267;    0.000;8983.66693
 520.61; 9128.333;  -10.333;    0.000;9138.66634
 520.89; 9127.533;  -35.467;    0.000;9162.99987
 521.17; 9217.333;  -45.800;    0.000;9263.13301
 521.45; 9276.134;  -30.800;    0.000;9306.93379
 521.74; 9274.134;  -43.467;    0.000;9317.60046
 522.02; 9380.800;  -10.000;    0.000;9390.79980
 522.30; 9445.866;  -40.667;    0.000;9486.53288
 522.59; 9502.800;  -12.467;    0.000;9515.26647
 522.87; 9561.267;  -34.000;    0.000;9595.26660
 523.15; 9568.800;  -25.667;    0.000;9594.46647
 523.43; 9689.733;  -52.067;    0.000;9741.80006
 523.72; 9790.667;  -17.933;    0.000;9808.60032
 524.00; 9773.134;  -49.067;    0.000;9822.20045
 524.28; 9790.733;  -19.733;    0.000;9810.46673
 524.57; 9897.333;  -24.000;    0.000;9921.33301
 524.85; 9932.200;  -39.667;    0.000;9971.86686
 525.13;10118.667;  -37.800;    0.000;10156.46699
 525.41; 9962.200;  -15.933;    0.000;9978.13353
 525.70;10107.733;  -39.200;    0.000;10146.93340
 525.98;10115.200;  -40.000;    0.000;10155.20020
 526.26;10289.533;  -38.467;    0.000;10327.99987
 526.54;10274.533;   -6.133;    0.000;10280.66654
 526.83;10306.267;  -41.067;    0.000;10347.33327
 527.11;10377.866;  -10.600;    0.000;10388.46621
 527.39;10360.200;  -42.867;    0.000;10403.06686
 527.67;10470.134;  -26.533;    0.000;10496.66712
 527.96;10590.200;  -44.800;    0.000;10635.00019
 528.24;10582.866;  -36.800;    0.000;10619.66621
 528.52;10662.400;  -45.200;    0.000;10707.60039
 528.80;10731.934;  -20.667;    0.000;10752.60026
 529.08;10786.600;  -61.067;    0.000;10847.66628
 529.37;10882.866;  -22.000;    0.000;10904.86621
 529.65;10857.866;  -42.133;    0.000;10899.99955
 529.93;11007.866;  -33.733;    0.000;11041.59954
 530.21;10999.533;  -60.200;    0.000;11059.73320
 530.50;10982.533;   -5.600;    0.000;10988.13320
 530.78;11040.533;  -45.933;    0.000;11086.46654
 531.06;11139.400;  -44.533;    0.000;11183.93372
 531.34;11145.134;  -43.400;    0.000;11188.53379
 531.62;11184.533;  -60.400;    0.000;11244.93320
 531.91;11262.467;  -48.733;    0.000;11311.20013
 532.19;11310.066;  -35.600;    0.000;11345.66640
 532.47;11343.600;  -39.333;    0.000;11382.93294
 532.75;11341.267;  -25.400;    0.000;11366.66660
 533.03;11400.934;  -13.067;    0.000;11414.00026
 533.32;11464.667;  -30.467;    0.000;11495.13366
 533.60;11507.400;  -42.733;    0.000;11550.13372
 533.88;11605.400;  -23.133;    0.000;11628.53372
 534.16;11584.600;  -39.933;    0.000;11624.53294
 534.44;11624.467;  -14.400;    0.000;11638.86680
 534.72;11656.000;  -56.267;    0.000;11712.26667
 535.01;11711.400;  -38.467;    0.000;11749.86706
 535.29;11712.000;  -60.267;    0.000;11772.26667
 535.57;11810.533;  -51.667;    0.000;11862.19987
 535.85;11802.066;  -37.467;    0.000;11839.53307
 536.13;11865.733;  -35.267;    0.000;11901.00006
 536.42;11779.733;  -50.600;    0.000;11830.33340
 536.70;11951.400;  -37.933;    0.000;11989.33372
 536.98;11981.066;  -29.933;    0.000;12010.99974
 537.26;11914.600;  -47.867;    0.000;11962.46627
 537.54;12124.733;  -68.200;    0.000;12192.93340
 537.82;12066.333;  -30.533;    0.000;12096.86634
 538.10;12252.000;  -36.067;    0.000;12288.06667
 538.39;12225.934;  -26.133;    0.000;12252.06693
 538.67;12212.000;  -35.733;    0.000;12247.73333
 538.95;12285.000;  -55.667;    0.000;12340.66667
 539.23;12193.934;  -45.333;    0.000;12239.26693
 539.51;12342.733;  -18.133;    0.000;12360.86673
 539.79;12280.400;  -36.133;    0.000;12316.53373
 540.07;12362.667;  -44.267;    0.000;12406.93366
 540.36;12399.000;  -52.133;    0.000;12451.13334
 540.64;12391.134;  -50.933;    0.000;12442.06712
 540.92;12425.800;  -51.133;    0.000;12476.93314
 541.20;12451.800;  -29.667;    0.000;12481.46647
 541.48;12702.866;   -2.533;    0.000;12705.39954
 541.76;12586.333;  -34.000;    0.000;12620.33301
 542.04;12597.333;  -58.333;    0.000;12655.66634
 542.32;12685.267;  -50.533;    0.000;12735.79993
 542.61;12714.667;  -35.467;    0.000;12750.13366
 542.89;12704.467;  -21.867;    0.000;12726.33346
 543.17;12785.467;  -37.333;    0.000;12822.80013
 543.45;12836.000;  -43.733;    0.000;12879.73333
 543.73;12804.000;  -50.933;    0.000;12854.93333
 544.01;12758.934;  -29.200;    0.000;12788.13359
 544.29;12816.200;  -28.600;    0.000;12844.80020
 544.57;12837.934;  -43.333;    0.000;12881.26693
 544.85;12911.000;  -50.400;    0.000;12961.40000
 545.13;12892.667;  -24.733;    0.000;12917.40033
 545.42;12960.800;  -45.733;    0.000;13006.53314
 545.70;12996.800;  -25.267;    0.000;13022.06647
 545.98;12997.934;  -58.867;    0.000;13056.80026
 546.26;12942.800;  -45.400;    0.000;12988.19981
 546.54;13044.667;  -54.400;    0.000;13099.06699
 546.82;13029.733;  -27.000;    0.000;13056.73340
 547.10;13027.267;  -21.800;    0.000;13049.06660
 547.38;13049.533;  -47.733;    0.000;13097.26654
 547.66;13041.333;  -34.933;    0.000;13076.26634
 547.94;13119.400;  -39.333;    0.000;13158.73372
 548.22;13052.200;  -43.200;    0.000;13095.40020
 548.50;13074.066;  -43.800;    0.000;13117.86641
 548.78;13096.600;  -38.667;    0.000;13135.26628
 549.06;12995.467;  -30.533;    0.000;13026.00013
 549.34;13154.200;  -50.667;    0.000;13204.86686
 549.63;13250.733;  -27.533;    0.000;13278.26673
 549.91;13199.267;  -40.800;    0.000;13240.06660
 550.19;13178.333;  -15.933;    0.000;13194.26634
 550.47;13166.600;  -53.400;    0.000;13219.99961
 550.75;13016.000;  -66.600;    0.000;13082.60000
 551.03;13184.200;  -61.600;    0.000;13245.80019
 551.31;13215.866;  -33.000;    0.000;13248.86621
 551.59;13177.134;  -65.733;    0.000;13242.86712
 551.87;13263.733;  -17.733;    0.000;13281.46673
 552.15;13290.333;  -62.133;    0.000;13352.46634
 552.43;13130.200;  -23.733;    0.000;13153.93353
 552.71;13194.934;  -52.067;    0.000;13247.00026
 552.99;13232.000;  -41.533;    0.000;13273.53333
 553.27;13145.400;  -51.067;    0.000;13196.46706
 553.55;13212.934;  -47.400;    0.000;13260.33360
 553.83;13197.600;  -50.333;    0.000;13247.93294
 554.11;13224.200;  -27.467;    0.000;13251.66686
 554.39;13321.467;  -29.467;    0.000;13350.93346
 554.67;13195.467;  -38.667;    0.000;13234.13346
 554.95;13224.000;  -32.133;    0.000;13256.13334
 555.23;13286.267;  -29.133;    0.000;13315.39993
 555.51;13228.533;  -56.467;    0.000;13284.99987
 555.79;13277.533;  -30.933;    0.000;13308.46654
 556.07;13129.134;  -48.267;    0.000;13177.40046
 556.35;13223.800;  -44.000;    0.000;13267.79980
 556.63;13240.533;  -51.200;    0.000;13291.73320
 556.91;13290.934;  -14.133;    0.000;13305.06693
 557.19;13131.733;  -57.133;    0.000;13188.86673
 557.47;13259.467;  -29.533;    0.000;13289.00013
 557.75;13161.134;  -55.667;    0.000;13216.80046
 558.03;13239.066;  -43.400;    0.000;13282.46641
 558.31;13125.667;  -55.267;    0.000;13180.93366
 558.59;13154.600;  -40.467;    0.000;13195.06628
 558.87;13105.200;  -44.467;    0.000;13149.66686
 559.15;13158.134;  -37.600;    0.000;13195.73379
 559.43;13300.533;  -44.400;    0.000;13344.93320
 559.71;13270.733;  -25.267;    0.000;13296.00006
 559.99;13260.000;  -46.133;    0.000;13306.13334
 560.27;13125.267;  -17.800;    0.000;13143.06660
 560.55;13146.533;  -41.533;    0.000;13188.06654
 560.82;13104.200;  -48.000;    0.000;13152.20020
 561.10;13211.934;  -60.000;    0.000;13271.93359
 561.38;13203.134;  -54.533;    0.000;13257.66712
 561.66;13074.667;  -33.133;    0.000;13107.80033
 561.94;13127.200;  -42.200;    0.000;13169.40020
 562.22;13091.934;  -47.267;    0.000;13139.20026
 562.50;13124.267;  -27.333;    0.000;13151.59994
 562.78;13084.333;  -32.267;    0.000;13116.59967
 563.06;12984.000;  -44.600;    0.000;13028.60000
 563.34;12979.000;  -42.067;    0.000;13021.06667
 563.62;13023.800;  -45.200;    0.000;13068.99981
 563.90;12923.533;  -55.533;    0.000;12979.06654
 564.18;12989.533;  -32.867;    0.000;13022.39987
 564.46;12875.400;  -42.267;    0.000;12917.66706
 564.74;12900.066;  -34.067;    0.000;12934.13307
 565.01;12870.000;  -41.467;    0.000;12911.46667
 565.29;12836.000;  -33.333;    0.000;12869.33333
 565.57;12781.800;  -52.200;    0.000;12833.99981
 565.85;12810.934;  -26.467;    0.000;12837.40026
 566.13;12674.134;  -61.067;    0.000;12735.20045
 566.41;12725.600;  -17.067;    0.000;12742.66628
 566.69;12663.000;  -44.133;    0.000;12707.13334
 566.97;12782.934;  -41.267;    0.000;12824.20026
 567.25;12752.000;  -57.933;    0.000;12809.93333
 567.53;12608.934;  -48.267;    0.000;12657.20026
 567.80;12667.000;  -41.000;    0.000;12708.00000
 568.08;12642.000;  -31.333;    0.000;12673.33333
 568.36;12544.533;  -40.867;    0.000;12585.39987
 568.64;12382.600;  -38.933;    0.000;12421.53294
 568.92;12520.600;  -20.733;    0.000;12541.33294
 569.20;12496.134;  -49.400;    0.000;12545.53379
 569.48;12342.200;  -63.267;    0.000;12405.46686
 569.76;12393.400;  -44.600;    0.000;12438.00039
 570.03;12254.066;  -34.933;    0.000;12288.99974
 570.31;12381.667;  -19.800;    0.000;12401.46699
 570.59;12236.400;  -51.333;    0.000;12287.73372
 570.87;12273.267;  -29.933;    0.000;12303.19993
 571.15;12138.600;  -77.933;    0.000;12216.53294
 571.43;12214.267;  -28.867;    0.000;12243.13327
 571.71;12245.733;  -53.333;    0.000;12299.06673
 571.98;12152.333;  -39.733;    0.000;12192.06634
 572.26;11965.600;  -46.533;    0.000;12012.13294
 572.54;12001.333;  -47.733;    0.000;12049.06634
 572.82;11931.800;  -45.267;    0.000;11977.06647
 573.10;11931.000;  -42.667;    0.000;11973.66667
 573.38;12041.866;  -47.267;    0.000;12089.13288
 573.66;11890.000;  -47.000;    0.000;11937.00000
 573.93;11940.200;  -58.800;    0.000;11999.00019
 574.21;11824.066;  -51.600;    0.000;11875.66640
 574.49;11852.800;  -62.467;    0.000;11915.26647
 574.77;11798.467;  -44.533;    0.000;11843.00013
 575.05;11813.533;  -34.733;    0.000;11848.26654
 575.33;11592.600;  -58.333;    0.000;11650.93294
 575.60;11655.866;  -44.867;    0.000;11700.73288
 575.88;11573.400;  -36.333;    0.000;11609.73372
 576.16;11645.000;  -35.267;    0.000;11680.26667
 576.44;11419.533;  -30.733;    0.000;11450.26654
 576.72;11511.934;  -62.067;    0.000;11574.00026
 576.99;11391.667;  -55.067;    0.000;11446.73366
 577.27;11262.400;  -45.600;    0.000;11308.00039
 577.55;11439.400;   -8.667;    0.000;11448.06706
 577.83;11380.866;  -47.533;    0.000;11428.39954
 578.11;11188.333;  -63.867;    0.000;11252.19967
 578.38;11219.866;  -41.533;    0.000;11261.39954
 578.66;11050.333;  -65.267;    0.000;11115.59968
 578.94;11104.934;  -43.400;    0.000;11148.33360
 579.22;11093.866;  -52.733;    0.000;11146.59954
 579.50;11061.600;  -21.133;    0.000;11082.73294
 579.77;10986.667;  -47.400;    0.000;11034.06699
 580.05;11051.733;  -49.467;    0.000;11101.20007
 580.33;10969.333;  -45.600;    0.000;11014.93301
 580.61;10778.533;  -56.000;    0.000;10834.53320
 580.88;10927.400;  -35.933;    0.000;10963.33372
 581.16;10751.333;  -50.200;    0.000;10801.53301
 581.44;10775.467;  -24.467;    0.000;10799.93346
 581.72;10728.600;  -71.133;    0.000;10799.73294
 581.99;10583.934;  -30.200;    0.000;10614.13359
 582.27;10561.467;  -58.133;    0.000;10619.60013
 582.55;10486.134;  -51.400;    0.000;10537.53379
 582.83;10450.400;  -30.533;    0.000;10480.93372
 583.10;10446.600;  -26.133;    0.000;10472.73294
 583.38;10451.267;  -70.733;    0.000;10521.99993
 583.66;10351.400;  -32.533;    0.000;10383.93372
 583.94;10304.667;  -46.333;    0.000;10351.00032
 584.21;10241.467;  -53.400;    0.000;10294.86680
 584.49;10147.533;  -62.467;    0.000;10209.99987
 584.77;10141.267;  -44.600;    0.000;10185.86660
 585.05;10167.667;  -70.867;    0.000;10238.53366
 585.32;10002.467;  -40.067;    0.000;10042.53346
 585.60;10048.733;  -53.067;    0.000;10101.80006
 585.88;10020.066;  -39.267;    0.000;10059.33307
 586.16; 9847.467;  -42.067;    0.000;9889.53346
 586.43; 9882.200;   -5.200;    0.000;9887.40020
 586.71; 9784.400;  -29.000;    0.000;9813.40039
 586.99; 9727.066;  -64.400;    0.000;9791.46641
 587.26; 9607.733;  -57.400;    0.000;9665.13340
 587.54; 9623.934;  -38.000;    0.000;9661.93359
 587.82; 9554.400;  -54.400;    0.000;9608.80039
 588.10; 9535.333;  -23.133;    0.000;9558.46634
 588.37; 9505.600;  -46.867;    0.000;9552.46627
 588.65; 9365.600;  -44.600;    0.000;9410.19961
 588.93; 9334.066;  -50.600;    0.000;9384.66640
 589.20; 9288.934;  -41.000;    0.000;9329.93359
 589.48; 9215.667;  -30.800;    0.000;9246.46699
 589.76; 9204.400;   -9.667;    0.000;9214.06706
 590.03; 9095.134;  -39.800;    0.000;9134.93379
 590.31; 9117.733;  -41.400;    0.000;9159.13340
 590.59; 9020.934;  -38.467;    0.000;9059.40026
 590.86; 8832.267;  -34.067;    0.000;8866.33327
 591.14; 8982.600;  -62.400;    0.000;9044.99961
 591.42; 8959.000;  -60.200;    0.000;9019.20000
 591.70; 8746.934;  -55.400;    0.000;8802.33360
 591.97; 8671.267;  -46.600;    0.000;8717.86660
 592.25; 8674.866;  -38.400;    0.000;8713.26621
 592.53; 8632.467;  -30.467;    0.000;8662.93346
 592.80; 8453.400;  -42.533;    0.000;8495.93372
 593.08; 8477.533;  -36.933;    0.000;8514.46654
 593.36; 8527.800;   -5.267;    0.000;8533.06647
 593.63; 8338.667;  -32.933;    0.000;8371.60033
 593.91; 8374.533;  -47.467;    0.000;8421.99987
 594.18; 8321.134;  -29.667;    0.000;8350.80046
 594.46; 8241.800;  -50.333;    0.000;8292.13314
 594.74; 8168.600;  -54.667;    0.000;8223.26677
 595.01; 8195.000;  -70.800;    0.000;8265.80000
 595.29; 8072.867;  -78.067;    0.000;8150.93336
 595.57; 8047.133;  -29.000;    0.000;8076.13330
 595.84; 8008.267;  -48.867;    0.000;8057.13327
 596.12; 7885.400;  -46.267;    0.000;7931.66657
 596.40; 7804.267;  -65.200;    0.000;7869.46660
 596.67; 7779.467;  -68.267;    0.000;7847.73347
 596.95; 7769.467;  -41.667;    0.000;7811.13346
 597.22; 7622.067;  -55.267;    0.000;7677.33356
 597.50; 7603.733;  -26.067;    0.000;7629.80007
 597.78; 7611.200;  -53.067;    0.000;7664.26686
 598.05; 7561.133;  -44.933;    0.000;7606.06664
 598.33; 7425.600;  -52.867;    0.000;7478.46676
 598.61; 7396.667;  -48.333;    0.000;7444.99984
 598.88; 7321.733;  -42.200;    0.000;7363.93340
 599.16; 7336.600;  -51.133;    0.000;7387.73343
 599.43; 7270.533;  -70.800;    0.000;7341.33321
 599.71; 7210.000;  -55.933;    0.000;7265.93333
 599.99; 7138.867;  -58.400;    0.000;7197.26670
 600.26; 7046.600;  -53.400;    0.000;7100.00010
 600.54; 7068.600;  -34.467;    0.000;7103.06676
 600.81; 7019.600;  -35.000;    0.000;7054.60010
 601.09; 6877.333;  -41.400;    0.000;6918.73350
 601.36; 6879.267;  -49.267;    0.000;6928.53327
 601.64; 6831.733;  -43.800;    0.000;6875.53340
 601.92; 6778.800;  -37.467;    0.000;6816.26647
 602.19; 6732.533;  -64.600;    0.000;6797.13320
 602.47; 6686.400;  -65.467;    0.000;6751.86657
 602.74; 6685.600;  -45.667;    0.000;6731.26677
 603.02; 6594.800;  -29.200;    0.000;6623.99981
 603.29; 6559.267;  -35.800;    0.000;6595.06660
 603.57; 6576.200;  -62.533;    0.000;6638.73353
 603.85; 6520.667;  -53.267;    0.000;6573.93317
 604.12; 6432.867;  -18.000;    0.000;6450.86670
 604.40; 6437.333;  -52.800;    0.000;6490.13350
 604.67; 6312.067;  -37.600;    0.000;6349.66689
 604.95; 6230.467;  -59.400;    0.000;6289.86680
 605.22; 6257.600;  -48.333;    0.000;6305.93343
 605.50; 6193.867;  -40.467;    0.000;6234.33337
 605.77; 6153.000;  -26.200;    0.000;6179.20000
 606.05; 6100.267;  -56.600;    0.000;6156.86660
 606.33; 6066.667;  -41.333;    0.000;6107.99984
 606.60; 6010.200;  -52.533;    0.000;6062.73353
 606.88; 6061.333;  -26.400;    0.000;6087.73350
 607.15; 5948.467;  -44.933;    0.000;5993.40013
 607.43; 5969.667;  -33.267;    0.000;6002.93317
 607.70; 5889.467;  -34.133;    0.000;5923.60013
 607.98; 5822.600;  -55.200;    0.000;5877.80010
 608.25; 5756.067;  -67.333;    0.000;5823.40023
 608.53; 5739.400;  -55.200;    0.000;5794.59990
 608.80; 5680.533;  -67.400;    0.000;5747.93320
 609.08; 5767.667;  -55.600;    0.000;5823.26650
 609.35; 5680.200;  -59.400;    0.000;5739.60020
 609.63; 5572.000;  -62.667;    0.000;5634.66667
 609.90; 5583.600;  -63.133;    0.000;5646.73343
 610.18; 5585.533;  -27.600;    0.000;5613.13320
 610.45; 5518.600;  -59.733;    0.000;5578.33343
 610.73; 5502.667;  -53.200;    0.000;5555.86650
 611.00; 5433.467;  -17.533;    0.000;5451.00013
 611.28; 5481.133;  -49.733;    0.000;5530.86663
 611.55; 5354.067;  -72.867;    0.000;5426.93356
 611.83; 5370.467;  -50.467;    0.000;5420.93346
 612.10; 5338.800;  -58.000;    0.000;5396.79980
 612.38; 5370.867;  -39.333;    0.000;5410.20003
 612.65; 5284.133;  -44.467;    0.000;5328.59997
 612.93; 5241.267;  -65.867;    0.000;5307.13327
 613.20; 5194.467;  -41.600;    0.000;5236.06680
 613.48; 5187.133;  -60.267;    0.000;5247.39997
 613.75; 5160.933;  -78.933;    0.000;5239.86644
 614.03; 5141.667;  -53.400;    0.000;5195.06651
 614.30; 5074.000;  -75.000;    0.000;5149.00000
 614.57; 5061.600;  -69.800;    0.000;5131.40010
 614.85; 4993.000;  -60.333;    0.000;5053.33333
 615.12; 5006.333;  -51.133;    0.000;5057.46683
 615.40; 4985.067;  -61.267;    0.000;5046.33356
 615.67; 4900.867;  -51.467;    0.000;4952.33337
 615.95; 4934.067;  -53.800;    0.000;4987.86689
 616.22; 4851.400;  -55.467;    0.000;4906.86657
 616.50; 4881.133;  -45.333;    0.000;4926.46663
 616.77; 4753.533;  -50.933;    0.000;4804.46654
 617.05; 4780.333;  -51.133;    0.000;4831.46683
 617.32; 4792.600;  -51.400;    0.000;4844.00010
 617.59; 4699.533;  -59.800;    0.000;4759.33320
 617.87; 4674.667;  -62.333;    0.000;4736.99984
 618.14; 4634.333;  -73.733;    0.000;4708.06683
 618.42; 4579.267;  -44.267;    0.000;4623.53327
 618.69; 4551.267;  -71.333;    0.000;4622.59994
 618.97; 4484.800;  -62.467;    0.000;4547.26647
 619.24; 4472.933;  -49.600;    0.000;4522.53310
 619.51; 4377.867;  -49.867;    0.000;4427.73336
 619.79; 4242.333;  -53.333;    0.000;4295.66683
 620.06; 4240.467;  -56.000;    0.000;4296.46680
 620.34; 4199.267;  -87.400;    0.000;4286.66660
 620.61; 4144.867;  -41.733;    0.000;4186.60003
 620.88; 4130.400;  -47.200;    0.000;4177.59990
 621.16; 4067.200;  -43.000;    0.000;4110.19995
 621.43; 4173.600;  -65.333;    0.000;4238.93343
 621.71; 4203.533;  -59.200;    0.000;4262.73320
 621.98; 4107.333;  -37.333;    0.000;4144.66683
 622.25; 4070.133;  -50.533;    0.000;4120.66663
 622.53; 4087.600;  -53.733;    0.000;4141.33343
 622.80; 4071.400;  -47.733;    0.000;4119.13324
 623.08; 4037.733;  -65.533;    0.000;4103.26673
 623.35; 3982.867;  -57.600;    0.000;4040.46670
 623.62; 3962.267;  -59.933;    0.000;4022.19994
 623.90; 3913.467;  -60.600;    0.000;3974.06655
 624.17; 3900.533;  -44.600;    0.000;3945.13345
 624.44; 3881.533;  -54.533;    0.000;3936.06678
 624.72; 3846.333;  -41.267;    0.000;3887.59992
 624.99; 3858.800;  -62.933;    0.000;3921.73338
 625.26; 3827.667;  -68.533;    0.000;3896.20008
 625.54; 3872.667;  -41.400;    0.000;3914.06675
 625.81; 3818.600;  -68.467;    0.000;3887.06676
 626.09; 3852.800;  -37.267;    0.000;3890.06672
 626.36; 3849.267;  -57.667;    0.000;3906.93327
 626.63; 3832.200;  -36.733;    0.000;3868.93328
 626.91; 3809.133;  -73.333;    0.000;3882.46664
 627.18; 3830.133;  -41.133;    0.000;3871.26664
 627.45; 3823.267;  -64.800;    0.000;3888.06660
 627.73; 3751.067;  -59.400;    0.000;3810.46665
 628.00; 3726.800;  -82.733;    0.000;3809.53338
 628.27; 3669.267;  -17.933;    0.000;3687.19993
 628.55; 3707.533;  -58.533;    0.000;3766.06678
 628.82; 3670.000;  -66.200;    0.000;3736.20000
 629.09; 3691.067;  -32.067;    0.000;3723.13332
 629.37; 3557.333;  -47.133;    0.000;3604.46659
 629.64; 3617.933;  -55.800;    0.000;3673.73335
 629.91; 3584.200;  -51.533;    0.000;3635.73328
 630.18; 3605.933;  -85.400;    0.000;3691.33335
 630.46; 3580.400;  -34.267;    0.000;3614.66657
 630.73; 3593.267;  -46.133;    0.000;3639.39994
 631.00; 3538.467;  -42.933;    0.000;3581.39989
 631.28; 3513.467;  -81.200;    0.000;3594.66655
 631.55; 3490.400;  -47.667;    0.000;3538.06657
 631.82; 3505.533;  -54.600;    0.000;3560.13345
 632.10; 3522.933;  -33.067;    0.000;3556.00002
 632.37; 3483.000;  -52.667;    0.000;3535.66667
 632.64; 3504.733;  -46.600;    0.000;3551.33340
 632.91; 3511.933;  -65.267;    0.000;3577.20002
 633.19; 3378.267;  -54.867;    0.000;3433.13327
 633.46; 3388.667;  -73.000;    0.000;3461.66675
 633.73; 3449.333;  -27.467;    0.000;3476.79992
 634.01; 3406.933;  -50.000;    0.000;3456.93335
 634.28; 3391.933;  -46.267;    0.000;3438.20002
 634.55; 3400.467;  -34.067;    0.000;3434.53322
 634.82; 3448.467;  -53.400;    0.000;3501.86655
 635.10; 3404.333;  -46.400;    0.000;3450.73325
 635.37; 3414.800;  -51.600;    0.000;3466.40005
 635.64; 3370.200;  -63.600;    0.000;3433.79995
 635.91; 3380.267;  -58.600;    0.000;3438.86660
 636.19; 3393.933;  -65.733;    0.000;3459.66668
 636.46; 3446.667;  -37.867;    0.000;3484.53341
 636.73; 3466.667;  -40.067;    0.000;3506.73341
 637.00; 3501.133;  -34.800;    0.000;3535.93330
 637.28; 3456.667;  -66.933;    0.000;3523.60008
 637.55; 3476.800;  -12.933;    0.000;3489.73338
 637.82; 3358.667;  -57.800;    0.000;3416.46675
 638.09; 3335.133;  -28.600;    0.000;3363.73330
 638.37; 3343.133;  -76.200;    0.000;3419.33330
 638.64; 3310.067;  -55.933;    0.000;3365.99998
 638.91; 3252.867;  -70.200;    0.000;3323.06670
 639.18; 3233.333;  -43.867;    0.000;3277.19992
 639.46; 3226.067;  -80.267;    0.000;3306.33332
 639.73; 3187.333;  -35.467;    0.000;3222.79992
 640.00; 3176.533;  -69.667;    0.000;3246.20011
 640.27; 3123.733;  -72.933;    0.000;3196.66673
 640.54; 3145.667;  -59.533;    0.000;3205.20008
 640.82; 3124.400;  -46.400;    0.000;3170.79990
 641.09; 3103.067;  -62.400;    0.000;3165.46665
 641.36; 3066.133;  -54.133;    0.000;3120.26664
 641.63; 3098.933;  -54.733;    0.000;3153.66668
 641.91; 2994.533;  -58.000;    0.000;3052.53345
 642.18; 2977.267;  -68.533;    0.000;3045.79993
 642.45; 2931.600;  -47.267;    0.000;2978.86676
 642.72; 2854.400;  -74.133;    0.000;2928.53323
 642.99; 2860.600;  -27.000;    0.000;2887.60010
 643.26; 2828.267;  -45.067;    0.000;2873.33327
 643.54; 2857.400;  -34.133;    0.000;2891.53324
 643.81; 2775.800;  -69.267;    0.000;2845.06672
 644.08; 2758.133;  -46.133;    0.000;2804.26664
 644.35; 2782.200;  -49.400;    0.000;2831.59995
 644.62; 2712.800;  -53.400;    0.000;2766.20005
 644.90; 2744.667;  -52.400;    0.000;2797.06675
 645.17; 2662.933;  -53.867;    0.000;2716.80001
 645.44; 2689.067;  -70.333;    0.000;2759.39999
 645.71; 2644.667;  -62.133;    0.000;2706.80008
 645.98; 2630.667;  -74.600;    0.000;2705.26675
 646.25; 2631.067;  -54.867;    0.000;2685.93332
 646.53; 2610.867;  -59.667;    0.000;2670.53337
 646.80; 2591.133;  -51.867;    0.000;2642.99997
 647.07; 2614.000;  -77.333;    0.000;2691.33334
 647.34; 2565.467;  -48.533;    0.000;2613.99989
 647.61; 2521.467;  -62.600;    0.000;2584.06655
 647.88; 2530.467;  -28.600;    0.000;2559.06655
 648.15; 2445.533;  -51.867;    0.000;2497.40011
 648.43; 2453.800;  -46.600;    0.000;2500.40005
 648.70; 2462.267;  -62.933;    0.000;2525.19994
 648.97; 2456.467;  -59.867;    0.000;2516.33322
 649.24; 2419.067;  -50.333;    0.000;2469.39998
 649.51; 2399.067;  -58.600;    0.000;2457.66665
 649.78; 2441.200;  -79.467;    0.000;2520.66662
 650.05; 2372.333;  -45.667;    0.000;2417.99992
 650.32; 2461.867;   32.333;    0.000;2429.53337
 650.60; 2341.467;  -51.000;    0.000;2392.46655
 650.87; 2299.733;  -53.600;    0.000;2353.33340
 651.14; 2332.000;  -50.267;    0.000;2382.26667
 651.41; 2347.867;  -72.133;    0.000;2420.00003
 651.68; 2280.867;  -51.533;    0.000;2332.40003
 651.95; 2324.800;  -41.667;    0.000;2366.46672
 652.22; 2301.267;  -63.267;    0.000;2364.53327
 652.49; 2239.533;  -82.200;    0.000;2321.73344
 652.76; 2239.600;  -69.467;    0.000;2309.06676
 653.03; 2203.600;  -47.533;    0.000;2251.13343
 653.31; 2228.267;  -66.000;    0.000;2294.26660
 653.58; 2182.467;  -66.867;    0.000;2249.33322
 653.85; 2185.600;  -45.467;    0.000;2231.06676
 654.12; 2147.400;  -53.867;    0.000;2201.26657
 654.39; 2174.000;  -11.267;    0.000;2185.26667
 654.66; 2178.200;  -27.933;    0.000;2206.13328
 654.93; 2133.933;  -35.000;    0.000;2168.93335
 655.20; 2034.067;  -72.133;    0.000;2106.19998
 655.47; 2090.600;  -56.400;    0.000;2147.00010
 655.74; 2097.667;  -55.067;    0.000;2152.73341
 656.01; 2051.333;  -63.400;    0.000;2114.73325
 656.28; 2056.133;  -65.600;    0.000;2121.73330
 656.55; 2025.133;  -38.400;    0.000;2063.53330
 656.83; 2038.200;  -59.667;    0.000;2097.86662
 657.10; 2018.733;  -66.400;    0.000;2085.13328
 657.37; 1987.733;  -63.667;    0.000;2051.39994
 657.64; 1995.200;  -59.200;    0.000;2054.39995
 657.91; 1960.533;  -67.267;    0.000;2027.80000
 658.18; 1968.800;  -39.333;    0.000;2008.13338
 658.45; 1909.733;  -72.267;    0.000;1981.99995
 658.72; 1950.200;  -56.667;    0.000;2006.86662
 658.99; 1918.600;  -68.667;    0.000;1987.26664
 659.26; 1922.267;  -30.667;    0.000;1952.93339
 659.53; 1890.733;  -77.000;    0.000;1967.73328
 659.80; 1897.667;  -52.933;    0.000;1950.59996
 660.07; 1905.400;  -41.200;    0.000;1946.60003
 660.34; 1898.533;  -61.800;    0.000;1960.33332
 660.61; 1858.600;  -98.733;    0.000;1957.33331
 660.88; 1815.267;  -64.933;    0.000;1880.20006
 661.15; 1826.200;  -51.267;    0.000;1877.46662
 661.42; 1790.067;  -49.867;    0.000;1839.93332
 661.69; 1807.600;  -61.667;    0.000;1869.26664
 661.96; 1758.800;  -83.733;    0.000;1842.53338
 662.23; 1829.800;  -59.333;    0.000;1889.13338
 662.50; 1793.933;  -62.067;    0.000;1856.00002
 662.77; 1751.800;  -59.867;    0.000;1811.66671
 663.04; 1759.733;  -50.867;    0.000;1810.59994
 663.31; 1684.600;  -58.733;    0.000;1743.33331
 663.58; 1707.467;  -42.933;    0.000;1750.40001
 663.85; 1710.467;  -64.067;    0.000;1774.53334
 664.12; 1664.067;  -64.533;    0.000;1728.59998
 664.39; 1690.800;  -67.467;    0.000;1758.26672
 664.66; 1660.267;  -67.067;    0.000;1727.33339
 664.93; 1637.000;  -71.200;    0.000;1708.20000
 665.20; 1603.800;  -63.000;    0.000;1666.80005
 665.47; 1617.200;  -63.267;    0.000;1680.46662
 665.74; 1574.333;  -74.467;    0.000;1648.80004
 666.01; 1621.000;  -48.400;    0.000;1669.40000
 666.28; 1582.667;  -75.400;    0.000;1658.06663
 666.55; 1561.467;  -57.533;    0.000;1619.00001
 666.82; 1572.867;  -60.733;    0.000;1633.60003
 667.09; 1547.533;  -50.533;    0.000;1598.06666
 667.36; 1538.867;  -58.133;    0.000;1597.00003
 667.63; 1545.533;  -61.800;    0.000;1607.33332
 667.90; 1515.867;  -67.200;    0.000;1583.06670
 668.16; 1512.933;  -66.933;    0.000;1579.86668
 668.43; 1467.067;  -79.267;    0.000;1546.33332
 668.70; 1486.467;  -54.533;    0.000;1541.00001
 668.97; 1497.600;  -59.200;    0.000;1556.79998
 669.24; 1435.867;  -54.533;    0.000;1490.40003
 669.51; 1446.400;  -63.000;    0.000;1509.40002
 669.78; 1478.200;  -76.667;    0.000;1554.86662
 670.05; 1407.000;  -59.867;    0.000;1466.86666
 670.32; 1428.533;  -57.600;    0.000;1486.13332
 670.59; 1385.333;  -57.467;    0.000;1442.80004
 670.86; 1408.000;  -66.800;    0.000;1474.80000
 671.13; 1403.200;  -42.667;    0.000;1445.86662
 671.40; 1376.533;  -58.600;    0.000;1435.13332
 671.67; 1360.733;  -40.933;    0.000;1401.66661
 671.93; 1349.867;  -73.267;    0.000;1423.13337
 672.20; 1306.600;  -68.333;    0.000;1374.93331
 672.47; 1311.800;  -77.467;    0.000;1389.26672
 672.74; 1314.600;  -54.000;    0.000;1368.59998
 673.01; 1292.467;  -70.733;    0.000;1363.20000
 673.28; 1308.133;  -42.267;    0.000;1350.39997
 673.55; 1316.133;  -73.333;    0.000;1389.46664
 673.82; 1295.067;  -56.333;    0.000;1351.39998
 674.09; 1270.467;  -72.267;    0.000;1342.73335
 674.35; 1237.333;  -69.267;    0.000;1306.60004
 674.62; 1278.867;  -61.733;    0.000;1340.60003
 674.89; 1239.800;  -61.667;    0.000;1301.46672
 675.16; 1232.933;  -70.200;    0.000;1303.13335
 675.43; 1233.333;  -56.000;    0.000;1289.33337
 675.70; 1264.733;  -36.533;    0.000;1301.26661
 675.97; 1193.733;  -46.333;    0.000;1240.06661
 676.24; 1213.200;  -55.400;    0.000;1268.59995
 676.50; 1198.400;  -56.333;    0.000;1254.73336
 676.77; 1176.200;  -72.533;    0.000;1248.73328
 677.04; 1184.600;  -54.600;    0.000;1239.19997
 677.31; 1159.067;  -70.200;    0.000;1229.26665
 677.58; 1148.400;  -58.200;    0.000;1206.60003
 677.85; 1160.933;  -39.133;    0.000;1200.06668
 678.12; 1120.933;  -53.667;    0.000;1174.60002
 678.38; 1092.933;  -52.000;    0.000;1144.93335
 678.65; 1096.800;  -69.867;    0.000;1166.66672
 678.92; 1099.333;  -71.733;    0.000;1171.06670
 679.19; 1121.067;  -30.733;    0.000;1151.79998
 679.46; 1082.467;  -61.733;    0.000;1144.20001
 679.73; 1101.067;  -60.200;    0.000;1161.26665
 679.99; 1070.600;  -86.000;    0.000;1156.59998
 680.26; 1090.467;  -83.867;    0.000;1174.33334
 680.53; 1067.667;  -75.933;    0.000;1143.59996
 680.80; 1051.933;  -65.733;    0.000;1117.66668
 681.07; 1017.600;  -67.733;    0.000;1085.33331
 681.33; 1039.733;  -55.133;    0.000;1094.86661
 681.60; 1038.133;  -77.933;    0.000;1116.06664
 681.87; 1001.800;  -65.800;    0.000;1067.59999
 682.14; 1002.533;  -46.067;    0.000;1048.59999
 682.41;  999.200;  -70.933;    0.000;1070.13335
 682.67;  990.200;  -45.667;    0.000;1035.86668
 682.94;  973.467;  -70.467;    0.000;1043.93334
 683.21;  964.267;  -76.133;    0.000;1040.39999
 683.48;  949.067;  -50.933;    0.000;999.99998
 683.75;  971.800;  -58.000;    0.000;1029.79999
 684.01;  995.133;  -51.933;    0.000;1047.06670
 684.28;  928.133;  -66.333;    0.000;994.46670
 684.55;  930.467;  -56.933;    0.000;987.40001
 684.82;  924.400;  -82.467;    0.000;1006.86669
 685.09;  946.333;  -49.467;    0.000;995.79998
 685.35;  915.800;  -43.467;    0.000;959.26665
 685.62;  888.600;  -42.400;    0.000;930.99998
 685.89;  942.600;  -37.800;    0.000;980.39997
 686.16;  853.400;  -66.600;    0.000;920.00002
 686.42;  882.733;  -71.600;    0.000;954.33334
 686.69;  915.533;  -41.267;    0.000;956.79999
 686.96;  862.200;  -73.200;    0.000;935.40001
 687.23;  856.800;  -39.400;    0.000;896.19999
 687.49;  865.800;  -25.133;    0.000;890.93332
 687.76;  851.067;  -63.333;    0.000;914.39998
 688.03;  832.400;  -57.067;    0.000;889.46669
 688.30;  817.933;  -74.933;    0.000;892.86668
 688.56;  777.733;  -71.733;    0.000;849.46667
 688.83;  803.533;  -87.133;    0.000;890.66666
 689.10;  825.467;  -55.733;    0.000;881.20001
 689.37;  777.333;  -77.600;    0.000;854.93331
 689.63;  801.667;  -54.467;    0.000;856.13335
 689.90;  776.400;  -52.933;    0.000;829.33336
 690.17;  770.000;  -75.000;    0.000;845.00000
 690.44;  773.133;  -54.600;    0.000;827.73336
 690.70;  779.000;  -74.000;    0.000;853.00000
 690.97;  772.933;  -50.933;    0.000;823.86668
 691.24;  788.667;  -40.400;    0.000;829.06669
 691.50;  731.067;  -78.133;    0.000;809.19998
 691.77;  730.000;  -73.533;    0.000;803.53333
 692.04;  735.533;  -61.467;    0.000;796.99999
 692.30;  733.600;  -73.067;    0.000;806.66664
 692.57;  740.600;  -51.267;    0.000;791.86664
 692.84;  697.467;  -84.467;    0.000;781.93334
 693.11;  675.733;  -51.333;    0.000;727.06667
 693.37;  702.667;  -71.600;    0.000;774.26669
 693.64;  673.200;  -66.067;    0.000;739.26668
 693.91;  670.667;  -65.400;    0.000;736.06669
 694.17;  666.867;  -65.733;    0.000;732.59997
 694.44;  662.533;  -82.000;    0.000;744.53333
 694.71;  680.667;  -52.800;    0.000;733.46669
 694.97;  660.067;  -62.800;    0.000;722.86665
 695.24;  629.800;  -71.267;    0.000;701.06666
 695.51;  612.400;  -92.533;    0.000;704.93336
 695.77;  609.400;  -50.733;    0.000;660.13336
 696.04;  616.533;  -73.267;    0.000;689.80000
 696.31;  609.533;  -64.733;    0.000;674.26665
 696.57;  604.733;  -50.000;    0.000;654.73334
 696.84;  615.267;  -58.133;    0.000;673.40000
 697.11;  606.600;  -55.267;    0.000;661.86664
 697.37;  597.600;  -35.533;    0.000;633.13331
 697.64;  569.600;  -76.600;    0.000;646.19997
 697.91;  574.133;  -59.133;    0.000;633.26670
 698.17;  561.467;  -75.200;    0.000;636.66667
 698.44;  538.133;  -48.733;    0.000;586.86670
 698.71;  540.467;  -63.933;    0.000;604.40001
 698.97;  544.867;  -57.000;    0.000;601.86664
 699.24;  545.267;  -51.667;    0.000;596.93333
 699.50;  504.733;  -52.467;    0.000;557.20000
 699.77;  546.667;  -41.133;    0.000;587.80002
 700.04;  498.800;  -64.333;    0.000;563.13332
 700.30;  505.600;  -73.133;    0.000;578.73334
 700.57;  504.067;  -63.333;    0.000;567.40001
 700.84;  521.333;  -63.467;    0.000;584.79998
 701.10;  487.467;  -65.867;    0.000;553.33334
 701.37;  469.200;  -75.867;    0.000;545.06668
 701.63;  453.800;  -76.933;    0.000;530.73332
 701.90;  472.200;  -58.667;    0.000;530.86668
 702.17;  487.467;  -34.933;    0.000;522.40001
 702.43;  448.667;  -70.067;    0.000;518.73332
 702.70;  478.800;  -16.800;    0.000;495.59999
 702.96;  422.667;  -62.267;    0.000;484.93332
 703.23;  397.733;  -67.867;    0.000;465.60001
 703.50;  426.733;  -74.200;    0.000;500.93333
 703.76;  396.933;  -68.333;    0.000;465.26665
 704.03;  416.267;  -57.267;    0.000;473.53333
 704.29;  395.267;  -51.267;    0.000;446.53333
 704.56;  386.600;  -65.867;    0.000;452.46667
 704.82;  361.200;  -56.267;    0.000;417.46668
 705.09;  388.067;  -57.733;    0.000;445.80001
 705.36;  363.533;  -86.867;    0.000;450.39999
 705.62;  377.933;  -30.000;    0.000;407.93332
 705.89;  349.867;  -58.600;    0.000;408.46667
 706.15;  351.800;  -80.667;    0.000;432.46665
 706.42;  345.467;  -44.000;    0.000;389.46667
 706.68;  318.000;  -79.667;    0.000;397.66666
 706.95;  321.933;  -40.800;    0.000;362.73332
 707.21;  308.733;  -89.600;    0.000;398.33334
 707.48;  320.267;  -62.333;    0.000;382.59999
 707.75;  323.000;  -64.267;    0.000;387.26667
 708.01;  299.267;  -70.867;    0.000;370.13333
 708.28;  317.133;  -63.800;    0.000;380.93333
 708.54;  282.667;  -54.600;    0.000;337.26665
 708.81;  324.667;  -42.000;    0.000;366.66666
 709.07;  284.067;  -64.000;    0.000;348.06668
 709.34;  290.467;  -80.467;    0.000;370.93334
 709.60;  264.200;  -74.000;    0.000;338.20001
 709.87;  288.000;  -42.733;    0.000;330.73333
 710.13;  248.200;  -78.600;    0.000;326.80000
 710.40;  264.600;  -88.600;    0.000;353.20000
 710.66;  238.733;  -68.533;    0.000;307.26667
 710.93;  252.400;  -68.467;    0.000;320.86666
 711.19;  260.733;  -68.667;    0.000;329.40000
 711.46;  249.133;  -57.333;    0.000;306.46666
 711.72;  248.933;  -60.533;    0.000;309.46667
 711.99;  268.267;  -64.333;    0.000;332.60000
 712.25;  232.933;  -40.867;    0.000;273.80000
 712.52;  246.133;  -65.467;    0.000;311.60000
 712.78;  241.667;  -58.067;    0.000;299.73334
 713.05;  228.600;  -70.400;    0.000;299.00001
 713.31;  215.667;  -74.867;    0.000;290.53334
 713.58;  210.400;  -63.200;    0.000;273.59999
 713.84;  206.867;  -56.933;    0.000;263.80000
 714.11;  238.600;  -61.600;    0.000;300.20000
 714.37;  225.333;  -37.200;    0.000;262.53333
 714.64;  223.533;  -62.467;    0.000;286.00001
 714.90;  192.867;  -48.000;    0.000;240.86667
 715.17;  182.200;  -73.333;    0.000;255.53333
 715.43;  191.600;  -57.000;    0.000;248.60001
 715.70;  196.200;  -75.133;    0.000;271.33333
 715.96;  198.067;  -66.733;    0.000;264.80000
 716.22;  203.867;  -68.733;    0.000;272.60000
 716.49;  199.200;  -86.533;    0.000;285.73333
 716.75;  170.600;  -93.600;    0.000;264.20000
 717.02;  187.800;  -68.267;    0.000;256.06667
 717.28;  171.067;  -84.933;    0.000;256.00000
 717.55;  185.400;  -80.267;    0.000;265.66666
 717.81;  214.067;  -59.400;    0.000;273.46667
 718.08;  185.467;  -56.133;    0.000;241.59999
 718.34;  186.133;  -85.333;    0.000;271.46667
 718.60;  203.733;  -55.400;    0.000;259.13334
 718.87;  210.600;  -56.600;    0.000;267.20000
 719.13;  201.333;  -68.400;    0.000;269.73333
 719.40;  187.400;  -73.933;    0.000;261.33333
 719.66;  187.800;  -79.400;    0.000;267.20000
 719.93;  197.333;  -54.600;    0.000;251.93333
 720.19;  182.600;  -66.733;    0.000;249.33334
 720.45;  173.467;  -73.800;    0.000;247.26666
 720.72;  174.733;  -67.933;    0.000;242.66667
 720.98;  190.733;  -63.600;    0.000;254.33334
 721.25;  147.600;  -65.133;    0.000;212.73334
 721.51;  162.133;  -76.600;    0.000;238.73333
 721.77;  175.267;  -57.200;    0.000;232.46666
 722.04;  199.733;  -63.600;    0.000;263.33334
 722.30;  189.200;  -46.667;    0.000;235.86666
 722.57;  187.867;  -76.467;    0.000;264.33334
 722.83;  187.200;  -56.667;    0.000;243.86666
 723.09;  166.400;  -77.467;    0.000;243.86666
 723.36;  162.600;  -70.600;    0.000;233.20000
 723.62;  181.733;  -57.267;    0.000;239.00000
 723.88;  182.733;  -44.467;    0.000;227.20000
 724.15;  180.333;  -60.667;    0.000;241.00000
 724.41;  156.000;  -84.067;    0.000;240.06667
 724.68;  178.733;  -74.867;    0.000;253.60001
 724.94;  205.933;  -63.133;    0.000;269.06667
 725.20;  173.400;  -84.933;    0.000;258.33333
 725.47;  164.333;  -66.867;    0.000;231.20000
 725.73;  147.333;  -87.800;    0.000;235.13333
 725.99;  157.133;  -77.667;    0.000;234.80000
 726.26;  176.067;  -81.333;    0.000;257.40000
 726.52;  169.067;  -58.867;    0.000;227.93333
 726.78;  157.200;  -64.600;    0.000;221.80000
 727.05;  149.000;  -32.600;    0.000;181.60000
 727.31;  184.200;  -79.600;    0.000;263.80000
 727.57;  155.400;  -67.267;    0.000;222.66666
 727.84;  148.133;  -56.733;    0.000;204.86666
 728.10;  156.200;  -64.267;    0.000;220.46667
 728.36;  160.200;  -57.667;    0.000;217.86666
 728.63;  146.067;  -59.533;    0.000;205.60000
 728.89;  137.067;  -82.267;    0.000;219.33334
 729.15;  155.200;  -65.000;    0.000;220.20000
 729.42;  115.600;  -74.333;    0.000;189.93333
 729.68;  154.000;  -58.800;    0.000;212.80000
 729.94;  135.600;  -90.333;    0.000;225.93334
 730.21;  122.067;  -77.133;    0.000;199.20000
 730.47;  153.200;  -73.333;    0.000;226.53333
 730.73;  134.067;  -62.533;    0.000;196.60000
 731.00;  130.333;  -55.533;    0.000;185.86666
 731.26;  139.533;  -72.600;    0.000;212.13334
 731.52;  133.800;  -72.400;    0.000;206.20000
 731.78;  132.467;  -66.267;    0.000;198.73333
 732.05;  112.133;  -89.533;    0.000;201.66666
 732.31;  152.733;  -55.267;    0.000;208.00000
 732.57;  133.133;  -71.867;    0.000;205.00000
 732.84;  117.000;  -67.067;    0.000;184.06667
 733.10;  111.400;  -81.133;    0.000;192.53333
 733.36;  126.800;  -69.667;    0.000;196.46667
 733.62;  127.800;  -72.267;    0.000;200.06667
 733.89;  126.333;  -79.000;    0.000;205.33334
 734.15;  113.333;  -77.333;    0.000;190.66667
 734.41;  122.400;  -49.667;    0.000;172.06667
 734.67;  122.867;  -76.000;    0.000;198.86667
 734.94;  126.267;  -69.667;    0.000;195.93333
 735.20;  130.200;  -68.133;    0.000;198.33333
 735.46;  132.067;  -52.467;    0.000;184.53333
 735.73;  128.267;  -63.200;    0.000;191.46666
 735.99;   98.267;  -72.733;    0.000;171.00000
 736.25;  119.067;  -84.267;    0.000;203.33334
 736.51;  100.533;  -50.800;    0.000;151.33333
 736.77;  140.667;  -74.133;    0.000;214.80000
 737.04;  107.333;  -60.667;    0.000;168.00000
 737.30;  100.133;  -76.933;    0.000;177.06667
 737.56;  136.467;  -34.267;    0.000;170.73333
 737.82;   99.133;  -91.600;    0.000;190.73333
 738.09;  114.333;  -65.733;    0.000;180.06667
 738.35;   81.600;  -81.067;    0.000;162.66666
 738.61;   92.533;  -51.333;    0.000;143.86666
 738.87;  114.667;  -72.667;    0.000;187.33333
 739.14;  106.400;  -60.533;    0.000;166.93333
 739.40;   98.933; -110.533;    0.000;209.46667
 739.66;  103.400;  -47.267;    0.000;150.66667
 739.92;   87.733;  -73.267;    0.000;161.00000
 740.18;  100.533;  -62.000;    0.000;162.53333
 740.45;   85.867;  -93.133;    0.000;179.00000
 740.71;  101.800;  -51.200;    0.000;153.00000
 740.97;   99.667;  -59.667;    0.000;159.33333
 741.23;  106.333;  -66.533;    0.000;172.86667
 741.49;   79.600;  -82.600;    0.000;162.20000
 741.76;   85.867;  -60.000;    0.000;145.86667
 742.02;  102.333;  -94.333;    0.000;196.66667
 742.28;   91.000;  -60.733;    0.000;151.73333
 742.54;   70.400;  -77.400;    0.000;147.80000
 742.80;   65.267;  -62.600;    0.000;127.86667
 743.06;  107.067;  -66.800;    0.000;173.86667
 743.33;   92.133;  -54.600;    0.000;146.73333
 743.59;   79.267;  -94.400;    0.000;173.66667
 743.85;   84.133;  -65.000;    0.000;149.13333
 744.11;   59.400;  -79.333;    0.000;138.73334
 744.37;   89.733;  -56.600;    0.000;146.33333
 744.63;   69.000;  -84.267;    0.000;153.26667
 744.90;   63.133;  -70.467;    0.000;133.60000
 745.16;   88.533;  -77.467;    0.000;166.00000
 745.42;   84.933;  -53.200;    0.000;138.13334
 745.68;   89.067;  -69.667;    0.000;158.73333
 745.94;   93.800;  -41.400;    0.000;135.20000
 746.20;   70.600;  -76.933;    0.000;147.53333
 746.46;   64.133;  -45.467;    0.000;109.60000
 746.72;   91.133;  -64.067;    0.000;155.20000
 746.99;   89.600;  -60.933;    0.000;150.53333
 747.25;   68.200;  -51.133;    0.000;119.33333
 747.51;   60.800;  -68.667;    0.000;129.46666
 747.77;   76.667;  -70.333;    0.000;147.00000
 748.03;   54.000;  -82.333;    0.000;136.33334
 748.29;   56.933;  -76.867;    0.000;133.80000
 748.55;   36.467;  -69.800;    0.000;106.26667
 748.81;   44.867;  -76.733;    0.000;121.59999
 749.08;   57.800;  -46.333;    0.000;104.13333
 749.34;   57.867;  -55.800;    0.000;113.66666
 749.60;   62.600;  -54.667;    0.000;117.26667
 749.86;   74.733;  -66.467;    0.000;141.20000
 750.12;   54.000;  -68.533;    0.000;122.53333
 750.38;   59.800;  -82.333;    0.000;142.13334
 750.64;   23.800;  -60.133;    0.000;83.93333
 750.90;   62.533;  -52.200;    0.000;114.73333
 751.16;   46.800;  -79.933;    0.000;126.73333
 751.42;   47.267;  -69.600;    0.000;116.86666
 751.68;   50.267;  -41.467;    0.000;91.73333
 751.95;   22.867;  -81.733;    0.000;104.60000
 752.21;   33.533;  -71.067;    0.000;104.60000
 752.47;   37.200;  -90.800;    0.000;128.00000
 752.73;   30.533;  -78.067;    0.000;108.60000
 752.99;   25.933;  -93.933;    0.000;119.86667
 753.25;   22.400;  -72.800;    0.000;95.20000
 753.51;   41.733;  -77.000;    0.000;118.73333
 753.77;   15.467;  -66.867;    0.000;82.33333
 754.03;   16.267;  -86.733;    0.000;103.00000
 754.29;   26.933;  -59.267;    0.000;86.20000
 754.55;   14.467;  -74.800;    0.000;89.26667
 754.81;   14.400;  -73.800;    0.000;88.20000
 755.07;   41.933;  -87.067;    0.000;129.00000
 755.33;   32.867;  -65.867;    0.000;98.73333
 755.59;   11.467;  -81.733;    0.000;93.20000
 755.85;   13.533;  -77.600;    0.000;91.13333
 756.11;   19.200;  -76.600;    0.000;95.80000
 756.37;  -15.133;  -82.800;    0.000;67.66667
 756.63;   48.000;  -52.067;    0.000;100.06667
 756.89;  -15.600;  -85.400;    0.000;69.80000
 757.15;   -3.200;  -86.000;    0.000;82.80000
 757.41;   60.200;  -37.733;    0.000;97.93333
 757.68;   14.200;  -83.133;    0.000;97.33333
 757.94;   16.867;  -53.400;    0.000;70.26667
 758.20;   43.867;  -70.533;    0.000;114.40000
 758.46;    7.067;  -83.067;    0.000;90.13333
 758.72;   19.867;  -82.467;    0.000;102.33333
 758.98;   12.733;  -65.000;    0.000;77.73333
 759.24;   13.067;  -78.800;    0.000;91.86667
 759.50;   -3.733;  -66.200;    0.000;62.46666
 759.76;   30.667;  -70.333;    0.000;101.00000
 760.02;  -12.200;  -45.267;    0.000;33.06667
 760.27;   13.933;  -79.133;    0.000;93.06666
 760.53;   13.533;  -48.867;    0.000;62.40000
 760.79;    9.933;  -77.933;    0.000;87.86667
 761.05;   17.800;  -63.133;    0.000;80.93333
 761.31;   26.267;  -72.867;    0.000;99.13334
 761.57;   33.000;  -54.200;    0.000;87.20000
 761.83;   -0.467;  -68.733;    0.000;68.26666
 762.09;   -6.267;  -72.733;    0.000;66.46666
 762.35;  -15.400;  -79.400;    0.000;64.00000
 762.61;   -2.467;  -60.333;    0.000;57.86667
 762.87;    4.467;  -69.067;    0.000;73.53333
 763.13;   -6.800;  -82.000;    0.000;75.20000
 763.39;   30.067;  -57.600;    0.000;87.66667
 763.65;    5.867;  -73.600;    0.000;79.46667
 763.91;   13.400;  -69.867;    0.000;83.26667
 764.17;    4.133;  -52.133;    0.000;56.26667
 764.43;   15.667;  -65.733;    0.000;81.40000
 764.69;  -10.133;  -61.600;    0.000;51.46667
 764.95;   10.000;  -72.800;    0.000;82.80000
 765.21;   -0.067;  -61.533;    0.000;61.46667
 765.47;    9.533;  -82.400;    0.000;91.93334
 765.73;   -9.867;  -62.667;    0.000;52.80000
 765.98;   27.800;  -67.200;    0.000;95.00000
 766.24;  -20.267;  -77.000;    0.000;56.73333
 766.50;  -15.867;  -80.533;    0.000;64.66667
 766.76;   11.533;  -48.867;    0.000;60.40000
 767.02;    6.867;  -68.400;    0.000;75.26667
 767.28;   -3.933;  -68.867;    0.000;64.93334
 767.54;    3.333;  -85.067;    0.000;88.40000
 767.80;  -18.600;  -66.867;    0.000;48.26667
 768.06;    5.333;  -53.867;    0.000;59.20000
 768.32;   26.867;  -62.467;    0.000;89.33333
 768.58;  -16.200;  -71.133;    0.000;54.93333
 768.83;  -36.267;  -71.333;    0.000;35.06667
 769.09;   -0.133;  -73.667;    0.000;73.53333
 769.35;  -17.867;  -61.800;    0.000;43.93333
 769.61;  -18.733;  -80.400;    0.000;61.66667
 769.87;  -17.067;  -55.667;    0.000;38.60000
 770.13;   -4.067;  -60.267;    0.000;56.20000
 770.39;  -40.133;  -82.733;    0.000;42.59999
 770.65;    4.533;  -64.000;    0.000;68.53333
 770.90;  -21.533;  -73.333;    0.000;51.80000
 771.16;  -14.867;  -82.933;    0.000;68.06667
 771.42;  -25.400;  -68.467;    0.000;43.06667
 771.68;   -9.333;  -81.400;    0.000;72.06667
 771.94;    5.333;  -61.867;    0.000;67.20000
 772.20;  -21.867;  -79.067;    0.000;57.20000
 772.46;  -20.467;  -71.200;    0.000;50.73333
 772.71;  -16.200;  -85.267;    0.000;69.06667
 772.97;  -13.200;  -52.267;    0.000;39.06667
 773.23;  -13.533;  -78.200;    0.000;64.66666
 773.49;   -0.600;  -40.667;    0.000;40.06667
 773.75;  -21.400;  -82.200;    0.000;60.80000
 774.01;  -34.800;  -85.067;    0.000;50.26667
 774.26;  -41.467;  -92.400;    0.000;50.93333
 774.52;   -7.267;  -54.600;    0.000;47.33333
 774.78;  -21.667;  -89.600;    0.000;67.93333
 775.04;    6.400;  -26.200;    0.000;32.60000
 775.30;    5.133;  -52.400;    0.000;57.53333
 775.56;  -36.200;  -71.533;    0.000;35.33333
 775.81;   -8.333;  -73.000;    0.000;64.66667
 776.07;  -50.667;  -78.400;    0.000;27.73333
 776.33;  -14.800;  -79.933;    0.000;65.13333
 776.59;  -26.200;  -73.400;    0.000;47.20000
 776.85;  -46.733;  -83.533;    0.000;36.80000
 777.10;  -17.067;  -55.200;    0.000;38.13333
 777.36;  -48.067;  -73.533;    0.000;25.46667
 777.62;  -34.933;  -49.400;    0.000;14.46667
 777.88;  -32.467;  -79.800;    0.000;47.33334
 778.14;  -31.867;  -60.133;    0.000;28.26667
 778.39;  -25.267;  -73.800;    0.000;48.53334
 778.65;  -32.333;  -68.733;    0.000;36.40000
 778.91;  -41.600;  -95.267;    0.000;53.66667
 779.17;  -22.733;  -56.000;    0.000;33.26667
 779.42;  -37.667; -105.133;    0.000;67.46666
 779.68;  -21.067;  -72.267;    0.000;51.20000
 779.94;  -41.800;  -92.533;    0.000;50.73333
 780.20;  -29.667;  -56.867;    0.000;27.20000
 780.46;  -27.800;  -87.333;    0.000;59.53334
 780.71;  -27.267;  -53.600;    0.000;26.33333
 780.97;  -25.733;  -80.600;    0.000;54.86666
 781.23;  -14.867;  -69.333;    0.000;54.46667
 781.49;  -18.467;  -68.667;    0.000;50.20000
 781.74;  -16.533;  -85.533;    0.000;69.00000
 782.00;  -34.867;  -98.000;    0.000;63.13334
 782.26;  -30.600;  -69.267;    0.000;38.66667
 782.52;  -23.667;  -85.400;    0.000;61.73334
 782.77;  -28.867;  -42.000;    0.000;13.13333
 783.03;  -42.667;  -83.867;    0.000;41.20000
 783.29;  -48.533;  -82.600;    0.000;34.06667
 783.54;  -44.867;  -81.533;    0.000;36.66667
 783.80;  -40.800;  -27.200;    0.000;-13.60000
 784.06;  -29.933;  -72.267;    0.000;42.33334
 784.32;  -47.000;  -72.733;    0.000;25.73333
 784.57;    9.067;  -67.533;    0.000;76.60000
 784.83;  -62.067;  -89.200;    0.000;27.13333
 785.09;  -18.800;  -84.400;    0.000;65.60000
 785.34;  -52.733;  -53.600;    0.000; 0.86666
 785.60;  -32.933;  -69.467;    0.000;36.53333
 785.86;  -57.800;  -65.533;    0.000; 7.73333
 786.12;   -8.067;  -62.667;    0.000;54.60000
 786.37;    5.667;  -52.600;    0.000;58.26666
 786.63;  -40.600; -109.867;    0.000;69.26667
 786.89;  -39.800;  -70.467;    0.000;30.66667
 787.14;  -38.400;  -62.133;    0.000;23.73333
 787.40;  -41.667;  -63.667;    0.000;22.00000
 787.66;  -29.200;  -64.133;    0.000;34.93333
 787.91;  -25.933;  -46.000;    0.000;20.06667
 788.17;  -56.200;  -84.400;    0.000;28.20000
 788.43;  -60.200;  -78.600;    0.000;18.40000
 788.68;  -48.600;  -83.133;    0.000;34.53333
 788.94;  -45.467;  -69.267;    0.000;23.80000
 789.20;  -32.267;  -73.400;    0.000;41.13334
 789.45;  -53.800;  -81.267;    0.000;27.46667
 789.71;  -32.333;  -82.200;    0.000;49.86666
 789.97;  -19.267;  -40.333;    0.000;21.06667
 790.22;  -36.267;  -61.133;    0.000;24.86667
 790.48;  -52.067;  -83.133;    0.000;31.06667
 790.74;  -29.267;  -71.933;    0.000;42.66667
 790.99;  -42.000;  -58.533;    0.000;16.53333
 791.25;  -48.067;  -93.200;    0.000;45.13333
 791.51;  -35.467;  -91.200;    0.000;55.73333
 791.76;   -5.467;  -59.600;    0.000;54.13333
 792.02;  -44.933;  -65.600;    0.000;20.66666
 792.27;  -32.800;  -68.733;    0.000;35.93333
 792.53;  -39.000;  -62.800;    0.000;23.80000
 792.79;  -47.933;  -82.467;    0.000;34.53333
 793.04;  -49.667;  -72.667;    0.000;23.00000
 793.30;  -59.133;  -64.867;    0.000; 5.73333
 793.56;  -59.600;  -61.800;    0.000; 2.20000
 793.81;  -22.267;  -45.000;    0.000;22.73333
 794.07;  -48.133;  -63.600;    0.000;15.46666
 794.32;  -46.133;  -87.267;    0.000;41.13334
 794.58;  -39.600;  -83.333;    0.000;43.73334
 794.84;  -38.200;  -83.867;    0.000;45.66667
 795.09;  -38.600;  -54.067;    0.000;15.46667
 795.35;  -32.867;  -65.200;    0.000;32.33333
 795.60;  -42.667;  -45.800;    0.000; 3.13333
 795.86;  -31.800;  -51.867;    0.000;20.06667
 796.12;  -66.200;  -69.933;    0.000; 3.73334
 796.37;  -39.333;  -81.333;    0.000;42.00000
 796.63;  -34.733;  -57.200;    0.000;22.46667
 796.88;  -37.867;  -75.533;    0.000;37.66667
 797.14;  -41.200;  -53.333;    0.000;12.13333
 797.39;  -32.800;  -58.000;    0.000;25.20000
 797.65;  -53.733;  -73.800;    0.000;20.06667
 797.91;  -40.667;  -82.200;    0.000;41.53333
 798.16;  -37.467;  -60.333;    0.000;22.86666
 798.42;  -69.000;  -91.933;    0.000;22.93333
 798.67;  -58.267;  -67.600;    0.000; 9.33333
 798.93;  -45.600;  -91.800;    0.000;46.20000
 799.18;  -60.800;  -74.067;    0.000;13.26667
 799.44;  -44.067;  -92.067;    0.000;48.00000
 799.69;  -58.800;  -89.600;    0.000;30.80000
 799.95;  -52.533; -108.133;    0.000;55.60000
 800.21;  -54.733;  -75.200;    0.000;20.46666
 800.46;  -18.600;  -50.800;    0.000;32.20000
 800.72;  -73.467;  -78.867;    0.000; 5.40000
 800.97;  -46.867;  -79.067;    0.000;32.20000
 801.23;  -67.333;  -74.400;    0.000; 7.06667
 801.48;  -62.933;  -82.867;    0.000;19.93333
 801.74;  -70.733;  -74.533;    0.000; 3.80000
 801.99;  -54.933;  -63.267;    0.000; 8.33333
 802.25;  -56.867;  -68.733;    0.000;11.86666
 802.50;  -51.400;  -75.600;    0.000;24.20000
 802.76;  -39.933;  -57.533;    0.000;17.60000
 803.01;  -52.333; -105.867;    0.000;53.53334
 803.27;  -59.667;  -72.467;    0.000;12.80000
 803.52;  -18.267;  -69.800;    0.000;51.53334
 803.78;  -42.333;  -55.733;    0.000;13.40000
 804.03;  -36.467;  -80.533;    0.000;44.06667
 804.29;  -70.067;  -73.467;    0.000; 3.40000
 804.54;  -56.533;  -78.533;    0.000;22.00000
 804.80;  -61.867;  -87.267;    0.000;25.40001
 805.05;  -60.600;  -67.267;    0.000; 6.66667
 805.31;  -40.467;  -44.667;    0.000; 4.20000
 805.56;  -27.600;  -64.600;    0.000;37.00000
 805.82;  -61.533;  -74.800;    0.000;13.26667
 806.07;  -44.467;  -66.800;    0.000;22.33334
 806.33;  -53.000;  -85.867;    0.000;32.86667
 806.58;  -40.267;  -93.200;    0.000;52.93333
 806.84;  -50.267;  -62.467;    0.000;12.20000
 807.09;  -50.800;  -68.800;    0.000;18.00000
 807.34;  -46.067;  -56.067;    0.000;10.00000
 807.60;  -37.067;  -78.733;    0.000;41.66666
 807.85;  -58.667;  -49.667;    0.000;-9.00000
 808.11;  -51.200;  -83.200;    0.000;32.00000
 808.36;  -51.600;  -59.400;    0.000; 7.80000
 808.62;  -58.400;  -84.200;    0.000;25.80000
 808.87;  -67.933;  -86.000;    0.000;18.06667
 809.13;  -56.867;  -85.467;    0.000;28.60000
 809.38;  -36.600;  -52.467;    0.000;15.86667
 809.63;  -52.533;  -79.133;    0.000;26.60000
 809.89;  -41.333;  -48.667;    0.000; 7.33334
 810.14;  -55.267;  -63.067;    0.000; 7.80000
 810.40;  -37.467;  -59.067;    0.000;21.60000
 810.65;  -42.267;  -84.333;    0.000;42.06667
 810.91;  -73.200;  -83.000;    0.000; 9.80000
 811.16;  -24.133;  -76.533;    0.000;52.40000
 811.41;  -50.733;  -57.733;    0.000; 7.00000
 811.67;  -58.933;  -75.333;    0.000;16.40000
 811.92;  -45.733;  -51.600;    0.000; 5.86666
 812.18;  -61.933;  -85.200;    0.000;23.26666
 812.43;  -41.733;  -66.667;    0.000;24.93333
 812.68;  -54.600;  -71.733;    0.000;17.13333
 812.94;  -65.733;  -59.467;    0.000;-6.26666
 813.19;  -48.800;  -67.200;    0.000;18.40000
 813.45;  -13.800;  -29.333;    0.000;15.53333
 813.70;  -62.067;  -71.533;    0.000; 9.46667
 813.95;  -58.467;  -63.267;    0.000; 4.80000
 814.21;  -62.000;  -66.400;    0.000; 4.40000
 814.46;  -80.000;  -80.600;    0.000; 0.60000
 814.71;  -67.933;  -86.200;    0.000;18.26666
 814.97;  -76.933;  -57.667;    0.000;-19.26667
 815.22;  -63.133;  -90.867;    0.000;27.73333
 815.48;  -66.400;  -83.133;    0.000;16.73333
 815.73;   -0.533;  -27.667;    0.000;27.13333
 815.98;  -67.667;  -61.067;    0.000;-6.60000
 816.24;  -51.333;  -78.867;    0.000;27.53334
 816.49;  -35.067;  -68.400;    0.000;33.33334
 816.74;  -30.533;  -65.600;    0.000;35.06667
 817.00;  -38.267;  -44.933;    0.000; 6.66667
 817.25;  -56.400;  -72.333;    0.000;15.93333
 817.50;  -54.200;  -74.067;    0.000;19.86666
 817.76;  -68.400;  -80.933;    0.000;12.53333
 818.01;  -82.600;  -69.133;    0.000;-13.46667
 818.26;  -70.867;  -76.800;    0.000; 5.93333
 818.52;  -64.533;  -82.333;    0.000;17.80000
 818.77;  -60.133;  -76.400;    0.000;16.26667
 819.02;  135.400;  140.600;    0.000;-5.20001
 819.28;  -38.600;  -80.067;    0.000;41.46667
 819.53;  -81.733;  -79.733;    0.000;-2.00000
 819.78;  -52.733;  -61.733;    0.000; 9.00000
 820.04;  -62.400;  -59.000;    0.000;-3.40000
 820.29;  -47.733;  -65.067;    0.000;17.33333
 820.54;  -54.733;  -57.733;    0.000; 3.00000
 820.79;  -34.867;  -50.133;    0.000;15.26667
 821.05;  -87.467;  -91.400;    0.000; 3.93333
 821.30;  -46.133;  -40.000;    0.000;-6.13334
 821.55;  -56.200;  -22.267;    0.000;-33.93333
 821.81;  -51.867;  -69.733;    0.000;17.86666
 822.06;  -67.267;  -66.800;    0.000;-0.46667
 822.31;  -20.733;  -48.267;    0.000;27.53333
 822.56;  -61.400;  -76.933;    0.000;15.53333
 822.82;  -44.400;  -83.933;    0.000;39.53333
 823.07;  -50.667;  -34.133;    0.000;-16.53333
 823.32;  -76.133;  -96.267;    0.000;20.13334
 823.58;  -34.400;  -77.533;    0.000;43.13333
 823.83;  -63.200;  -77.533;    0.000;14.33333
 824.08;  -75.000;  -81.067;    0.000; 6.06667
 824.33;  -52.600;  -91.267;    0.000;38.66667
 824.59;  -80.333;  -70.400;    0.000;-9.93333
 824.84;  -58.467;  -85.067;    0.000;26.60000
 825.09;  -75.533;  -80.733;    0.000; 5.20000
 825.34;  -56.933;  -72.200;    0.000;15.26666
 825.60;  -52.667;  -68.733;    0.000;16.06666
 825.85;  -48.933; -110.267;    0.000;61.33334
 826.10;  -91.267;  -92.200;    0.000; 0.93333
 826.35;  -56.867;  -91.667;    0.000;34.80000
 826.61;  -70.333;  -85.333;    0.000;15.00000
 826.86;  -82.733;  -84.667;    0.000; 1.93333
 827.11;  -70.067;  -68.733;    0.000;-1.33334
 827.36;  -76.400;  -88.600;    0.000;12.20000
 827.61;  -61.067;  -86.867;    0.000;25.80000
 827.87;  -59.467;  -77.333;    0.000;17.86667
 828.12;  -65.467;  -67.400;    0.000; 1.93333
 828.37;  -71.667;  -66.867;    0.000;-4.80000
 828.62;  -76.267;  -75.533;    0.000;-0.73334
 828.88;  -49.533;  -58.533;    0.000; 9.00000
 829.13;  -69.933;  -41.800;    0.000;-28.13334
 829.38;  -56.000;  -80.333;    0.000;24.33334
 829.63;  -83.733;  -57.267;    0.000;-26.46666
 829.88;  -60.867; -112.000;    0.000;51.13334
 830.14;  -51.467;  -67.600;    0.000;16.13333
 830.39;  -37.467;  -56.400;    0.000;18.93333
 830.64;  -70.467;  -77.533;    0.000; 7.06667
 830.89;  -40.333;  -71.667;    0.000;31.33333
 831.14;  -70.400;  -64.933;    0.000;-5.46667
 831.39;  -70.867;  -86.733;    0.000;15.86666
 831.65;  -57.867;  -91.933;    0.000;34.06667
 831.90;  -56.200;  -68.667;    0.000;12.46666
 832.15;  -57.600;  -58.733;    0.000; 1.13334
 832.40;  -52.267;  -59.267;    0.000; 7.00000
 832.65;  -67.133;  -72.600;    0.000; 5.46667
 832.90;  -60.867;  -90.467;    0.000;29.60000
 833.16;  -70.800;  -64.933;    0.000;-5.86667
 833.41;  -68.733;  -81.667;    0.000;12.93333
 833.66;  -75.400;  -62.867;    0.000;-12.53334
 833.91;  -65.400;  -79.067;    0.000;13.66666
 834.16;  -69.400;  -91.467;    0.000;22.06667
 834.41;  -61.267;  -73.800;    0.000;12.53334
 834.66;  -51.000;  -46.333;    0.000;-4.66667
 834.92;  -76.667;  -85.067;    0.000; 8.40000
 835.17;  -73.467;  -77.200;    0.000; 3.73333
 835.42;  -64.667;  -74.200;    0.000; 9.53333
 835.67;  -57.667;  -67.200;    0.000; 9.53333
 835.92;  -59.067;  -78.867;    0.000;19.80000
 836.17;  -68.467;  -69.867;    0.000; 1.40000
 836.42;  -68.067;  -79.133;    0.000;11.06667
 836.67;  -75.533;  -82.733;    0.000; 7.20000
 836.93;  -76.000;  -74.667;    0.000;-1.33334
 837.18;  -67.467;  -59.000;    0.000;-8.46667
 837.43;  -59.267;  -81.600;    0.000;22.33333
 837.68;  -47.467;  -70.600;    0.000;23.13333
 837.93;  -66.667;  -93.733;    0.000;27.06667
 838.18;  -73.533;  -70.133;    0.000;-3.40000
 838.43;  -70.067;  -93.333;    0.000;23.26667
 838.68;  -74.333;  -70.400;    0.000;-3.93333
 838.93;  -83.067;  -70.933;    0.000;-12.13333
 839.18;  -65.533;  -49.933;    0.000;-15.60000
 839.43;  -61.933;  -80.400;    0.000;18.46667
 839.69;  -78.067;  -82.800;    0.000; 4.73334
 839.94;  -68.533;  -89.200;    0.000;20.66666
 840.19;  -75.533;  -71.333;    0.000;-4.20000
 840.44;  -66.867;  -72.267;    0.000; 5.40000
 840.69;  -54.533;  -50.400;    0.000;-4.13333
 840.94;  -81.800;  -76.667;    0.000;-5.13334
 841.19;  -53.067;  -47.000;    0.000;-6.06667
 841.44;  -62.133;  -69.533;    0.000; 7.40000
 841.69;  -44.400;  -45.067;    0.000; 0.66666
 841.94;  -63.067;  -73.533;    0.000;10.46667
 842.19;  -81.467;  -87.133;    0.000; 5.66666
 842.44;  -72.733;  -76.800;    0.000; 4.06667
 842.69;  -70.533;  -71.000;    0.000; 0.46667
 842.94;  -73.867;  -69.667;    0.000;-4.20000
 843.19;  -86.467;  -76.267;    0.000;-10.20000
 843.44;  -69.600;  -73.267;    0.000; 3.66667
 843.69;  -76.333;  -91.933;    0.000;15.60000
 843.94;    8.600;   -9.400;    0.000;18.00000
 844.19;  -83.067;  -76.733;    0.000;-6.33334
 844.44;  -45.800;  -87.733;    0.000;41.93333
 844.69;  -71.667;  -49.867;    0.000;-21.80000
 844.95;  -81.867;  -73.467;    0.000;-8.40000
 845.20;  -73.067;  -86.600;    0.000;13.53333
 845.45;  -42.867;  -63.000;    0.000;20.13334
 845.70;  -74.467;  -68.333;    0.000;-6.13333
 845.95;  -84.667;  -78.533;    0.000;-6.13333
 846.20;  -63.933;  -77.267;    0.000;13.33334
 846.45;  -64.533;  -72.000;    0.000; 7.46667
 846.70;  -84.667;  -49.333;    0.000;-35.33333
 846.95;  -66.533;  -74.467;    0.000; 7.93333
 847.20;  -69.067;  -81.267;    0.000;12.20000
 847.44;  -43.067;  -34.000;    0.000;-9.06667
 847.69;  -58.067;  -72.200;    0.000;14.13333
 847.94;  -53.800;  -80.400;    0.000;26.60000
 848.19;  -79.800;  -73.933;    0.000;-5.86667
 848.44;  -44.667;  -64.267;    0.000;19.60000
 848.69;  -68.200;  -59.267;    0.000;-8.93333
 848.94;  -67.200;  -56.800;    0.000;-10.40000
 849.19;  -69.333;  -94.733;    0.000;25.39999
 849.44;  -72.933;  -71.267;    0.000;-1.66666
 849.69;  -71.133;  -77.800;    0.000; 6.66667
 849.94;  -83.867;  -92.733;    0.000; 8.86666
 850.19;  -60.467;  -46.533;    0.000;-13.93333
 850.44;  -71.467;  -67.267;    0.000;-4.20000
 850.69;  -92.533;  -62.400;    0.000;-30.13333
 850.94;  -67.600;  -74.600;    0.000; 7.00000
 851.19;  -78.000;  -62.000;    0.000;-16.00000
 851.44;  -61.467;  -79.133;    0.000;17.66666
 851.69;  -72.733;  -85.800;    0.000;13.06667
 851.94;  -77.800;  -75.933;    0.000;-1.86667
 852.19;  -69.933;  -64.867;    0.000;-5.06667
 852.44;  -76.067;  -87.333;    0.000;11.26667
 852.68;  -84.600;  -76.933;    0.000;-7.66666
 852.93;  -72.000;  -60.000;    0.000;-12.00000
 853.18;  -79.333;  -71.000;    0.000;-8.33334
 853.43;  -69.533;  -77.933;    0.000; 8.40000
 853.68;  -69.333;  -71.200;    0.000; 1.86666
 853.93;  -49.000;  -65.267;    0.000;16.26667
 854.18;  -68.067;  -54.400;    0.000;-13.66666
 854.43;  -68.467;  -76.600;    0.000; 8.13333
 854.68;  -81.133;  -82.267;    0.000; 1.13334
 854.93;  -69.000;  -89.333;    0.000;20.33334
 855.18;  -68.000;  -74.933;    0.000; 6.93333
 855.42;  -46.933;  -50.933;    0.000; 4.00000
 855.67;  -59.467;  -72.400;    0.000;12.93333
 855.92;  -85.400;  -73.067;    0.000;-12.33334
 856.17;  -62.467;  -41.333;    0.000;-21.13334
 856.42;  -53.800;  -73.933;    0.000;20.13334
 856.67;  -67.267;  -52.667;    0.000;-14.60000
 856.92;  -70.400;  -86.333;    0.000;15.93333
 857.17;  -79.733;  -84.333;    0.000; 4.60001
 857.41;  -49.800;  -87.267;    0.000;37.46667
 857.66;  -71.200;  -63.667;    0.000;-7.53333
 857.91;  -78.000;  -77.533;    0.000;-0.46667
 858.16;  -88.467;  -55.067;    0.000;-33.40000
 858.41;  -72.467;  -76.467;    0.000; 4.00000
 858.66;  -78.133;  -69.600;    0.000;-8.53333
 858.91;  -75.867;  -74.600;    0.000;-1.26667
 859.15;  -86.867;  -85.133;    0.000;-1.73334
 859.40;  -27.267;  -64.800;    0.000;37.53334
 859.65;  -84.600;  -75.600;    0.000;-9.00000
 859.90;  -87.933;  -83.400;    0.000;-4.53333
 860.15;  -54.600;  -65.200;    0.000;10.60000
 860.40;  -47.333;  -68.267;    0.000;20.93334
 860.64;  -62.400;  -54.267;    0.000;-8.13334
 860.89;  -67.800;  -86.133;    0.000;18.33333
 861.14;  -60.133;  -84.600;    0.000;24.46666
 861.39;  -58.200;  -72.800;    0.000;14.60000
 861.64;  -79.600;  -63.533;    0.000;-16.06667
 861.88;  -47.267;  -73.667;    0.000;26.40000
 862.13;  -75.800;  -68.200;    0.000;-7.60001
 862.38;  -61.400;  -80.333;    0.000;18.93333
 862.63;  -84.267;  -79.000;    0.000;-5.26667
 862.88;  -50.400;  -79.933;    0.000;29.53333
 863.12;  -82.733;  -57.667;    0.000;-25.06666
 863.37;  -74.000;  -85.867;    0.000;11.86667
 863.62;  -61.533;  -62.000;    0.000; 0.46667
 863.87;  -53.667; -100.800;    0.000;47.13334
 864.12;  -67.800;  -66.533;    0.000;-1.26667
 864.36;  -62.067;  -84.733;    0.000;22.66666
 864.61;  -70.600;  -68.600;    0.000;-2.00000
 864.86;  -66.067;  -85.867;    0.000;19.80000
 865.11;  -52.133;  -48.933;    0.000;-3.20000
 865.35;  -75.467;  -52.400;    0.000;-23.06667
 865.60;  -67.400;  -72.733;    0.000; 5.33333
 865.85;  -60.333;  -51.867;    0.000;-8.46667
 866.10;  -76.400;  -70.000;    0.000;-6.40000
 866.34;  -52.000;  -82.533;    0.000;30.53333
 866.59;  -46.200;  -60.933;    0.000;14.73333
 866.84;  -42.867;  -87.067;    0.000;44.20000
 867.09;  -64.933;  -72.667;    0.000; 7.73333
 867.33;  -74.067;  -73.067;    0.000;-1.00000
 867.58;  -56.200;  -67.467;    0.000;11.26667
 867.83;  -84.200;  -86.267;    0.000; 2.06667
 868.08;  -55.333;  -43.400;    0.000;-11.93333
 868.32;  -77.400;  -66.267;    0.000;-11.13333
 868.57;  -85.000;  -78.867;    0.000;-6.13333
 868.82;  -56.267;  -74.467;    0.000;18.20000
 869.07;  -80.533;  -83.067;    0.000; 2.53333
 869.31;  -69.867;  -82.067;    0.000;12.20000
 869.56;  -79.467;  -75.533;    0.000;-3.93333
 869.81;  -60.000;  -56.200;    0.000;-3.80000
 870.05;  -87.533;  -68.667;    0.000;-18.86667
 870.30;  -69.467;  -77.200;    0.000; 7.73333
 870.55;  -50.533;  -62.667;    0.000;12.13334
 870.80;  -47.533;  -65.133;    0.000;17.60000
 871.04;  -61.133;  -44.933;    0.000;-16.20000
 871.29;  -61.933;  -78.933;    0.000;17.00000
 871.54;  -55.400;  -56.600;    0.000; 1.20000
 871.78;  -71.800;  -85.667;    0.000;13.86666
 872.03;  -62.867;  -51.133;    0.000;-11.73333
 872.28;  -57.400;  -61.733;    0.000; 4.33333
 872.52;  -57.400;  -63.800;    0.000; 6.40000
 872.77;  -65.067;  -73.600;    0.000; 8.53333
 873.02;  -69.133;  -81.000;    0.000;11.86667
 873.26;  -69.667;  -70.000;    0.000; 0.33334
 873.51;  -65.867;  -55.733;    0.000;-10.13334
 873.76;  -54.800;  -63.733;    0.000; 8.93333
 874.00;  -53.000;  -44.533;    0.000;-8.46667
 874.25;  -89.067;  -76.000;    0.000;-13.06667
 874.50;  -87.467;  -73.400;    0.000;-14.06667
 874.74;  -61.667;  -79.200;    0.000;17.53333
 874.99;  -80.600;  -63.400;    0.000;-17.20000
 875.24;  -29.200;  -45.267;    0.000;16.06667
 875.48;  -73.600;  -61.733;    0.000;-11.86666
 875.73;  -46.267;  -85.133;    0.000;38.86666
 875.98;  -71.400;  -58.400;    0.000;-13.00000
 876.22;  -35.067;  -78.067;    0.000;43.00000
 876.47;  -57.600;  -55.400;    0.000;-2.20000
 876.71;  -61.533;  -61.067;    0.000;-0.46667
 876.96;  -45.533;  -61.800;    0.000;16.26667
 877.21;  -47.867;  -85.800;    0.000;37.93334
 877.45;  -77.800;  -80.533;    0.000; 2.73333
 877.70;  -48.533;  -51.933;    0.000; 3.40000
 877.95;  -57.133;  -69.667;    0.000;12.53333
 878.19;  -57.267;  -34.067;    0.000;-23.20000
 878.44;  -49.933;  -62.667;    0.000;12.73333
 878.68;  -28.133;  -39.000;    0.000;10.86667
 878.93;  -50.200;  -65.533;    0.000;15.33333
 879.18;  -41.933;  -50.333;    0.000; 8.40000
 879.42;  -39.933;  -42.467;    0.000; 2.53333
 879.67;  -57.867;  -65.467;    0.000; 7.60000
 879.91;  -60.067;  -41.467;    0.000;-18.60000
 880.16;  -47.733;  -46.133;    0.000;-1.60000
 880.40;  -54.000;  -51.733;    0.000;-2.26667
 880.65;  -44.000;  -49.867;    0.000; 5.86666
 880.90;  -36.133;  -41.800;    0.000; 5.66666
 881.14;  -23.400;  -64.400;    0.000;41.00000
 881.39;  -64.400;  -48.933;    0.000;-15.46667
 881.63;  -43.467;  -65.667;    0.000;22.20000
 881.88;  -38.067;  -52.333;    0.000;14.26667
 882.12;  -63.600;  -58.267;    0.000;-5.33333
 882.37;  -51.733;  -62.600;    0.000;10.86666
 882.62;  -65.467;  -52.800;    0.000;-12.66667
 882.86;  -49.267;  -59.133;    0.000; 9.86667
 883.11;  -59.000;  -76.267;    0.000;17.26667
 883.35;  -54.000;  -29.533;    0.000;-24.46667
 883.60;  -11.600;  -30.467;    0.000;18.86667
 883.84;  -37.333;  -52.133;    0.000;14.80000
 884.09;  -45.667;  -64.400;    0.000;18.73333
 884.33;  -57.267;  -53.000;    0.000;-4.26667
 884.58;  -48.133;  -64.333;    0.000;16.20000
 884.82;  -55.733;  -66.467;    0.000;10.73333
 885.07;  -63.267;  -59.933;    0.000;-3.33333
 885.31;  -65.000;  -51.600;    0.000;-13.40000
 885.56;  -40.467;  -34.467;    0.000;-6.00000
 885.80;  -56.733;  -52.467;    0.000;-4.26667
 886.05;  -69.400;  -80.000;    0.000;10.60000
 886.29;  -40.467;  -37.600;    0.000;-2.86667
 886.54;  -60.067;  -75.867;    0.000;15.80000
 886.78;  -43.933;  -33.133;    0.000;-10.80000
 887.03;  -38.800;  -46.933;    0.000; 8.13334
 887.27;  -23.667;  -21.733;    0.000;-1.93333
 887.52;  -36.800;  -62.133;    0.000;25.33334
 887.76;  -42.067;  -51.533;    0.000; 9.46667
 888.01;  -39.533;  -52.067;    0.000;12.53333
 888.25;  -52.933;  -59.067;    0.000; 6.13333
 888.50;  -25.000;  -36.600;    0.000;11.60000
 888.74;  -47.400;  -46.933;    0.000;-0.46667
 888.99;  -24.467;  -45.200;    0.000;20.73333
 889.23;  -47.200;  -51.000;    0.000; 3.80000
 889.48;  -32.067;  -59.000;    0.000;26.93333
 889.72;  -33.600;  -42.867;    0.000; 9.26667
 889.97;  -34.667;  -38.067;    0.000; 3.40000
 890.21;  -27.200;  -35.067;    0.000; 7.86666
 890.46;  -24.533;  -33.600;    0.000; 9.06667
 890.70;  -37.467;  -33.867;    0.000;-3.60000
 890.94;  -46.333;  -39.600;    0.000;-6.73333
 891.19;  -18.067;  -24.467;    0.000; 6.40000
 891.43;  -11.600;  -41.200;    0.000;29.60000
 891.68;  -13.667;  -16.933;    0.000; 3.26667
 891.92;  -38.533;  -48.067;    0.000; 9.53333
 892.17;  -40.333;  -12.533;    0.000;-27.80000
 892.41;  -13.267;  -39.600;    0.000;26.33333
 892.66;  -44.067;  -44.467;    0.000; 0.40000
 892.90;   12.867;   -5.000;    0.000;17.86667
 893.14;  -33.333;  -18.267;    0.000;-15.06667
 893.39;  -18.133;  -43.533;    0.000;25.40000
 893.63;  -27.933;  -32.467;    0.000; 4.53333
 893.88;  -18.800;  -49.733;    0.000;30.93333
 894.12;  -26.600;  -30.533;    0.000; 3.93333
 894.36;    0.867;  -19.067;    0.000;19.93333
 894.61;   -7.600;  -13.933;    0.000; 6.33333
 894.85;   -2.800;  -23.000;    0.000;20.20000
 895.10;   -2.133;  -14.133;    0.000;12.00000
 895.34;  -34.000;  -31.733;    0.000;-2.26667
 895.58;  -28.267;   -7.333;    0.000;-20.93333
 895.83;  -10.400;  -21.667;    0.000;11.26667
 896.07;    3.400;   -5.867;    0.000; 9.26667
 896.32;  -15.933;  -19.867;    0.000; 3.93333
 896.56;  -12.533;  -25.333;    0.000;12.80000
 896.80;  -56.133;  -21.333;    0.000;-34.80000
 897.05;  -24.067;  -26.600;    0.000; 2.53333
 897.29;  -14.600;   -7.867;    0.000;-6.73333
 897.53;  -16.533;  -10.200;    0.000;-6.33333
 897.78;   -2.267;  -28.667;    0.000;26.40000
 898.02;    0.400;    6.600;    0.000;-6.20000
 898.26;  -10.800;  -19.933;    0.000; 9.13333
 898.51;   -8.533;    5.400;    0.000;-13.93333
 898.75;   29.133;  -27.200;    0.000;56.33333
 898.99;    8.067;   -5.400;    0.000;13.46667
 899.24;    8.933;  -17.067;    0.000;26.00000
 899.48;   12.667;   14.400;    0.000;-1.73333
 899.73;   35.733;    1.533;    0.000;34.20000
 899.97;    4.733;   24.667;    0.000;-19.93333
 900.21;   53.533;   26.333;    0.000;27.20000
 900.46;   23.067;   14.467;    0.000; 8.60000
 900.70;   50.000;   37.000;    0.000;13.00000
 900.94;   27.533;   18.667;    0.000; 8.86667
 901.18;   47.867;   38.867;    0.000; 9.00000
 901.43;   42.000;   46.467;    0.000;-4.46667
 901.67;   61.933;   44.400;    0.000;17.53333
 901.91;   24.333;   66.667;    0.000;-42.33333
 902.16;   75.000;   46.133;    0.000;28.86666
 902.40;   96.200;   68.800;    0.000;27.39999
 902.64;   75.267;   80.800;    0.000;-5.53333
 902.89;   80.733;   81.733;    0.000;-1.00000
 903.13;  110.600;   86.733;    0.000;23.86667
 903.37;  110.000;  132.800;    0.000;-22.80000
 903.61;  152.667;  135.867;    0.000;16.80000
 903.86;  151.000;  140.667;    0.000;10.33333
 904.10;  163.133;  146.200;    0.000;16.93333
 904.34;  173.733;  171.133;    0.000; 2.60001
 904.59;  221.867;  189.400;    0.000;32.46667
 904.83;  247.467;  214.067;    0.000;33.39999
 905.07;  272.600;  252.800;    0.000;19.80000
 905.31;  290.933;  319.667;    0.000;-28.73334
 905.56;  324.467;  313.533;    0.000;10.93335
 905.80;  399.933;  365.800;    0.000;34.13333

