point2
Integration time [ms]:  15.000
Averaging Nr. [scans]: 15
Smoothing Nr. [pixels]: 0
Data measured with spectrometer [name]: 1307078U2
Wave   ;Sample   ;Dark     ;Reference;Scope Corrected for Dark
[nm]   ;[counts] ;[counts] ;[counts] 

 351.07;   18.267;   -0.467;    0.000;18.73333
 351.37;   14.400;   -9.733;    0.000;24.13333
 351.66;    6.867;  -16.933;    0.000;23.80000
 351.95;   12.400;   -3.067;    0.000;15.46667
 352.24;   12.667;  -14.000;    0.000;26.66667
 352.54;    1.467;  -15.800;    0.000;17.26667
 352.83;   15.200;    7.667;    0.000; 7.53333
 353.12;    0.400;   -4.400;    0.000; 4.80000
 353.42;   -9.467;    3.400;    0.000;-12.86667
 353.71;    3.733;  -13.600;    0.000;17.33333
 354.00;    8.667;   -0.867;    0.000; 9.53333
 354.30;    7.533;   -8.800;    0.000;16.33333
 354.59;    5.933;   -0.533;    0.000; 6.46667
 354.88;   12.400;  -15.800;    0.000;28.20000
 355.17;  -16.200;   -0.267;    0.000;-15.93333
 355.47;  -11.467;  -26.933;    0.000;15.46667
 355.76;   -1.800;    3.600;    0.000;-5.40000
 356.05;    0.133;  -14.467;    0.000;14.60000
 356.35;   -6.867;    5.400;    0.000;-12.26667
 356.64;   11.200;   14.200;    0.000;-3.00000
 356.93;    4.200;   -3.267;    0.000; 7.46667
 357.22;   27.067;   -2.333;    0.000;29.40000
 357.52;    2.533;    5.400;    0.000;-2.86667
 357.81;    4.733;    4.200;    0.000; 0.53333
 358.10;   -2.533;   -9.200;    0.000; 6.66667
 358.39;    9.867;    9.067;    0.000; 0.80000
 358.69;    0.800;    7.200;    0.000;-6.40000
 358.98;    2.200;  -28.000;    0.000;30.20000
 359.27;   18.533;   -1.800;    0.000;20.33333
 359.57;   -1.867;    3.533;    0.000;-5.40000
 359.86;    5.200;    1.733;    0.000; 3.46667
 360.15;   30.800;    1.733;    0.000;29.06667
 360.44;    9.867;   -6.867;    0.000;16.73333
 360.74;    9.267;   -0.400;    0.000; 9.66667
 361.03;   -6.067;  -13.867;    0.000; 7.80000
 361.32;   -7.067;   10.467;    0.000;-17.53333
 361.61;    3.467;  -21.600;    0.000;25.06667
 361.91;   26.733;    2.200;    0.000;24.53333
 362.20;   10.867;  -12.333;    0.000;23.20000
 362.49;   11.267;  -14.800;    0.000;26.06667
 362.78;   22.867;  -15.800;    0.000;38.66667
 363.08;    1.800;   -4.133;    0.000; 5.93333
 363.37;   -2.333;   -9.200;    0.000; 6.86667
 363.66;    8.867;   -3.667;    0.000;12.53333
 363.95;  -22.133;  -16.000;    0.000;-6.13333
 364.24;    0.133;   -0.733;    0.000; 0.86667
 364.54;   -5.067;   -6.733;    0.000; 1.66667
 364.83;  -10.533;  -21.067;    0.000;10.53333
 365.12;    8.333;  -13.800;    0.000;22.13333
 365.41;   11.000;    0.733;    0.000;10.26667
 365.71;    2.933;    0.200;    0.000; 2.73333
 366.00;    0.800;   -7.733;    0.000; 8.53333
 366.29;   -7.933;  -12.667;    0.000; 4.73333
 366.58;   -8.800;   -6.533;    0.000;-2.26667
 366.87;   23.067;    7.333;    0.000;15.73333
 367.17;   20.200;   -2.200;    0.000;22.40000
 367.46;    4.600;   -6.133;    0.000;10.73333
 367.75;  -10.533;  -22.333;    0.000;11.80000
 368.04;   -6.067;  -11.333;    0.000; 5.26667
 368.34;   -0.533;   -2.667;    0.000; 2.13333
 368.63;   -1.933;  -12.933;    0.000;11.00000
 368.92;    4.600;   18.867;    0.000;-14.26667
 369.21;    7.467;    6.933;    0.000; 0.53333
 369.50;   13.333;   -3.733;    0.000;17.06667
 369.80;   14.800;  -16.533;    0.000;31.33333
 370.09;    3.733;  -12.067;    0.000;15.80000
 370.38;    0.867;   -0.533;    0.000; 1.40000
 370.67;   -3.533;  -23.467;    0.000;19.93333
 370.96;    4.067;  -26.133;    0.000;30.20000
 371.26;   -6.133;   -4.600;    0.000;-1.53333
 371.55;  -16.600;  -20.400;    0.000; 3.80000
 371.84;   -6.067;  -17.800;    0.000;11.73333
 372.13;    8.533;  -35.800;    0.000;44.33333
 372.42;    8.333;   13.867;    0.000;-5.53333
 372.71;   10.800;   10.067;    0.000; 0.73333
 373.01;   -3.733;    4.267;    0.000;-8.00000
 373.30;   -3.200;  -13.733;    0.000;10.53333
 373.59;   16.133;  -10.800;    0.000;26.93333
 373.88;    6.467;  -11.600;    0.000;18.06667
 374.17;   11.600;    7.467;    0.000; 4.13333
 374.46;    0.267;  -11.133;    0.000;11.40000
 374.76;   -4.467;   -7.267;    0.000; 2.80000
 375.05;   11.933;   11.267;    0.000; 0.66667
 375.34;    5.200;  -15.067;    0.000;20.26667
 375.63;    1.733;  -15.733;    0.000;17.46667
 375.92;    2.733;  -15.800;    0.000;18.53333
 376.21;   11.267;  -30.600;    0.000;41.86667
 376.51;   -1.200;  -15.200;    0.000;14.00000
 376.80;   -2.600;  -17.733;    0.000;15.13333
 377.09;    6.200;   -1.133;    0.000; 7.33333
 377.38;    4.867;  -14.333;    0.000;19.20000
 377.67;    6.867;  -13.067;    0.000;19.93333
 377.96;   -2.933;   -8.800;    0.000; 5.86667
 378.25;   11.067;  -10.533;    0.000;21.60000
 378.55;    3.333;  -15.867;    0.000;19.20000
 378.84;   -6.267;   -0.067;    0.000;-6.20000
 379.13;    3.000;   -3.467;    0.000; 6.46667
 379.42;    0.400;   -4.933;    0.000; 5.33333
 379.71;   -1.533;  -16.933;    0.000;15.40000
 380.00;    0.533;   -2.933;    0.000; 3.46667
 380.29;   -8.200;  -10.800;    0.000; 2.60000
 380.59;   -2.400;   -2.733;    0.000; 0.33333
 380.88;    4.933;   -9.000;    0.000;13.93333
 381.17;  -15.067;   -4.000;    0.000;-11.06667
 381.46;   31.000;  -18.867;    0.000;49.86667
 381.75;   30.933;  -16.800;    0.000;47.73333
 382.04;   14.333;   10.200;    0.000; 4.13333
 382.33;   -4.400;   -2.733;    0.000;-1.66667
 382.62;  -14.600;  -15.933;    0.000; 1.33333
 382.91;   18.533;  -22.333;    0.000;40.86667
 383.21;   15.467;  -15.400;    0.000;30.86667
 383.50;    5.733;   -4.467;    0.000;10.20000
 383.79;   17.667;   -5.933;    0.000;23.60000
 384.08;   11.200;    9.000;    0.000; 2.20000
 384.37;   -6.867;  -16.467;    0.000; 9.60000
 384.66;   -0.733;    6.267;    0.000;-7.00000
 384.95;   -4.200;  -19.067;    0.000;14.86667
 385.24;  -11.867;  -10.133;    0.000;-1.73333
 385.53;    7.000;   -4.267;    0.000;11.26667
 385.83;  -12.667;  -32.200;    0.000;19.53333
 386.12;   14.867;    5.800;    0.000; 9.06667
 386.41;    4.600;   -7.267;    0.000;11.86667
 386.70;   -8.467;  -10.000;    0.000; 1.53333
 386.99;    9.800;    0.400;    0.000; 9.40000
 387.28;   25.200;   -0.333;    0.000;25.53333
 387.57;   10.600;  -10.600;    0.000;21.20000
 387.86;  -14.333;  -19.333;    0.000; 5.00000
 388.15;   10.133;   -1.067;    0.000;11.20000
 388.44;   -5.800;    1.400;    0.000;-7.20000
 388.73;    8.200;   -4.733;    0.000;12.93333
 389.02;   26.733;  -23.400;    0.000;50.13333
 389.31;   -1.400;  -23.800;    0.000;22.40000
 389.61;    6.267;  -12.933;    0.000;19.20000
 389.90;   16.467;  -10.067;    0.000;26.53333
 390.19;   -6.333;   -9.600;    0.000; 3.26667
 390.48;    0.533;   -7.000;    0.000; 7.53333
 390.77;   10.600;  -10.933;    0.000;21.53333
 391.06;   -4.400;    6.667;    0.000;-11.06667
 391.35;  -22.067;  -39.400;    0.000;17.33333
 391.64;   23.667;    7.867;    0.000;15.80000
 391.93;  -15.333;  -11.467;    0.000;-3.86667
 392.22;   11.667;    0.000;    0.000;11.66667
 392.51;   11.800;   -3.133;    0.000;14.93333
 392.80;   -4.800;   -8.133;    0.000; 3.33333
 393.09;    6.067;  -13.400;    0.000;19.46667
 393.38;   -4.667;    1.867;    0.000;-6.53333
 393.67;    2.867;  -21.467;    0.000;24.33333
 393.96;   10.000;   -9.333;    0.000;19.33333
 394.25;    9.867;  -34.267;    0.000;44.13333
 394.54;   -0.667;    1.067;    0.000;-1.73333
 394.83;  -13.200;  -23.200;    0.000;10.00000
 395.13;  -10.000;    1.867;    0.000;-11.86667
 395.42;    7.000;   -1.267;    0.000; 8.26667
 395.71;   -0.933;  -13.000;    0.000;12.06667
 396.00;   -4.467;   -7.000;    0.000; 2.53333
 396.29;   -3.200;  -23.400;    0.000;20.20000
 396.58;   10.400;  -29.000;    0.000;39.40000
 396.87;  -11.333;  -20.267;    0.000; 8.93333
 397.16;    0.667;  -25.533;    0.000;26.20000
 397.45;    1.933;    1.667;    0.000; 0.26667
 397.74;   21.133;  -18.533;    0.000;39.66667
 398.03;   -5.600;  -25.133;    0.000;19.53333
 398.32;   -3.200;  -16.267;    0.000;13.06667
 398.61;   -4.800;   -0.533;    0.000;-4.26667
 398.90;    5.067;  -15.000;    0.000;20.06667
 399.19;   21.467;  -15.667;    0.000;37.13333
 399.48;   -6.400;  -10.067;    0.000; 3.66667
 399.77;    2.867;  -20.000;    0.000;22.86667
 400.06;   10.733;   -0.267;    0.000;11.00000
 400.35;   -2.733;   -5.867;    0.000; 3.13333
 400.64;   -7.067;  -21.333;    0.000;14.26667
 400.93;   14.200;   -9.267;    0.000;23.46667
 401.22;    2.933;  -13.067;    0.000;16.00000
 401.51;    7.200;  -22.733;    0.000;29.93333
 401.80;    8.067;    8.867;    0.000;-0.80000
 402.09;  -16.267;  -17.867;    0.000; 1.60000
 402.38;   -7.000;   -2.067;    0.000;-4.93333
 402.67;    6.200;   -2.733;    0.000; 8.93333
 402.96;    9.200;    0.267;    0.000; 8.93333
 403.25;    4.733;   12.400;    0.000;-7.66667
 403.54;   -2.133;  -11.467;    0.000; 9.33333
 403.83;    4.333;  -22.333;    0.000;26.66667
 404.12;   13.533;  -21.867;    0.000;35.40000
 404.41;   19.467;    0.333;    0.000;19.13333
 404.70;    0.467;   -1.133;    0.000; 1.60000
 404.98;    6.600;   -6.333;    0.000;12.93333
 405.27;   23.467;   -8.667;    0.000;32.13333
 405.56;   11.067;   -7.467;    0.000;18.53333
 405.85;  -22.400;  -17.133;    0.000;-5.26667
 406.14;    6.867;   -3.467;    0.000;10.33333
 406.43;    9.667;  -24.733;    0.000;34.40000
 406.72;   -3.667;   -3.200;    0.000;-0.46667
 407.01;    3.000;   -6.267;    0.000; 9.26667
 407.30;  -11.600;  -20.533;    0.000; 8.93333
 407.59;   16.200;  -19.600;    0.000;35.80000
 407.88;    4.000;   -9.733;    0.000;13.73333
 408.17;   -6.800;  -13.867;    0.000; 7.06667
 408.46;    8.800;  -11.000;    0.000;19.80000
 408.75;   -2.467;    9.067;    0.000;-11.53333
 409.04;    6.133;  -18.600;    0.000;24.73333
 409.33;  -14.933;   -2.133;    0.000;-12.80000
 409.62;    8.933;    0.933;    0.000; 8.00000
 409.91;   -3.267;  -35.533;    0.000;32.26667
 410.20;   -1.800;  -14.133;    0.000;12.33333
 410.48;    2.000;   -4.667;    0.000; 6.66667
 410.77;  -18.667;   -4.533;    0.000;-14.13333
 411.06;  -12.133;    5.467;    0.000;-17.60000
 411.35;    7.733;    1.467;    0.000; 6.26667
 411.64;    8.933;   -7.800;    0.000;16.73333
 411.93;   -1.133;    8.267;    0.000;-9.40000
 412.22;    3.533;  -30.267;    0.000;33.80000
 412.51;  -11.533;  -32.467;    0.000;20.93333
 412.80;    8.333;   -4.600;    0.000;12.93333
 413.09;   22.067;  -12.400;    0.000;34.46667
 413.38;   25.200;    4.267;    0.000;20.93333
 413.67;  -17.667;   -4.667;    0.000;-13.00000
 413.96;   -6.800;  -24.400;    0.000;17.60000
 414.24;   -7.000;    0.333;    0.000;-7.33333
 414.53;    1.867;  -11.867;    0.000;13.73333
 414.82;    4.867;   -2.267;    0.000; 7.13333
 415.11;    4.733;   -6.267;    0.000;11.00000
 415.40;    4.667;    2.667;    0.000; 2.00000
 415.69;   -0.133;  -13.667;    0.000;13.53333
 415.98;   -5.400;  -21.000;    0.000;15.60000
 416.27;  -37.533;  -40.400;    0.000; 2.86667
 416.56;    8.200;  -27.133;    0.000;35.33333
 416.84;    8.133;  -10.667;    0.000;18.80000
 417.13;   -4.867;  -13.467;    0.000; 8.60000
 417.42;   12.867;  -22.667;    0.000;35.53333
 417.71;  -11.600;  -19.933;    0.000; 8.33333
 418.00;  -13.733;   -6.333;    0.000;-7.40000
 418.29;   -6.867;  -17.133;    0.000;10.26667
 418.58;    0.733;  -35.733;    0.000;36.46667
 418.87;   -8.333;  -34.600;    0.000;26.26667
 419.15;   -6.667;   -7.267;    0.000; 0.60000
 419.44;   14.267;  -17.667;    0.000;31.93333
 419.73;   24.200;  -16.467;    0.000;40.66667
 420.02;   -2.667;  -15.600;    0.000;12.93333
 420.31;  -22.867;  -11.733;    0.000;-11.13333
 420.60;    5.933;  -10.133;    0.000;16.06667
 420.89;   -3.400;  -22.133;    0.000;18.73333
 421.18;   -3.000;  -19.800;    0.000;16.80000
 421.46;    8.800;   -4.467;    0.000;13.26667
 421.75;   -6.133;   -2.600;    0.000;-3.53333
 422.04;   -2.067;  -18.467;    0.000;16.40000
 422.33;   -1.467;    0.933;    0.000;-2.40000
 422.62;   16.867;   -9.600;    0.000;26.46667
 422.91;  -15.400;  -23.533;    0.000; 8.13333
 423.19;    7.933;  -25.933;    0.000;33.86667
 423.48;   10.933;   -7.000;    0.000;17.93333
 423.77;   -7.867;  -23.133;    0.000;15.26667
 424.06;    2.400;  -17.733;    0.000;20.13333
 424.35;    2.333;  -27.667;    0.000;30.00000
 424.64;    0.933;    0.400;    0.000; 0.53333
 424.93;  -16.600;  -33.933;    0.000;17.33333
 425.21;  -19.000;   -9.800;    0.000;-9.20000
 425.50;   24.333;  -25.600;    0.000;49.93333
 425.79;   -6.333;  -22.933;    0.000;16.60000
 426.08;    6.800;  -11.867;    0.000;18.66667
 426.37;   -3.867;  -11.733;    0.000; 7.86667
 426.65;   -9.800;  -22.333;    0.000;12.53333
 426.94;  -12.800;  -36.400;    0.000;23.60000
 427.23;   11.267;  -14.667;    0.000;25.93333
 427.52;    6.400;  -25.333;    0.000;31.73333
 427.81;   -8.200;  -38.733;    0.000;30.53333
 428.10;   19.000;   -7.200;    0.000;26.20000
 428.38;  -19.600;  -15.467;    0.000;-4.13333
 428.67;    2.933;  -30.267;    0.000;33.20000
 428.96;  -19.000;  -36.200;    0.000;17.20000
 429.25;   -8.533;   -2.200;    0.000;-6.33333
 429.54;   -3.800;  -27.000;    0.000;23.20000
 429.82;    6.200;   -9.733;    0.000;15.93333
 430.11;    2.333;  -17.067;    0.000;19.40000
 430.40;    2.600;   -6.267;    0.000; 8.86667
 430.69;    7.133;   21.733;    0.000;-14.60000
 430.98;   -2.000;  -23.333;    0.000;21.33333
 431.26;   -0.867;   -4.733;    0.000; 3.86667
 431.55;   20.800;   -1.933;    0.000;22.73333
 431.84;  -20.200;   -8.800;    0.000;-11.40000
 432.13;  -12.667;   -1.600;    0.000;-11.06667
 432.41;   -9.000;  -37.667;    0.000;28.66667
 432.70;   19.533;  -14.733;    0.000;34.26667
 432.99;   -7.733;  -40.867;    0.000;33.13333
 433.28;   -8.800;  -23.933;    0.000;15.13333
 433.57;    5.933;  -26.133;    0.000;32.06667
 433.85;    0.467;   -1.867;    0.000; 2.33333
 434.14;   -0.733;   -9.533;    0.000; 8.80000
 434.43;    5.200;  -21.267;    0.000;26.46667
 434.72;  -14.667;   -8.533;    0.000;-6.13333
 435.00;   -9.667;  -34.933;    0.000;25.26667
 435.29;   -8.133;  -24.333;    0.000;16.20000
 435.58;   -2.533;    7.067;    0.000;-9.60000
 435.87;  -15.000;  -18.067;    0.000; 3.06667
 436.15;  -25.200;  -21.600;    0.000;-3.60000
 436.44;   -9.400;   -7.000;    0.000;-2.40000
 436.73;    2.933;   -8.400;    0.000;11.33333
 437.02;   -2.400;  -20.667;    0.000;18.26667
 437.30;    9.400;   -1.800;    0.000;11.20000
 437.59;  -17.467;  -17.267;    0.000;-0.20000
 437.88;    1.400;  -13.200;    0.000;14.60000
 438.17;   -6.333;  -13.067;    0.000; 6.73333
 438.45;  -17.267;  -17.467;    0.000; 0.20000
 438.74;   -1.933;  -15.200;    0.000;13.26667
 439.03;  -14.800;   -1.467;    0.000;-13.33333
 439.32;   -2.000;  -22.467;    0.000;20.46667
 439.60;  -15.000;  -10.467;    0.000;-4.53333
 439.89;    1.600;  -21.933;    0.000;23.53333
 440.18;   -2.467;  -26.133;    0.000;23.66667
 440.46;  -12.733;  -26.400;    0.000;13.66667
 440.75;    3.933;  -21.733;    0.000;25.66667
 441.04;   -9.533;  -30.133;    0.000;20.60000
 441.33;   -5.600;  -12.400;    0.000; 6.80000
 441.61;   -3.200;  -18.400;    0.000;15.20000
 441.90;   18.667;   -4.333;    0.000;23.00000
 442.19;  -23.200;  -21.400;    0.000;-1.80000
 442.47;  -15.200;  -16.667;    0.000; 1.46667
 442.76;  -24.467;  -26.333;    0.000; 1.86667
 443.05;    5.133;   -8.800;    0.000;13.93333
 443.34;  -10.533;  -14.267;    0.000; 3.73333
 443.62;  -12.400;   -3.933;    0.000;-8.46667
 443.91;   -9.200;  -35.400;    0.000;26.20000
 444.20;   15.533;   -6.200;    0.000;21.73333
 444.48;  -12.667;  -29.400;    0.000;16.73333
 444.77;   26.333;   -0.267;    0.000;26.60000
 445.06;  -24.667;  -25.600;    0.000; 0.93333
 445.34;   13.800;  -19.933;    0.000;33.73333
 445.63;   -7.133;   -5.267;    0.000;-1.86667
 445.92;   12.800;    2.267;    0.000;10.53333
 446.21;    5.867;  -33.667;    0.000;39.53333
 446.49;   -5.133;   -1.200;    0.000;-3.93333
 446.78;   25.600;   -1.933;    0.000;27.53333
 447.07;  -24.600;  -34.000;    0.000; 9.40000
 447.35;  -30.400;   -8.267;    0.000;-22.13333
 447.64;   -8.067;  -18.333;    0.000;10.26667
 447.93;   -5.267;  -24.267;    0.000;19.00000
 448.21;    2.467;  -21.467;    0.000;23.93333
 448.50;  -25.333;  -31.267;    0.000; 5.93333
 448.79;  -10.533;  -20.333;    0.000; 9.80000
 449.07;    2.733;  -26.800;    0.000;29.53333
 449.36;   -3.533;  -23.333;    0.000;19.80000
 449.65;  -18.533;  -19.067;    0.000; 0.53333
 449.93;    4.067;  -14.200;    0.000;18.26667
 450.22;   -6.733;  -15.667;    0.000; 8.93333
 450.51;  -27.400;  -39.067;    0.000;11.66667
 450.79;   -7.200;  -39.600;    0.000;32.40000
 451.08;  -11.267;  -21.867;    0.000;10.60000
 451.36;   11.133;  -35.400;    0.000;46.53333
 451.65;  -10.067;  -14.733;    0.000; 4.66667
 451.94;    8.667;  -35.933;    0.000;44.60000
 452.22;  -30.667;  -32.067;    0.000; 1.40000
 452.51;   -7.400;  -36.667;    0.000;29.26667
 452.80;  -15.867;  -37.067;    0.000;21.20000
 453.08;   -8.400;  -30.867;    0.000;22.46667
 453.37;    7.000;  -12.667;    0.000;19.66667
 453.66;   -7.800;  -23.067;    0.000;15.26667
 453.94;  -11.533;  -31.000;    0.000;19.46667
 454.23;  -13.600;  -27.733;    0.000;14.13333
 454.51;    2.867;   -9.933;    0.000;12.80000
 454.80;    4.200;  -30.800;    0.000;35.00000
 455.09;   11.800;  -28.933;    0.000;40.73333
 455.37;    8.133;  -33.600;    0.000;41.73333
 455.66;   -4.733;  -28.133;    0.000;23.40000
 455.95;  -10.400;  -21.400;    0.000;11.00000
 456.23;   26.267;  -20.933;    0.000;47.20000
 456.52;   -4.000;  -28.200;    0.000;24.20000
 456.80;  -15.667;  -29.933;    0.000;14.26667
 457.09;   -8.200;  -23.800;    0.000;15.60000
 457.38;    8.533;  -11.333;    0.000;19.86667
 457.66;    5.867;  -13.667;    0.000;19.53333
 457.95;  -26.067;   -7.867;    0.000;-18.20000
 458.23;  -10.867;  -37.000;    0.000;26.13333
 458.52;   17.667;  -15.000;    0.000;32.66667
 458.81;   -8.133;  -10.467;    0.000; 2.33333
 459.09;  -15.333;  -26.133;    0.000;10.80000
 459.38;   -7.467;  -22.667;    0.000;15.20000
 459.66;   -3.733;  -35.933;    0.000;32.20000
 459.95;  -15.667;  -48.267;    0.000;32.60000
 460.23;    6.867;  -12.333;    0.000;19.20000
 460.52;   -5.400;  -14.933;    0.000; 9.53333
 460.81;    1.067;  -32.000;    0.000;33.06667
 461.09;  -12.667;  -39.133;    0.000;26.46667
 461.38;   -3.000;  -21.267;    0.000;18.26667
 461.66;   -2.733;  -33.133;    0.000;30.40000
 461.95;   -5.200;  -34.067;    0.000;28.86667
 462.23;   11.000;  -17.800;    0.000;28.80000
 462.52;   -1.333;  -24.600;    0.000;23.26667
 462.81;    3.133;  -17.533;    0.000;20.66667
 463.09;   -0.733;  -45.400;    0.000;44.66667
 463.38;    2.200;  -31.133;    0.000;33.33333
 463.66;   -1.733;  -19.467;    0.000;17.73333
 463.95;   -8.333;   -5.333;    0.000;-3.00000
 464.23;   -6.267;  -27.333;    0.000;21.06667
 464.52;    0.867;  -23.267;    0.000;24.13333
 464.80;  -17.933;  -18.067;    0.000; 0.13334
 465.09;  -11.267;  -18.333;    0.000; 7.06667
 465.38;   -3.533;  -32.800;    0.000;29.26667
 465.66;   -7.667;  -11.667;    0.000; 4.00000
 465.95;   17.867;  -19.267;    0.000;37.13333
 466.23;  -35.800;  -34.400;    0.000;-1.40000
 466.52;  -14.467;  -22.000;    0.000; 7.53333
 466.80;   17.800;   -6.067;    0.000;23.86667
 467.09;   -0.333;  -29.267;    0.000;28.93333
 467.37;   -2.200;  -32.933;    0.000;30.73333
 467.66;    7.200;    8.000;    0.000;-0.80000
 467.94;   -3.533;  -34.733;    0.000;31.20000
 468.23;  -15.733;  -31.667;    0.000;15.93333
 468.51;   23.333;  -12.267;    0.000;35.60000
 468.80;    0.067;  -25.133;    0.000;25.20000
 469.08;  -23.400;  -17.067;    0.000;-6.33333
 469.37;  -21.067;  -38.200;    0.000;17.13333
 469.66;   -5.533;  -24.133;    0.000;18.60000
 469.94;   -5.400;  -17.200;    0.000;11.80000
 470.23;    6.933;  -13.000;    0.000;19.93333
 470.51;   -8.467;  -41.600;    0.000;33.13333
 470.80;    7.933;  -12.867;    0.000;20.80000
 471.08;    7.333;  -20.667;    0.000;28.00000
 471.37;    9.933;  -16.600;    0.000;26.53333
 471.65;   15.467;   -2.667;    0.000;18.13333
 471.94;   -2.800;  -30.267;    0.000;27.46667
 472.22;   -9.267;  -39.933;    0.000;30.66667
 472.51;  -14.133;  -15.600;    0.000; 1.46667
 472.79;   -7.067;  -29.333;    0.000;22.26667
 473.08;   -6.333;  -23.333;    0.000;17.00000
 473.36;   -1.467;  -19.333;    0.000;17.86667
 473.64;    4.133;  -26.667;    0.000;30.80000
 473.93;  -13.000;  -20.267;    0.000; 7.26667
 474.21;  -12.000;  -26.667;    0.000;14.66667
 474.50;    2.600;  -12.800;    0.000;15.40000
 474.78;    8.667;    4.000;    0.000; 4.66667
 475.07;   -2.933;  -19.267;    0.000;16.33333
 475.35;   13.533;  -21.400;    0.000;34.93333
 475.64;    4.533;  -14.000;    0.000;18.53333
 475.92;   -6.533;  -29.800;    0.000;23.26667
 476.21;   -2.133;  -21.133;    0.000;19.00000
 476.49;    3.333;  -30.800;    0.000;34.13333
 476.78;  -19.600;  -35.267;    0.000;15.66667
 477.06;    4.933;  -28.333;    0.000;33.26667
 477.35;    7.333;   -7.867;    0.000;15.20000
 477.63;   -3.867;  -38.067;    0.000;34.20000
 477.91;   17.667;  -37.067;    0.000;54.73333
 478.20;  -10.800;  -38.800;    0.000;28.00000
 478.48;   43.600;    8.600;    0.000;35.00000
 478.77;    9.867;  -16.400;    0.000;26.26667
 479.05;  -14.267;  -29.133;    0.000;14.86667
 479.34;   -5.067;    1.133;    0.000;-6.20000
 479.62;    0.267;  -15.133;    0.000;15.40000
 479.91;  -12.933;  -23.200;    0.000;10.26667
 480.19;    6.267;  -14.733;    0.000;21.00000
 480.47;  -11.467;  -34.133;    0.000;22.66667
 480.76;   -5.800;  -26.600;    0.000;20.80000
 481.04;   -1.133;  -34.000;    0.000;32.86667
 481.33;    3.067;  -16.533;    0.000;19.60000
 481.61;   -2.267;  -28.467;    0.000;26.20000
 481.90;  -19.733;  -34.067;    0.000;14.33333
 482.18;    8.933;  -20.400;    0.000;29.33333
 482.46;   -1.667;  -37.933;    0.000;36.26667
 482.75;   16.667;  -35.200;    0.000;51.86667
 483.03;  -17.467;  -27.667;    0.000;10.20000
 483.32;   -8.000;  -28.933;    0.000;20.93333
 483.60;  -10.533;  -21.400;    0.000;10.86667
 483.88;  -14.667;  -22.000;    0.000; 7.33333
 484.17;   -5.533;  -16.133;    0.000;10.60000
 484.45;   -1.467;  -23.867;    0.000;22.40000
 484.74;   20.133;  -25.533;    0.000;45.66667
 485.02;    2.067;  -17.867;    0.000;19.93333
 485.30;    4.667;   -3.333;    0.000; 8.00000
 485.59;    6.000;   -9.733;    0.000;15.73333
 485.87;   26.667;  -14.267;    0.000;40.93333
 486.16;   -2.533;  -27.000;    0.000;24.46667
 486.44;  -13.867;  -30.867;    0.000;17.00000
 486.72;    3.600;  -25.267;    0.000;28.86667
 487.01;    8.067;  -30.533;    0.000;38.60000
 487.29;   13.800;  -37.400;    0.000;51.20000
 487.58;   26.933;  -25.133;    0.000;52.06667
 487.86;    1.133;  -24.667;    0.000;25.80000
 488.14;   -2.067;  -38.800;    0.000;36.73333
 488.43;   11.600;  -19.467;    0.000;31.06667
 488.71;   12.867;  -35.133;    0.000;48.00000
 488.99;    8.267;  -16.200;    0.000;24.46667
 489.28;   27.733;  -36.933;    0.000;64.66667
 489.56;   11.800;  -24.467;    0.000;36.26667
 489.85;   30.133;  -30.000;    0.000;60.13333
 490.13;   35.333;  -22.200;    0.000;57.53333
 490.41;   44.467;  -36.867;    0.000;81.33333
 490.70;   37.467;  -52.467;    0.000;89.93333
 490.98;   38.533;  -46.933;    0.000;85.46667
 491.26;   72.133;  -48.400;    0.000;120.53333
 491.55;   67.333;  -30.067;    0.000;97.40000
 491.83;   65.200;   -7.133;    0.000;72.33333
 492.11;   89.400;  -23.000;    0.000;112.40000
 492.40;  105.200;  -27.533;    0.000;132.73333
 492.68;  107.867;  -22.400;    0.000;130.26667
 492.96;  112.800;  -35.000;    0.000;147.80000
 493.25;  137.400;  -33.867;    0.000;171.26666
 493.53;  122.867;  -26.267;    0.000;149.13334
 493.81;  140.400;  -37.267;    0.000;177.66666
 494.10;  201.333;  -29.200;    0.000;230.53333
 494.38;  188.533;  -29.067;    0.000;217.60001
 494.66;  231.067;  -19.800;    0.000;250.86666
 494.95;  258.533;  -24.533;    0.000;283.06666
 495.23;  296.333;  -19.800;    0.000;316.13334
 495.51;  276.533;  -18.867;    0.000;295.39999
 495.80;  344.667;  -26.533;    0.000;371.19999
 496.08;  369.200;  -15.867;    0.000;385.06668
 496.36;  424.800;  -11.000;    0.000;435.79999
 496.65;  395.467;  -30.600;    0.000;426.06668
 496.93;  451.333;  -43.533;    0.000;494.86668
 497.21;  497.200;  -20.533;    0.000;517.73335
 497.50;  561.800;   -9.400;    0.000;571.19999
 497.78;  595.867;  -36.733;    0.000;632.59997
 498.06;  612.933;  -22.733;    0.000;635.66668
 498.34;  672.333;  -20.400;    0.000;692.73331
 498.63;  721.067;  -34.667;    0.000;755.73332
 498.91;  785.867;  -23.200;    0.000;809.06664
 499.19;  810.600;  -16.800;    0.000;827.39997
 499.48;  868.467;  -23.067;    0.000;891.53334
 499.76;  936.333;  -19.067;    0.000;955.39998
 500.04;  998.800;  -23.267;    0.000;1022.06665
 500.32; 1064.867;  -15.467;    0.000;1080.33337
 500.61; 1147.533;  -34.733;    0.000;1182.26666
 500.89; 1198.267;  -26.800;    0.000;1225.06672
 501.17; 1248.800;   -9.533;    0.000;1258.33338
 501.46; 1346.867;  -34.067;    0.000;1380.93336
 501.74; 1423.867;  -31.400;    0.000;1455.26670
 502.02; 1464.533;  -12.933;    0.000;1477.46666
 502.30; 1569.133;  -29.467;    0.000;1598.59997
 502.59; 1647.467;  -32.933;    0.000;1680.40001
 502.87; 1710.533;  -34.667;    0.000;1745.19999
 503.15; 1750.800;  -13.133;    0.000;1763.93338
 503.43; 1895.067;  -26.400;    0.000;1921.46665
 503.72; 1987.000;  -34.800;    0.000;2021.80000
 504.00; 2098.400;  -18.467;    0.000;2116.86657
 504.28; 2180.533;  -34.200;    0.000;2214.73345
 504.56; 2287.733;  -17.333;    0.000;2305.06673
 504.85; 2392.133;  -14.067;    0.000;2406.19997
 505.13; 2503.333;  -43.867;    0.000;2547.19992
 505.41; 2558.533;  -30.267;    0.000;2588.80011
 505.69; 2714.600;  -28.067;    0.000;2742.66677
 505.98; 2833.800;  -13.467;    0.000;2847.26672
 506.26; 2953.667;  -30.267;    0.000;2983.93341
 506.54; 3084.667;  -19.867;    0.000;3104.53341
 506.82; 3144.267;  -33.200;    0.000;3177.46660
 507.11; 3254.267;  -35.533;    0.000;3289.79993
 507.39; 3373.400;  -37.467;    0.000;3410.86657
 507.67; 3519.467;  -33.733;    0.000;3553.19989
 507.95; 3618.667;  -27.067;    0.000;3645.73342
 508.23; 3734.800;  -27.133;    0.000;3761.93338
 508.52; 3902.800;  -32.267;    0.000;3935.06672
 508.80; 3956.267;  -48.467;    0.000;4004.73327
 509.08; 4086.133;  -35.400;    0.000;4121.53330
 509.36; 4301.800;  -38.467;    0.000;4340.26647
 509.65; 4371.867;  -23.800;    0.000;4395.66670
 509.93; 4493.933;  -40.000;    0.000;4533.93311
 510.21; 4608.267;  -36.067;    0.000;4644.33327
 510.49; 4791.200;  -33.800;    0.000;4825.00019
 510.77; 4970.333;  -31.400;    0.000;5001.73350
 511.06; 4974.267;  -34.000;    0.000;5008.26660
 511.34; 5146.533;  -28.533;    0.000;5175.06654
 511.62; 5323.200;  -52.267;    0.000;5375.46686
 511.90; 5425.267;  -44.600;    0.000;5469.86660
 512.18; 5550.467;  -43.467;    0.000;5593.93346
 512.47; 5729.000;  -27.267;    0.000;5756.26667
 512.75; 5807.800;  -54.200;    0.000;5861.99981
 513.03; 5890.067;  -20.333;    0.000;5910.40023
 513.31; 6046.333;  -32.733;    0.000;6079.06683
 513.59; 6233.533;  -34.333;    0.000;6267.86654
 513.87; 6366.933;  -46.933;    0.000;6413.86644
 514.16; 6481.733;  -11.600;    0.000;6493.33340
 514.44; 6546.867;  -20.733;    0.000;6567.60003
 514.72; 6717.067;  -35.533;    0.000;6752.60023
 515.00; 6881.067;  -20.200;    0.000;6901.26690
 515.28; 7024.267;  -15.800;    0.000;7040.06660
 515.56; 7089.400;  -37.400;    0.000;7126.79990
 515.85; 7281.467;  -21.933;    0.000;7303.40013
 516.13; 7419.133;  -42.733;    0.000;7461.86663
 516.41; 7514.467;  -30.333;    0.000;7544.80013
 516.69; 7668.533;  -45.200;    0.000;7713.73320
 516.97; 7770.000;  -20.933;    0.000;7790.93333
 517.25; 7935.067;  -22.733;    0.000;7957.80023
 517.54; 8075.067;  -27.200;    0.000;8102.26690
 517.82; 8205.533;  -27.933;    0.000;8233.46654
 518.10; 8292.600;  -14.000;    0.000;8306.59961
 518.38; 8425.533;  -51.467;    0.000;8476.99987
 518.66; 8546.066;  -46.000;    0.000;8592.06641
 518.94; 8668.000;  -28.267;    0.000;8696.26667
 519.22; 8726.000;  -20.533;    0.000;8746.53333
 519.51; 8917.333;  -38.133;    0.000;8955.46634
 519.79; 9036.667;  -30.867;    0.000;9067.53366
 520.07; 9072.733;  -18.600;    0.000;9091.33340
 520.35; 9195.800;  -26.667;    0.000;9222.46647
 520.63; 9280.934;  -30.667;    0.000;9311.60026
 520.91; 9463.600;  -44.400;    0.000;9507.99961
 521.19; 9561.467;  -37.133;    0.000;9598.60013
 521.47; 9654.333;  -30.200;    0.000;9684.53301
 521.75; 9830.866;  -18.400;    0.000;9849.26621
 522.04; 9874.934;  -42.867;    0.000;9917.80026
 522.32; 9899.934;  -40.667;    0.000;9940.60026
 522.60; 9996.800;  -16.067;    0.000;10012.86647
 522.88;10156.800;  -38.467;    0.000;10195.26647
 523.16;10294.200;  -42.933;    0.000;10337.13353
 523.44;10379.000;  -17.333;    0.000;10396.33333
 523.72;10501.733;  -19.133;    0.000;10520.86673
 524.00;10579.934;  -14.200;    0.000;10594.13359
 524.28;10691.267;  -41.333;    0.000;10732.59993
 524.57;10727.134;  -28.533;    0.000;10755.66712
 524.85;10836.667;  -20.933;    0.000;10857.60032
 525.13;10934.733;  -20.267;    0.000;10955.00006
 525.41;10997.134;  -13.533;    0.000;11010.66712
 525.69;11144.866;  -30.933;    0.000;11175.79954
 525.97;11269.200;  -13.467;    0.000;11282.66686
 526.25;11298.866;  -41.400;    0.000;11340.26621
 526.53;11275.934;  -28.467;    0.000;11304.40026
 526.81;11470.800;  -34.467;    0.000;11505.26647
 527.09;11569.800;  -26.000;    0.000;11595.79980
 527.37;11573.400;  -40.600;    0.000;11614.00039
 527.65;11609.800;  -36.933;    0.000;11646.73314
 527.93;11834.200;  -39.733;    0.000;11873.93353
 528.22;11764.267;  -12.733;    0.000;11776.99994
 528.50;11944.667;  -39.533;    0.000;11984.20033
 528.78;11954.200;  -13.867;    0.000;11968.06686
 529.06;12037.333;  -21.333;    0.000;12058.66634
 529.34;12180.400;  -27.933;    0.000;12208.33372
 529.62;12252.333;  -48.467;    0.000;12300.79967
 529.90;12194.134;  -42.733;    0.000;12236.86712
 530.18;12409.600;  -26.867;    0.000;12436.46628
 530.46;12469.467;  -23.533;    0.000;12493.00013
 530.74;12521.533;  -23.000;    0.000;12544.53320
 531.02;12573.934;  -20.800;    0.000;12594.73359
 531.30;12529.200;  -22.533;    0.000;12551.73353
 531.58;12607.066;  -30.800;    0.000;12637.86641
 531.86;12718.066;  -42.000;    0.000;12760.06641
 532.14;12783.400;  -34.733;    0.000;12818.13372
 532.42;12911.200;  -42.133;    0.000;12953.33353
 532.70;12870.000;  -27.200;    0.000;12897.20000
 532.98;13028.800;  -31.400;    0.000;13060.19980
 533.26;12977.200;  -14.000;    0.000;12991.20020
 533.54;13059.333;  -46.133;    0.000;13105.46634
 533.82;13265.800;  -33.467;    0.000;13299.26647
 534.10;13168.400;  -40.667;    0.000;13209.06706
 534.38;13249.533;  -29.267;    0.000;13278.79987
 534.66;13289.400;  -50.067;    0.000;13339.46706
 534.94;13347.866;  -21.800;    0.000;13369.66621
 535.22;13400.000;  -50.733;    0.000;13450.73333
 535.50;13448.000;  -29.933;    0.000;13477.93333
 535.78;13474.400;  -57.267;    0.000;13531.66706
 536.06;13508.000;  -50.533;    0.000;13558.53333
 536.34;13545.866;  -55.067;    0.000;13600.93288
 536.62;13721.533;  -33.400;    0.000;13754.93320
 536.90;13712.733;  -44.533;    0.000;13757.26673
 537.18;13709.000;  -23.600;    0.000;13732.60000
 537.46;13721.733;  -53.933;    0.000;13775.66673
 537.74;13815.934;  -38.400;    0.000;13854.33360
 538.02;13938.267;  -15.733;    0.000;13953.99994
 538.30;13929.000;  -30.267;    0.000;13959.26667
 538.58;13964.267;  -46.400;    0.000;14010.66660
 538.86;14050.600;  -34.733;    0.000;14085.33294
 539.14;13994.066;  -25.333;    0.000;14019.39974
 539.42;14137.600;  -22.067;    0.000;14159.66628
 539.70;14100.667;  -54.133;    0.000;14154.80033
 539.98;14244.733;  -11.467;    0.000;14256.20006
 540.26;14326.400;  -16.667;    0.000;14343.06706
 540.54;14310.200;  -38.000;    0.000;14348.20020
 540.82;14374.934;  -36.067;    0.000;14411.00026
 541.10;14445.066;  -25.067;    0.000;14470.13307
 541.38;14412.733;  -34.667;    0.000;14447.40007
 541.66;14438.467;  -18.600;    0.000;14457.06680
 541.94;14381.467;  -29.467;    0.000;14410.93346
 542.22;14566.667;  -28.533;    0.000;14595.20033
 542.50;14732.533;  -51.800;    0.000;14784.33320
 542.78;14641.267;  -26.200;    0.000;14667.46660
 543.06;14625.134;  -43.733;    0.000;14668.86712
 543.34;14637.267;  -44.200;    0.000;14681.46660
 543.62;14711.800;  -22.133;    0.000;14733.93314
 543.90;14607.733;  -31.000;    0.000;14638.73340
 544.17;14893.533;  -27.200;    0.000;14920.73320
 544.45;14791.533;  -34.667;    0.000;14826.19987
 544.73;14831.400;  -29.867;    0.000;14861.26706
 545.01;14914.866;  -10.667;    0.000;14925.53288
 545.29;14991.333;  -42.667;    0.000;15033.99968
 545.57;14999.733;  -14.400;    0.000;15014.13340
 545.85;14910.200;  -28.467;    0.000;14938.66686
 546.13;14945.866;  -19.400;    0.000;14965.26621
 546.41;14935.333;  -18.867;    0.000;14954.19967
 546.69;15035.400;  -36.600;    0.000;15072.00039
 546.97;15160.200;  -46.333;    0.000;15206.53353
 547.25;15012.400;  -34.200;    0.000;15046.60039
 547.52;15144.000;  -22.667;    0.000;15166.66667
 547.80;15169.400;  -30.600;    0.000;15200.00039
 548.08;15154.533;  -48.133;    0.000;15202.66654
 548.36;15213.800;  -28.867;    0.000;15242.66647
 548.64;15201.400;  -30.267;    0.000;15231.66706
 548.92;15271.667;  -36.800;    0.000;15308.46699
 549.20;15219.267;  -38.533;    0.000;15257.79993
 549.48;15250.066;  -27.133;    0.000;15277.19974
 549.76;15337.600;  -38.333;    0.000;15375.93294
 550.04;15360.866;  -29.867;    0.000;15390.73288
 550.31;15396.400;  -33.267;    0.000;15429.66706
 550.59;15399.733;  -31.533;    0.000;15431.26673
 550.87;15393.533;  -45.400;    0.000;15438.93320
 551.15;15420.267;  -19.267;    0.000;15439.53327
 551.43;15363.134;  -39.067;    0.000;15402.20045
 551.71;15375.800;  -31.667;    0.000;15407.46647
 551.99;15439.866;  -37.000;    0.000;15476.86621
 552.27;15489.866;  -30.533;    0.000;15520.39954
 552.54;15384.267;  -25.933;    0.000;15410.19993
 552.82;15531.866;  -26.600;    0.000;15558.46621
 553.10;15437.400;  -22.800;    0.000;15460.20039
 553.38;15495.467;  -32.333;    0.000;15527.80013
 553.66;15551.267;  -23.133;    0.000;15574.39993
 553.94;15494.134;  -36.200;    0.000;15530.33379
 554.22;15513.333;  -26.200;    0.000;15539.53301
 554.49;15449.667;  -11.067;    0.000;15460.73366
 554.77;15409.200;  -34.200;    0.000;15443.40020
 555.05;15470.200;  -24.867;    0.000;15495.06686
 555.33;15554.800;  -40.333;    0.000;15595.13314
 555.61;15653.200;  -45.733;    0.000;15698.93353
 555.89;15541.134;  -39.667;    0.000;15580.80046
 556.16;15564.533;  -49.933;    0.000;15614.46654
 556.44;15469.000;  -57.333;    0.000;15526.33333
 556.72;15614.533;  -27.000;    0.000;15641.53320
 557.00;15548.800;  -41.933;    0.000;15590.73314
 557.28;15583.733;  -31.133;    0.000;15614.86673
 557.56;15498.866;  -48.067;    0.000;15546.93288
 557.83;15568.267;  -25.400;    0.000;15593.66660
 558.11;15615.733;  -26.533;    0.000;15642.26673
 558.39;15588.467;  -50.467;    0.000;15638.93346
 558.67;15517.533;  -48.133;    0.000;15565.66654
 558.95;15529.333;  -46.600;    0.000;15575.93301
 559.23;15555.134;  -47.200;    0.000;15602.33379
 559.50;15547.866;  -35.933;    0.000;15583.79955
 559.78;15555.934;  -30.400;    0.000;15586.33359
 560.06;15432.733;  -42.667;    0.000;15475.40007
 560.34;15371.467;  -24.667;    0.000;15396.13346
 560.62;15430.267;  -29.467;    0.000;15459.73327
 560.89;15527.467;  -18.000;    0.000;15545.46680
 561.17;15461.000;  -30.733;    0.000;15491.73333
 561.45;15460.866;  -35.133;    0.000;15495.99955
 561.73;15287.733;  -32.933;    0.000;15320.66673
 562.00;15335.467;  -37.067;    0.000;15372.53346
 562.28;15329.467;  -25.000;    0.000;15354.46680
 562.56;15409.134;  -45.333;    0.000;15454.46712
 562.84;15344.467;  -17.133;    0.000;15361.60013
 563.12;15377.200;  -39.200;    0.000;15416.40020
 563.39;15295.800;  -40.267;    0.000;15336.06647
 563.67;15249.533;  -37.333;    0.000;15286.86654
 563.95;15227.733;  -17.667;    0.000;15245.40006
 564.23;15287.866;  -26.733;    0.000;15314.59954
 564.50;15280.000;  -33.533;    0.000;15313.53333
 564.78;15047.934;   -7.933;    0.000;15055.86693
 565.06;15229.066;  -30.000;    0.000;15259.06641
 565.34;15165.866;  -36.600;    0.000;15202.46621
 565.61;15226.600;  -43.600;    0.000;15270.19961
 565.89;15191.400;  -19.933;    0.000;15211.33372
 566.17;15097.333;  -34.333;    0.000;15131.66634
 566.45;15108.533;  -42.333;    0.000;15150.86654
 566.73;15031.667;  -30.200;    0.000;15061.86699
 567.00;15118.866;  -49.067;    0.000;15167.93288
 567.28;15033.667;  -40.000;    0.000;15073.66699
 567.56;14990.200;  -22.867;    0.000;15013.06686
 567.83;15025.600;  -43.533;    0.000;15069.13294
 568.11;14894.866;  -37.000;    0.000;14931.86621
 568.39;14829.934;  -27.000;    0.000;14856.93359
 568.67;14867.267;  -23.733;    0.000;14890.99994
 568.94;14887.000;  -23.600;    0.000;14910.60000
 569.22;14862.800;  -24.600;    0.000;14887.39981
 569.50;14825.866;  -43.267;    0.000;14869.13288
 569.78;14893.200;  -11.400;    0.000;14904.60019
 570.05;14650.800;  -33.333;    0.000;14684.13314
 570.33;14670.733;  -29.133;    0.000;14699.86673
 570.61;14664.066;  -40.000;    0.000;14704.06641
 570.88;14552.600;  -44.800;    0.000;14597.39961
 571.16;14509.333;  -29.467;    0.000;14538.79967
 571.44;14457.333;  -47.600;    0.000;14504.93301
 571.72;14441.733;  -31.467;    0.000;14473.20007
 571.99;14427.667;  -30.600;    0.000;14458.26699
 572.27;14271.200;  -41.133;    0.000;14312.33353
 572.55;14323.267;  -39.667;    0.000;14362.93327
 572.82;14321.066;  -27.133;    0.000;14348.19974
 573.10;14352.066;  -41.933;    0.000;14393.99974
 573.38;14246.467;  -59.867;    0.000;14306.33346
 573.65;14214.134;  -22.667;    0.000;14236.80046
 573.93;14104.467;  -48.933;    0.000;14153.40013
 574.21;14112.134;  -54.333;    0.000;14166.46712
 574.48;14125.066;  -51.267;    0.000;14176.33307
 574.76;13861.134;  -44.333;    0.000;13905.46712
 575.04;13927.200;  -25.333;    0.000;13952.53353
 575.32;13937.400;  -18.400;    0.000;13955.80039
 575.59;13873.667;  -29.333;    0.000;13903.00033
 575.87;13758.200;  -40.733;    0.000;13798.93353
 576.15;13747.333;  -20.133;    0.000;13767.46634
 576.42;13774.733;  -36.267;    0.000;13811.00006
 576.70;13639.800;  -39.467;    0.000;13679.26647
 576.98;13653.134;  -23.333;    0.000;13676.46712
 577.25;13548.200;  -37.200;    0.000;13585.40020
 577.53;13503.800;  -52.800;    0.000;13556.59980
 577.80;13433.800;  -40.333;    0.000;13474.13314
 578.08;13475.134;  -32.867;    0.000;13508.00045
 578.36;13269.066;  -36.133;    0.000;13305.19974
 578.63;13322.733;  -55.000;    0.000;13377.73340
 578.91;13271.800;  -30.867;    0.000;13302.66647
 579.19;13163.667;  -42.000;    0.000;13205.66699
 579.46;13073.333;  -32.533;    0.000;13105.86634
 579.74;13160.533;  -26.733;    0.000;13187.26654
 580.02;12978.533;  -28.267;    0.000;13006.79987
 580.29;12965.934;  -41.933;    0.000;13007.86693
 580.57;12914.134;  -45.200;    0.000;12959.33379
 580.84;12983.866;  -45.000;    0.000;13028.86621
 581.12;12789.200;   -9.333;    0.000;12798.53353
 581.40;12751.134;  -37.533;    0.000;12788.66712
 581.67;12611.200;  -44.533;    0.000;12655.73353
 581.95;12626.733;  -39.933;    0.000;12666.66673
 582.23;12576.866;  -27.800;    0.000;12604.66621
 582.50;12475.333;  -44.133;    0.000;12519.46634
 582.78;12392.800;  -38.800;    0.000;12431.59980
 583.05;12296.066;  -24.000;    0.000;12320.06641
 583.33;12361.333;  -19.800;    0.000;12381.13301
 583.61;12292.000;  -30.000;    0.000;12322.00000
 583.88;12187.866;  -38.267;    0.000;12226.13288
 584.16;12180.134;  -40.600;    0.000;12220.73379
 584.43;12125.667;  -43.933;    0.000;12169.60033
 584.71;12075.333;  -44.000;    0.000;12119.33301
 584.99;11885.066;  -27.400;    0.000;11912.46641
 585.26;11988.733;  -42.667;    0.000;12031.40007
 585.54;11854.866;  -31.200;    0.000;11886.06621
 585.81;11844.467;  -12.800;    0.000;11857.26680
 586.09;11685.533;  -17.267;    0.000;11702.79987
 586.37;11592.733;  -35.400;    0.000;11628.13340
 586.64;11583.467;  -40.267;    0.000;11623.73346
 586.92;11533.600;  -45.533;    0.000;11579.13294
 587.19;11445.267;  -41.467;    0.000;11486.73327
 587.47;11481.533;  -47.533;    0.000;11529.06654
 587.74;11369.733;  -31.467;    0.000;11401.20007
 588.02;11308.200;  -23.133;    0.000;11331.33353
 588.30;11245.200;  -46.467;    0.000;11291.66686
 588.57;11166.134;  -42.800;    0.000;11208.93379
 588.85;11137.267;  -34.267;    0.000;11171.53327
 589.12;11032.934;  -38.333;    0.000;11071.26693
 589.40;11022.934;  -27.733;    0.000;11050.66693
 589.67;10996.800;  -49.200;    0.000;11045.99981
 589.95;10850.733;  -27.400;    0.000;10878.13340
 590.22;10887.333;  -37.067;    0.000;10924.39967
 590.50;10795.134;  -45.333;    0.000;10840.46712
 590.77;10769.600;  -30.667;    0.000;10800.26628
 591.05;10657.600;  -32.600;    0.000;10690.19961
 591.33;10608.667;  -26.067;    0.000;10634.73366
 591.60;10375.400;  -55.267;    0.000;10430.66706
 591.88;10467.267;  -44.467;    0.000;10511.73327
 592.15;10426.134;  -57.200;    0.000;10483.33379
 592.43;10316.267;  -46.467;    0.000;10362.73327
 592.70;10203.000;  -40.067;    0.000;10243.06667
 592.98;10270.467;  -28.667;    0.000;10299.13346
 593.25;10224.267;  -21.467;    0.000;10245.73327
 593.53;10033.533;  -50.067;    0.000;10083.59987
 593.80;10003.066;  -49.467;    0.000;10052.53307
 594.08; 9949.333;  -49.800;    0.000;9999.13301
 594.35; 9901.134;  -46.200;    0.000;9947.33379
 594.63; 9811.467;  -50.400;    0.000;9861.86680
 594.90; 9758.800;  -29.067;    0.000;9787.86647
 595.18; 9754.800;  -43.067;    0.000;9797.86647
 595.45; 9658.533;  -32.600;    0.000;9691.13320
 595.73; 9507.667;  -56.533;    0.000;9564.20033
 596.00; 9525.000;  -39.400;    0.000;9564.40000
 596.28; 9420.267;  -41.733;    0.000;9461.99994
 596.55; 9379.000;  -38.867;    0.000;9417.86666
 596.83; 9268.600;  -44.467;    0.000;9313.06628
 597.10; 9257.066;  -24.267;    0.000;9281.33307
 597.38; 9091.533;  -50.867;    0.000;9142.39987
 597.65; 9103.533;  -42.400;    0.000;9145.93320
 597.93; 9027.533;  -48.267;    0.000;9075.79987
 598.20; 9023.066;  -46.133;    0.000;9069.19974
 598.48; 8958.866;  -43.733;    0.000;9002.59954
 598.75; 8899.600;  -61.400;    0.000;8960.99961
 599.03; 8779.267;  -46.400;    0.000;8825.66660
 599.30; 8691.200;  -40.667;    0.000;8731.86686
 599.58; 8597.066;  -40.400;    0.000;8637.46641
 599.85; 8664.066;  -43.533;    0.000;8707.59974
 600.12; 8583.066;  -33.000;    0.000;8616.06641
 600.40; 8486.000;  -43.933;    0.000;8529.93333
 600.67; 8318.533;  -62.400;    0.000;8380.93320
 600.95; 8359.600;  -46.800;    0.000;8406.39961
 601.22; 8234.200;  -30.733;    0.000;8264.93353
 601.50; 8330.800;  -30.800;    0.000;8361.59980
 601.77; 8120.867;  -33.333;    0.000;8154.20003
 602.05; 8079.667;  -28.800;    0.000;8108.46650
 602.32; 8096.533;  -25.533;    0.000;8122.06654
 602.59; 7958.667;  -41.467;    0.000;8000.13317
 602.87; 7969.867;  -36.133;    0.000;8006.00003
 603.14; 7874.133;  -34.733;    0.000;7908.86663
 603.42; 7903.733;  -51.733;    0.000;7955.46673
 603.69; 7706.400;  -37.733;    0.000;7744.13324
 603.97; 7753.267;  -68.133;    0.000;7821.39993
 604.24; 7640.600;  -38.933;    0.000;7679.53343
 604.51; 7592.000;  -14.667;    0.000;7606.66667
 604.79; 7517.133;  -32.267;    0.000;7549.39997
 605.06; 7414.333;  -44.133;    0.000;7458.46683
 605.34; 7538.467;  -33.400;    0.000;7571.86680
 605.61; 7349.600;  -43.000;    0.000;7392.60010
 605.89; 7348.000;  -33.867;    0.000;7381.86666
 606.16; 7410.533;  -40.200;    0.000;7450.73320
 606.43; 7322.400;  -36.800;    0.000;7359.19990
 606.71; 7198.867;  -33.933;    0.000;7232.80003
 606.98; 7141.200;  -41.467;    0.000;7182.66686
 607.26; 7137.800;  -24.000;    0.000;7161.79980
 607.53; 7043.333;  -38.867;    0.000;7082.20016
 607.80; 6990.067;  -21.067;    0.000;7011.13356
 608.08; 6913.867;  -37.600;    0.000;6951.46670
 608.35; 6951.467;  -48.333;    0.000;6999.80013
 608.62; 6852.600;  -52.200;    0.000;6904.80010
 608.90; 6796.067;  -29.733;    0.000;6825.80023
 609.17; 6744.667;  -48.600;    0.000;6793.26650
 609.45; 6782.000;  -44.933;    0.000;6826.93333
 609.72; 6738.533;  -45.133;    0.000;6783.66654
 609.99; 6715.933;  -31.933;    0.000;6747.86644
 610.27; 6641.667;  -42.600;    0.000;6684.26650
 610.54; 6638.933;  -37.333;    0.000;6676.26644
 610.81; 6533.200;  -30.200;    0.000;6563.40020
 611.09; 6486.133;  -46.933;    0.000;6533.06664
 611.36; 6433.667;  -31.333;    0.000;6464.99984
 611.64; 6416.333;  -32.600;    0.000;6448.93349
 611.91; 6441.000;  -37.000;    0.000;6478.00000
 612.18; 6277.400;  -48.267;    0.000;6325.66657
 612.46; 6301.867;  -16.667;    0.000;6318.53337
 612.73; 6194.733;  -29.933;    0.000;6224.66673
 613.00; 6191.200;  -38.533;    0.000;6229.73353
 613.28; 6199.000;  -38.267;    0.000;6237.26667
 613.55; 6168.600;  -48.067;    0.000;6216.66676
 613.82; 6090.200;  -64.267;    0.000;6154.46687
 614.10; 6021.133;  -64.067;    0.000;6085.19997
 614.37; 5882.800;  -36.533;    0.000;5919.33314
 614.64; 5832.533;  -49.333;    0.000;5881.86654
 614.92; 5780.200;  -58.667;    0.000;5838.86686
 615.19; 5782.933;  -23.533;    0.000;5806.46644
 615.46; 5664.333;  -45.133;    0.000;5709.46683
 615.74; 5583.000;  -23.200;    0.000;5606.20000
 616.01; 5469.133;  -63.467;    0.000;5532.59997
 616.28; 5524.067;  -41.467;    0.000;5565.53356
 616.56; 5343.600;  -48.600;    0.000;5392.20010
 616.83; 5253.133;  -20.467;    0.000;5273.59997
 617.10; 5158.600;  -26.333;    0.000;5184.93343
 617.37; 5168.467;  -31.933;    0.000;5200.40013
 617.65; 5277.000;  -30.933;    0.000;5307.93333
 617.92; 5273.133;  -41.733;    0.000;5314.86663
 618.19; 5293.067;  -42.533;    0.000;5335.60023
 618.47; 5159.400;  -36.667;    0.000;5196.06657
 618.74; 5132.267;  -40.933;    0.000;5173.19994
 619.01; 5106.333;  -64.067;    0.000;5170.40016
 619.28; 5078.333;  -52.800;    0.000;5131.13350
 619.56; 5099.200;  -49.533;    0.000;5148.73353
 619.83; 5106.600;  -53.467;    0.000;5160.06676
 620.10; 5043.067;  -36.667;    0.000;5079.73356
 620.38; 5067.400;  -63.933;    0.000;5131.33324
 620.65; 4988.600;  -43.400;    0.000;5032.00010
 620.92; 4954.133;  -43.000;    0.000;4997.13330
 621.19; 4937.467;  -44.133;    0.000;4981.60013
 621.47; 4967.800;  -43.133;    0.000;5010.93314
 621.74; 4938.933;  -41.000;    0.000;4979.93311
 622.01; 4960.867;  -44.333;    0.000;5005.20003
 622.28; 4992.400;  -15.200;    0.000;5007.59990
 622.56; 4940.067;  -30.200;    0.000;4970.26690
 622.83; 4902.800;  -55.067;    0.000;4957.86647
 623.10; 4966.267;  -47.267;    0.000;5013.53327
 623.38; 4927.133;  -42.600;    0.000;4969.73330
 623.65; 4888.000;  -28.333;    0.000;4916.33333
 623.92; 4873.733;  -40.933;    0.000;4914.66673
 624.19; 4876.067;  -75.400;    0.000;4951.46690
 624.46; 4843.733;  -31.400;    0.000;4875.13340
 624.74; 4784.333;  -29.600;    0.000;4813.93350
 625.01; 4776.867;  -33.333;    0.000;4810.20003
 625.28; 4780.267;  -36.800;    0.000;4817.06660
 625.55; 4707.200;  -42.667;    0.000;4749.86686
 625.83; 4709.600;  -50.200;    0.000;4759.80010
 626.10; 4723.667;  -41.667;    0.000;4765.33317
 626.37; 4681.667;  -43.333;    0.000;4724.99984
 626.64; 4596.267;  -45.867;    0.000;4642.13327
 626.92; 4634.000;  -52.467;    0.000;4686.46667
 627.19; 4663.667;  -45.600;    0.000;4709.26650
 627.46; 4608.667;  -32.800;    0.000;4641.46650
 627.73; 4530.133;  -49.800;    0.000;4579.93330
 628.00; 4615.133;  -45.533;    0.000;4660.66663
 628.28; 4506.200;  -24.533;    0.000;4530.73353
 628.55; 4462.333;  -56.267;    0.000;4518.60016
 628.82; 4450.600;  -32.667;    0.000;4483.26677
 629.09; 4511.333;  -42.467;    0.000;4553.80016
 629.36; 4439.867;  -28.733;    0.000;4468.60003
 629.64; 4380.267;  -16.333;    0.000;4396.59994
 629.91; 4453.467;  -41.467;    0.000;4494.93346
 630.18; 4298.800;  -42.667;    0.000;4341.46647
 630.45; 4411.867;  -47.933;    0.000;4459.80003
 630.72; 4301.267;  -68.667;    0.000;4369.93327
 631.00; 4293.200;  -33.333;    0.000;4326.53353
 631.27; 4337.600;  -54.867;    0.000;4392.46676
 631.54; 4267.267;  -33.400;    0.000;4300.66660
 631.81; 4262.200;  -53.667;    0.000;4315.86686
 632.08; 4202.200;  -44.267;    0.000;4246.46686
 632.35; 4216.333;  -19.867;    0.000;4236.20016
 632.63; 4195.333;  -59.067;    0.000;4254.40016
 632.90; 4191.267;  -47.600;    0.000;4238.86660
 633.17; 4190.400;  -38.333;    0.000;4228.73323
 633.44; 4181.333;  -57.467;    0.000;4238.80016
 633.71; 4158.000;  -55.667;    0.000;4213.66667
 633.98; 4197.867;  -45.000;    0.000;4242.86670
 634.25; 4077.667;  -59.133;    0.000;4136.80008
 634.53; 4050.733;  -36.333;    0.000;4087.06673
 634.80; 4092.667;  -53.333;    0.000;4146.00008
 635.07; 4044.600;  -53.933;    0.000;4098.53343
 635.34; 4142.333;  -28.400;    0.000;4170.73350
 635.61; 4161.000;  -55.533;    0.000;4216.53333
 635.88; 4129.200;  -45.200;    0.000;4174.40020
 636.15; 4089.867;  -26.200;    0.000;4116.06670
 636.43; 4078.533;  -50.200;    0.000;4128.73345
 636.70; 4077.267;  -37.467;    0.000;4114.73327
 636.97; 4103.067;  -48.867;    0.000;4151.93356
 637.24; 3998.400;  -53.067;    0.000;4051.46657
 637.51; 3999.200;  -24.800;    0.000;4023.99995
 637.78; 3900.467;  -53.000;    0.000;3953.46655
 638.05; 3891.533;  -41.067;    0.000;3932.60011
 638.32; 3851.467;  -31.533;    0.000;3882.99989
 638.60; 3793.800;  -28.133;    0.000;3821.93338
 638.87; 3785.067;  -62.667;    0.000;3847.73332
 639.14; 3813.133;  -47.867;    0.000;3860.99997
 639.41; 3813.067;  -43.867;    0.000;3856.93332
 639.68; 3756.067;  -37.467;    0.000;3793.53332
 639.95; 3750.000;  -60.533;    0.000;3810.53333
 640.22; 3725.133;  -50.000;    0.000;3775.13330
 640.49; 3679.533;  -32.400;    0.000;3711.93345
 640.76; 3665.333;  -47.200;    0.000;3712.53325
 641.03; 3558.800;  -56.133;    0.000;3614.93338
 641.30; 3582.800;  -50.933;    0.000;3633.73338
 641.58; 3484.333;  -49.000;    0.000;3533.33325
 641.85; 3410.867;  -61.467;    0.000;3472.33337
 642.12; 3436.333;  -27.933;    0.000;3464.26658
 642.39; 3434.733;  -47.933;    0.000;3482.66673
 642.66; 3398.067;  -58.133;    0.000;3456.19999
 642.93; 3299.333;  -38.733;    0.000;3338.06659
 643.20; 3325.733;  -31.133;    0.000;3356.86673
 643.47; 3330.867;  -64.467;    0.000;3395.33337
 643.74; 3260.867;  -37.067;    0.000;3297.93336
 644.01; 3227.000;  -51.000;    0.000;3278.00000
 644.28; 3290.667;  -45.000;    0.000;3335.66675
 644.55; 3207.333;  -49.200;    0.000;3256.53325
 644.82; 3230.067;  -50.000;    0.000;3280.06665
 645.09; 3180.600;  -33.600;    0.000;3214.20010
 645.36; 3146.333;  -33.333;    0.000;3179.66658
 645.63; 3132.600;  -40.467;    0.000;3173.06676
 645.91; 3119.267;  -53.600;    0.000;3172.86660
 646.18; 3087.000;  -29.533;    0.000;3116.53333
 646.45; 3094.400;  -44.933;    0.000;3139.33324
 646.72; 3026.800;  -51.000;    0.000;3077.80005
 646.99; 3038.067;  -59.867;    0.000;3097.93332
 647.26; 3048.200;  -44.200;    0.000;3092.39995
 647.53; 2979.133;  -51.133;    0.000;3030.26664
 647.80; 3014.067;  -11.667;    0.000;3025.73332
 648.07; 2944.733;  -45.933;    0.000;2990.66673
 648.34; 2929.333;  -39.000;    0.000;2968.33325
 648.61; 2906.933;  -42.267;    0.000;2949.20002
 648.88; 2897.133;  -63.800;    0.000;2960.93330
 649.15; 2886.067;  -55.333;    0.000;2941.39998
 649.42; 2801.867;  -52.400;    0.000;2854.26670
 649.69; 2851.400;  -34.733;    0.000;2886.13324
 649.96; 2853.000;  -39.267;    0.000;2892.26667
 650.23; 2800.333;  -47.333;    0.000;2847.66658
 650.50; 2797.000;  -28.600;    0.000;2825.60000
 650.77; 2806.667;  -58.200;    0.000;2864.86675
 651.04; 2756.333;  -43.867;    0.000;2800.19992
 651.31; 2764.200;  -58.400;    0.000;2822.59995
 651.58; 2754.533;  -34.667;    0.000;2789.20012
 651.85; 2737.867;  -48.400;    0.000;2786.26670
 652.12; 2727.867;  -24.933;    0.000;2752.80003
 652.39; 2657.533;  -53.933;    0.000;2711.46678
 652.66; 2632.467;  -49.333;    0.000;2681.79988
 652.93; 2623.067;  -51.133;    0.000;2674.19999
 653.20; 2646.733;  -53.467;    0.000;2700.20007
 653.47; 2610.067;  -46.133;    0.000;2656.19999
 653.74; 2603.600;  -45.200;    0.000;2648.80010
 654.01; 2567.200;  -38.533;    0.000;2605.73328
 654.28; 2511.000;  -44.867;    0.000;2555.86666
 654.55; 2520.333;  -66.867;    0.000;2587.19992
 654.81; 2488.267;  -46.467;    0.000;2534.73327
 655.08; 2530.600;  -45.133;    0.000;2575.73343
 655.35; 2456.933;  -49.533;    0.000;2506.46668
 655.62; 2444.400;  -36.400;    0.000;2480.79990
 655.89; 2429.733;  -46.267;    0.000;2476.00006
 656.16; 2423.933;  -52.133;    0.000;2476.06668
 656.43; 2417.067;  -50.867;    0.000;2467.93332
 656.70; 2426.067;  -44.800;    0.000;2470.86665
 656.97; 2386.667;  -54.200;    0.000;2440.86675
 657.24; 2344.533;  -53.267;    0.000;2397.80011
 657.51; 2318.267;  -76.267;    0.000;2394.53327
 657.78; 2309.933;  -49.733;    0.000;2359.66668
 658.05; 2315.933;  -64.067;    0.000;2380.00002
 658.32; 2288.733;  -66.333;    0.000;2355.06673
 658.59; 2277.267;  -43.133;    0.000;2320.39994
 658.86; 2270.133;  -67.133;    0.000;2337.26663
 659.12; 2244.267;  -30.000;    0.000;2274.26660
 659.39; 2224.267;  -44.133;    0.000;2268.39994
 659.66; 2225.067;  -42.267;    0.000;2267.33332
 659.93; 2212.067;  -37.867;    0.000;2249.93332
 660.20; 2202.400;  -56.133;    0.000;2258.53324
 660.47; 2170.333;  -54.200;    0.000;2224.53325
 660.74; 2147.600;  -38.400;    0.000;2186.00010
 661.01; 2149.200;  -44.133;    0.000;2193.33329
 661.28; 2157.800;  -47.667;    0.000;2205.46672
 661.55; 2152.133;   -5.533;    0.000;2157.66663
 661.81; 2062.333;  -55.200;    0.000;2117.53325
 662.08; 2075.400;  -46.733;    0.000;2122.13324
 662.35; 2055.067;  -46.800;    0.000;2101.86665
 662.62; 2043.667;  -50.000;    0.000;2093.66663
 662.89; 2024.867;  -45.600;    0.000;2070.46670
 663.16; 2007.333;  -49.867;    0.000;2057.20004
 663.43; 1944.600;  -44.733;    0.000;1989.33331
 663.70; 1965.667;  -55.667;    0.000;2021.33329
 663.96; 1996.600;  -45.267;    0.000;2041.86664
 664.23; 1941.133;  -52.600;    0.000;1993.73330
 664.50; 1935.600;  -55.600;    0.000;1991.19997
 664.77; 1941.933;  -51.333;    0.000;1993.26668
 665.04; 1890.733;  -54.400;    0.000;1945.13328
 665.31; 1885.533;  -59.800;    0.000;1945.33332
 665.58; 1871.467;  -48.133;    0.000;1919.60001
 665.84; 1882.067;  -35.333;    0.000;1917.39998
 666.11; 1874.933;  -56.733;    0.000;1931.66668
 666.38; 1835.400;  -46.600;    0.000;1882.00002
 666.65; 1823.800;  -41.400;    0.000;1865.20005
 666.92; 1834.667;  -63.600;    0.000;1898.26662
 667.19; 1810.800;  -62.200;    0.000;1873.00005
 667.46; 1814.933;  -44.067;    0.000;1859.00002
 667.72; 1774.867;  -38.333;    0.000;1813.20003
 667.99; 1735.467;  -43.200;    0.000;1778.66668
 668.26; 1766.933;  -51.867;    0.000;1818.80001
 668.53; 1705.600;  -57.067;    0.000;1762.66664
 668.80; 1747.733;  -25.333;    0.000;1773.06661
 669.06; 1657.467;  -42.933;    0.000;1700.40001
 669.33; 1694.933;  -38.533;    0.000;1733.46668
 669.60; 1669.733;  -47.800;    0.000;1717.53328
 669.87; 1667.133;  -51.467;    0.000;1718.59997
 670.14; 1702.000;  -47.467;    0.000;1749.46667
 670.41; 1656.467;  -45.600;    0.000;1702.06667
 670.67; 1663.867;  -52.333;    0.000;1716.20003
 670.94; 1634.133;  -57.067;    0.000;1691.19997
 671.21; 1592.200;  -37.133;    0.000;1629.33329
 671.48; 1551.000;  -63.533;    0.000;1614.53333
 671.75; 1578.800;  -43.867;    0.000;1622.66671
 672.01; 1558.867;  -41.267;    0.000;1600.13337
 672.28; 1541.267;  -28.467;    0.000;1569.73339
 672.55; 1526.667;  -41.200;    0.000;1567.86663
 672.82; 1516.800;  -45.133;    0.000;1561.93338
 673.08; 1540.733;  -47.667;    0.000;1588.39994
 673.35; 1490.867;  -60.000;    0.000;1550.86670
 673.62; 1521.267;  -58.933;    0.000;1580.20006
 673.89; 1475.600;  -54.067;    0.000;1529.66664
 674.16; 1437.867;  -52.267;    0.000;1490.13337
 674.42; 1473.533;  -41.133;    0.000;1514.66666
 674.69; 1448.133;  -36.733;    0.000;1484.86663
 674.96; 1418.267;  -52.933;    0.000;1471.20006
 675.23; 1406.400;  -69.933;    0.000;1476.33336
 675.49; 1395.467;  -59.400;    0.000;1454.86668
 675.76; 1371.533;  -54.733;    0.000;1426.26666
 676.03; 1411.067;  -30.667;    0.000;1441.73332
 676.30; 1369.800;  -51.600;    0.000;1421.40005
 676.56; 1385.000;  -55.533;    0.000;1440.53333
 676.83; 1370.000;  -40.467;    0.000;1410.46667
 677.10; 1322.400;  -51.133;    0.000;1373.53336
 677.37; 1318.333;  -23.667;    0.000;1342.00004
 677.63; 1282.667;  -54.933;    0.000;1337.59996
 677.90; 1298.400;  -48.200;    0.000;1346.60003
 678.17; 1320.533;  -53.200;    0.000;1373.73333
 678.44; 1309.467;  -34.333;    0.000;1343.80001
 678.70; 1259.933;  -54.533;    0.000;1314.46668
 678.97; 1254.267;  -49.000;    0.000;1303.26672
 679.24; 1262.333;  -54.000;    0.000;1316.33337
 679.50; 1235.933;  -68.267;    0.000;1304.20002
 679.77; 1230.467;  -48.267;    0.000;1278.73334
 680.04; 1173.267;  -45.800;    0.000;1219.06672
 680.31; 1219.467;  -58.333;    0.000;1277.80001
 680.57; 1166.400;  -55.400;    0.000;1221.80003
 680.84; 1204.267;  -56.933;    0.000;1261.20006
 681.11; 1194.200;  -33.533;    0.000;1227.73328
 681.37; 1125.467;  -52.000;    0.000;1177.46667
 681.64; 1132.333;  -49.067;    0.000;1181.40004
 681.91; 1131.467;  -55.267;    0.000;1186.73334
 682.17; 1131.533;  -18.133;    0.000;1149.66666
 682.44; 1123.333;  -63.867;    0.000;1187.20004
 682.71; 1115.733;  -35.200;    0.000;1150.93328
 682.98; 1109.267;  -53.000;    0.000;1162.26672
 683.24; 1070.400;  -56.733;    0.000;1127.13336
 683.51; 1118.933;  -48.467;    0.000;1167.40002
 683.78; 1098.133;  -38.467;    0.000;1136.59997
 684.04; 1068.733;  -53.400;    0.000;1122.13328
 684.31; 1051.333;  -62.267;    0.000;1113.60004
 684.58; 1064.467;  -55.800;    0.000;1120.26667
 684.84; 1069.200;  -54.133;    0.000;1123.33329
 685.11; 1041.400;  -64.200;    0.000;1105.60002
 685.38; 1057.867;  -37.000;    0.000;1094.86670
 685.64; 1006.467;  -45.133;    0.000;1051.60001
 685.91;  965.600;  -56.400;    0.000;1021.99998
 686.17; 1021.533;  -60.733;    0.000;1082.26666
 686.44;  993.133;  -49.867;    0.000;1043.00003
 686.71;  963.400;  -52.733;    0.000;1016.13336
 686.97;  933.667;  -58.733;    0.000;992.40002
 687.24;  971.067;  -56.467;    0.000;1027.53332
 687.51;  976.067;  -67.800;    0.000;1043.86665
 687.77;  952.600;  -47.467;    0.000;1000.06664
 688.04;  937.400;  -31.133;    0.000;968.53336
 688.31;  949.800;  -49.200;    0.000;998.99999
 688.57;  928.400;  -37.867;    0.000;966.26669
 688.84;  938.667;  -41.667;    0.000;980.33335
 689.10;  864.133;  -61.867;    0.000;926.00003
 689.37;  918.800;  -52.600;    0.000;971.39999
 689.64;  895.400;  -71.533;    0.000;966.93336
 689.90;  880.067;  -48.667;    0.000;928.73332
 690.17;  873.067;  -66.267;    0.000;939.33332
 690.44;  860.600;  -61.733;    0.000;922.33331
 690.70;  843.400;  -34.267;    0.000;877.66669
 690.97;  847.000;  -62.067;    0.000;909.06667
 691.23;  849.000;  -58.867;    0.000;907.86666
 691.50;  829.800;  -52.333;    0.000;882.13332
 691.77;  813.800;  -51.867;    0.000;865.66665
 692.03;  847.133;  -49.600;    0.000;896.73336
 692.30;  811.867;  -52.667;    0.000;864.53331
 692.56;  789.933;  -55.267;    0.000;845.20002
 692.83;  740.533;  -61.933;    0.000;802.46666
 693.10;  780.733;  -51.400;    0.000;832.13334
 693.36;  770.533;  -35.400;    0.000;805.93333
 693.63;  739.200;  -73.533;    0.000;812.73335
 693.89;  739.533;  -53.000;    0.000;792.53333
 694.16;  730.000;  -44.333;    0.000;774.33333
 694.42;  758.733;  -67.667;    0.000;826.40000
 694.69;  757.400;  -24.933;    0.000;782.33336
 694.96;  761.000;  -21.933;    0.000;782.93333
 695.22;  719.333;  -57.800;    0.000;777.13331
 695.49;  738.067;  -55.133;    0.000;793.19999
 695.75;  663.133;  -61.333;    0.000;724.46669
 696.02;  674.400;  -55.600;    0.000;730.00002
 696.28;  675.333;  -58.733;    0.000;734.06665
 696.55;  667.067;  -68.467;    0.000;735.53332
 696.81;  683.533;  -47.000;    0.000;730.53333
 697.08;  645.867;  -50.133;    0.000;695.99997
 697.34;  654.000;  -48.733;    0.000;702.73333
 697.61;  646.000;  -57.200;    0.000;703.20000
 697.88;  665.467;  -43.800;    0.000;709.26667
 698.14;  625.933;  -59.733;    0.000;685.66668
 698.41;  599.867;  -36.067;    0.000;635.93330
 698.67;  632.867;  -59.600;    0.000;692.46664
 698.94;  585.933;  -46.333;    0.000;632.26668
 699.20;  606.733;  -56.600;    0.000;663.33334
 699.47;  559.333;  -58.933;    0.000;618.26665
 699.73;  578.533;  -47.800;    0.000;626.33332
 700.00;  577.067;  -60.667;    0.000;637.73332
 700.26;  569.133;  -64.867;    0.000;634.00003
 700.53;  545.333;  -46.867;    0.000;592.19998
 700.79;  557.933;  -57.933;    0.000;615.86668
 701.06;  543.400;  -79.733;    0.000;623.13335
 701.32;  544.667;  -52.533;    0.000;597.20002
 701.59;  526.933;  -54.867;    0.000;581.80001
 701.85;  540.267;  -48.667;    0.000;588.93333
 702.12;  525.133;  -71.467;    0.000;596.60003
 702.38;  518.867;  -49.867;    0.000;568.73330
 702.65;  491.133;  -45.133;    0.000;536.26667
 702.91;  477.733;  -34.000;    0.000;511.73334
 703.18;  510.267;  -56.933;    0.000;567.20000
 703.44;  453.400;  -57.600;    0.000;510.99999
 703.71;  485.733;  -60.733;    0.000;546.46667
 703.97;  443.667;  -45.867;    0.000;489.53332
 704.24;  438.133;  -37.933;    0.000;476.06667
 704.50;  423.133;  -78.533;    0.000;501.66666
 704.76;  449.600;  -47.000;    0.000;496.60001
 705.03;  451.800;  -23.400;    0.000;475.19999
 705.29;  433.533;  -56.667;    0.000;490.19999
 705.56;  433.933;  -41.933;    0.000;475.86665
 705.82;  390.867;  -58.200;    0.000;449.06667
 706.09;  379.533;  -40.667;    0.000;420.19999
 706.35;  376.133;  -62.533;    0.000;438.66666
 706.62;  397.400;  -46.667;    0.000;444.06666
 706.88;  355.067;  -50.067;    0.000;405.13335
 707.15;  370.000;  -38.533;    0.000;408.53333
 707.41;  352.333;  -55.600;    0.000;407.93334
 707.67;  360.067;  -58.200;    0.000;418.26668
 707.94;  361.533;  -41.067;    0.000;402.59999
 708.20;  331.800;  -72.667;    0.000;404.46665
 708.47;  345.267;  -53.133;    0.000;398.40000
 708.73;  316.200;  -51.400;    0.000;367.60001
 709.00;  329.667;  -61.867;    0.000;391.53332
 709.26;  316.533;  -45.467;    0.000;361.99999
 709.52;  329.200;  -56.467;    0.000;385.66668
 709.79;  315.133;  -58.467;    0.000;373.60000
 710.05;  293.000;  -70.067;    0.000;363.06667
 710.32;  297.000;  -35.200;    0.000;332.20000
 710.58;  293.533;  -74.333;    0.000;367.86666
 710.84;  278.600;  -55.133;    0.000;333.73334
 711.11;  282.533;  -68.800;    0.000;351.33333
 711.37;  245.933;  -59.533;    0.000;305.46667
 711.64;  268.667;  -56.000;    0.000;324.66666
 711.90;  282.800;  -67.533;    0.000;350.33332
 712.16;  265.800;  -49.267;    0.000;315.06665
 712.43;  292.400;  -50.933;    0.000;343.33333
 712.69;  253.533;  -50.067;    0.000;303.60001
 712.96;  249.333;  -51.800;    0.000;301.13333
 713.22;  251.867;  -63.200;    0.000;315.06667
 713.48;  254.467;  -63.533;    0.000;317.99999
 713.75;  236.067;  -38.133;    0.000;274.20000
 714.01;  247.067;  -67.667;    0.000;314.73333
 714.27;  221.733;  -35.467;    0.000;257.20000
 714.54;  222.667;  -57.333;    0.000;280.00000
 714.80;  236.533;  -70.800;    0.000;307.33334
 715.06;  207.667;  -38.533;    0.000;246.20000
 715.33;  222.067;  -53.600;    0.000;275.66666
 715.59;  250.267;  -53.733;    0.000;304.00000
 715.86;  224.733;  -56.733;    0.000;281.46667
 716.12;  212.467;  -54.933;    0.000;267.39999
 716.38;  230.133;  -57.067;    0.000;287.20000
 716.65;  200.933;  -31.267;    0.000;232.20000
 716.91;  200.733;  -58.800;    0.000;259.53334
 717.17;  224.933;  -36.200;    0.000;261.13334
 717.44;  236.600;  -48.867;    0.000;285.46667
 717.70;  213.333;  -66.933;    0.000;280.26666
 717.96;  210.133;  -48.133;    0.000;258.26667
 718.23;  207.600;  -45.800;    0.000;253.40001
 718.49;  195.133;  -53.467;    0.000;248.60000
 718.75;  206.467;  -55.133;    0.000;261.59999
 719.02;  174.267;  -50.267;    0.000;224.53333
 719.28;  206.400;  -61.000;    0.000;267.39999
 719.54;  199.400;  -65.800;    0.000;265.20000
 719.80;  190.800;  -53.467;    0.000;244.26667
 720.07;  188.067;  -59.800;    0.000;247.86666
 720.33;  204.333;  -62.600;    0.000;266.93333
 720.59;  170.400;  -62.733;    0.000;233.13333
 720.86;  187.667;  -65.933;    0.000;253.60001
 721.12;  174.467;  -55.867;    0.000;230.33332
 721.38;  162.267;  -54.200;    0.000;216.46666
 721.65;  188.800;  -69.667;    0.000;258.46667
 721.91;  208.533;  -32.600;    0.000;241.13334
 722.17;  174.933;  -58.000;    0.000;232.93333
 722.43;  167.000;  -38.733;    0.000;205.73333
 722.70;  174.400;  -70.533;    0.000;244.93333
 722.96;  211.333;  -50.933;    0.000;262.26666
 723.22;  191.533;  -62.267;    0.000;253.80001
 723.48;  167.400;  -67.667;    0.000;235.06666
 723.75;  172.133;  -54.333;    0.000;226.46666
 724.01;  164.200;  -39.933;    0.000;204.13333
 724.27;  156.733;  -56.933;    0.000;213.66667
 724.54;  177.667;  -45.867;    0.000;223.53334
 724.80;  191.867;  -68.200;    0.000;260.06667
 725.06;  170.067;  -66.267;    0.000;236.33334
 725.32;  186.400;  -60.400;    0.000;246.80000
 725.59;  179.200;  -68.467;    0.000;247.66666
 725.85;  175.400;  -67.067;    0.000;242.46666
 726.11;  182.800;  -63.133;    0.000;245.93334
 726.37;  176.133;  -52.333;    0.000;228.46666
 726.64;  190.267;  -35.000;    0.000;225.26666
 726.90;  167.067;  -57.400;    0.000;224.46667
 727.16;  182.800;  -63.400;    0.000;246.20000
 727.42;  199.267;  -73.467;    0.000;272.73333
 727.68;  184.067;  -83.733;    0.000;267.80000
 727.95;  157.333;  -76.867;    0.000;234.20000
 728.21;  168.333;  -50.200;    0.000;218.53333
 728.47;  180.000;  -52.600;    0.000;232.60000
 728.73;  174.133;  -20.467;    0.000;194.60000
 729.00;  153.200;  -45.000;    0.000;198.20000
 729.26;  170.467;  -46.400;    0.000;216.86666
 729.52;  166.400;  -76.467;    0.000;242.86666
 729.78;  172.933;  -80.933;    0.000;253.86667
 730.04;  172.000;  -49.000;    0.000;221.00000
 730.31;  147.133;  -60.800;    0.000;207.93333
 730.57;  133.667;  -68.133;    0.000;201.80000
 730.83;  159.333;  -71.267;    0.000;230.60000
 731.09;  148.467;  -51.733;    0.000;200.19999
 731.35;  166.267;  -61.933;    0.000;228.20000
 731.62;  145.333;  -74.267;    0.000;219.60000
 731.88;  152.133;  -64.133;    0.000;216.26666
 732.14;  155.067;  -70.533;    0.000;225.60000
 732.40;  173.400;  -56.533;    0.000;229.93333
 732.66;  146.000;  -58.267;    0.000;204.26667
 732.92;  133.600;  -53.133;    0.000;186.73334
 733.19;  157.000;  -58.467;    0.000;215.46667
 733.45;  151.400;  -57.200;    0.000;208.59999
 733.71;  156.667;  -70.667;    0.000;227.33334
 733.97;  165.200;  -33.867;    0.000;199.06666
 734.23;  131.400;  -62.600;    0.000;193.99999
 734.49;  158.533;  -77.800;    0.000;236.33334
 734.76;  143.800;  -70.667;    0.000;214.46667
 735.02;  142.600;  -78.800;    0.000;221.40001
 735.28;  158.667;  -48.400;    0.000;207.06667
 735.54;  135.733;  -57.867;    0.000;193.60000
 735.80;  117.400;  -54.200;    0.000;171.60000
 736.06;  140.867;  -31.733;    0.000;172.60000
 736.32;  112.733;  -73.200;    0.000;185.93333
 736.59;  145.733;  -63.933;    0.000;209.66667
 736.85;  145.600;  -61.067;    0.000;206.66667
 737.11;  119.533;  -62.533;    0.000;182.06667
 737.37;  143.867;  -63.400;    0.000;207.26667
 737.63;  152.467;  -73.667;    0.000;226.13332
 737.89;  127.200;  -50.733;    0.000;177.93333
 738.15;  131.933;  -45.533;    0.000;177.46667
 738.41;  128.400;  -66.000;    0.000;194.39999
 738.67;  119.467;  -60.533;    0.000;180.00000
 738.94;  114.400;  -71.133;    0.000;185.53333
 739.20;  134.467;  -52.867;    0.000;187.33332
 739.46;  129.600;  -52.067;    0.000;181.66667
 739.72;   99.133;  -60.133;    0.000;159.26667
 739.98;   91.733;  -55.933;    0.000;147.66666
 740.24;  100.667;  -63.867;    0.000;164.53333
 740.50;  103.267;  -62.133;    0.000;165.40001
 740.76;  114.667;  -58.400;    0.000;173.06667
 741.02;   86.667;  -57.667;    0.000;144.33333
 741.28;  107.667;  -65.667;    0.000;173.33333
 741.54;  119.467;  -48.733;    0.000;168.20000
 741.81;   89.800;  -46.200;    0.000;136.00000
 742.07;   90.067;  -58.133;    0.000;148.20000
 742.33;  100.333;  -46.067;    0.000;146.40000
 742.59;  101.133;  -50.667;    0.000;151.80000
 742.85;   90.933;  -48.600;    0.000;139.53333
 743.11;   83.333;  -88.667;    0.000;172.00000
 743.37;   93.133;  -60.000;    0.000;153.13333
 743.63;   93.133;  -64.733;    0.000;157.86666
 743.89;  102.200;  -64.600;    0.000;166.80000
 744.15;   72.867;  -51.400;    0.000;124.26667
 744.41;   75.867;  -70.933;    0.000;146.80000
 744.67;   96.600;  -56.000;    0.000;152.60000
 744.93;  102.867;  -47.333;    0.000;150.20000
 745.19;   80.533;  -38.867;    0.000;119.40000
 745.45;  100.333;  -42.000;    0.000;142.33334
 745.71;   83.800;  -71.067;    0.000;154.86667
 745.97;   94.933;  -42.933;    0.000;137.86667
 746.23;   95.333;  -75.733;    0.000;171.06667
 746.49;   63.333;  -81.333;    0.000;144.66667
 746.75;   76.000;  -49.400;    0.000;125.40000
 747.02;   69.067;  -60.400;    0.000;129.46667
 747.28;   61.867;  -66.067;    0.000;127.93333
 747.54;   70.333;  -69.533;    0.000;139.86667
 747.80;   32.667;  -69.267;    0.000;101.93334
 748.06;   64.733;  -59.400;    0.000;124.13333
 748.32;   61.867;  -79.533;    0.000;141.40000
 748.58;   71.400;  -50.533;    0.000;121.93333
 748.84;   69.533;  -68.333;    0.000;137.86667
 749.10;  144.800;   40.067;    0.000;104.73334
 749.36;   83.400;  -54.800;    0.000;138.20000
 749.62;   51.800;  -76.400;    0.000;128.20000
 749.88;   53.867;  -60.200;    0.000;114.06667
 750.14;   60.600;  -52.933;    0.000;113.53333
 750.40;   81.333;  -66.867;    0.000;148.20000
 750.66;   62.000;  -42.267;    0.000;104.26667
 750.91;   62.000;  -65.000;    0.000;127.00000
 751.17;   43.867;  -47.800;    0.000;91.66666
 751.43;   63.733;  -63.200;    0.000;126.93333
 751.69;   55.467;  -49.200;    0.000;104.66667
 751.95;   60.333;  -55.067;    0.000;115.40000
 752.21;   52.733;  -60.867;    0.000;113.60000
 752.47;   37.333;  -65.267;    0.000;102.60000
 752.73;   46.533;  -59.400;    0.000;105.93333
 752.99;   33.067;  -65.400;    0.000;98.46667
 753.25;   35.133;  -73.400;    0.000;108.53334
 753.51;   46.267;  -59.533;    0.000;105.80000
 753.77;   32.067;  -50.333;    0.000;82.40000
 754.03;   38.200;  -60.267;    0.000;98.46667
 754.29;   59.267;  -66.800;    0.000;126.06667
 754.55;   37.067;  -50.267;    0.000;87.33333
 754.81;   20.267;  -63.000;    0.000;83.26667
 755.07;   32.933;  -47.200;    0.000;80.13334
 755.33;   20.667;  -67.200;    0.000;87.86666
 755.59;   33.067;  -77.200;    0.000;110.26666
 755.85;   30.400;  -57.800;    0.000;88.20000
 756.10;   30.733;  -52.867;    0.000;83.60000
 756.36;   24.533;  -75.333;    0.000;99.86667
 756.62;   25.800;  -74.600;    0.000;100.40000
 756.88;   37.467;  -34.600;    0.000;72.06667
 757.14;   27.067;  -54.800;    0.000;81.86667
 757.40;   48.800;  -46.000;    0.000;94.80000
 757.66;   27.400;  -63.133;    0.000;90.53333
 757.92;   10.600;  -58.133;    0.000;68.73334
 758.18;   26.533;  -64.200;    0.000;90.73333
 758.44;   35.267;  -61.867;    0.000;97.13333
 758.70;    6.867;  -54.267;    0.000;61.13333
 758.95;   19.533;  -64.600;    0.000;84.13333
 759.21;   27.067;  -65.467;    0.000;92.53333
 759.47;   27.133;  -47.933;    0.000;75.06667
 759.73;   16.533;  -52.200;    0.000;68.73333
 759.99;   20.867;  -67.200;    0.000;88.06666
 760.25;   15.667;  -85.533;    0.000;101.20000
 760.51;    6.867;  -56.267;    0.000;63.13333
 760.77;   32.333;  -59.467;    0.000;91.80000
 761.02;    9.200;  -65.533;    0.000;74.73333
 761.28;   24.933;  -75.000;    0.000;99.93333
 761.54;   21.333;  -67.067;    0.000;88.40000
 761.80;   33.533;  -59.933;    0.000;93.46667
 762.06;    8.267;  -33.267;    0.000;41.53333
 762.32;    4.200;  -89.467;    0.000;93.66667
 762.58;    1.267;  -63.533;    0.000;64.80000
 762.83;   17.333;  -54.533;    0.000;71.86667
 763.09;   20.067;  -56.533;    0.000;76.60000
 763.35;    5.667;  -54.800;    0.000;60.46667
 763.61;   23.667;  -50.467;    0.000;74.13333
 763.87;   16.533;  -61.667;    0.000;78.20000
 764.13;    2.267;  -69.067;    0.000;71.33333
 764.38;   -4.933;  -65.867;    0.000;60.93334
 764.64;    3.400;  -72.200;    0.000;75.60000
 764.90;    9.933;  -88.533;    0.000;98.46667
 765.16;   18.533;  -62.133;    0.000;80.66667
 765.42;    4.200;  -46.000;    0.000;50.20000
 765.68;  -13.267;  -65.800;    0.000;52.53334
 765.93;  -12.933;  -66.800;    0.000;53.86667
 766.19;  -10.200;  -62.400;    0.000;52.20000
 766.45;   20.667;  -74.533;    0.000;95.20000
 766.71;   -6.733;  -51.667;    0.000;44.93333
 766.97;    7.133;  -63.400;    0.000;70.53333
 767.22;   -2.200;  -78.733;    0.000;76.53333
 767.48;    8.867;  -63.733;    0.000;72.60000
 767.74;    1.200;  -74.067;    0.000;75.26667
 768.00;  -22.867;  -57.333;    0.000;34.46667
 768.26;    0.800;  -68.067;    0.000;68.86667
 768.51;  -16.267;  -64.333;    0.000;48.06667
 768.77;   14.400;  -49.533;    0.000;63.93333
 769.03;   -8.667;  -83.267;    0.000;74.60000
 769.29;  -16.600;  -65.467;    0.000;48.86667
 769.54;  -19.400;  -74.467;    0.000;55.06667
 769.80;   -3.133;  -68.867;    0.000;65.73334
 770.06;  -29.533;  -57.933;    0.000;28.40000
 770.32;   -3.667;  -61.267;    0.000;57.60000
 770.57;   -1.400;  -60.933;    0.000;59.53333
 770.83;    9.467;  -63.000;    0.000;72.46667
 771.09;  -10.800;  -81.133;    0.000;70.33333
 771.35;  -22.533;  -61.333;    0.000;38.80000
 771.61;  -21.733;  -83.200;    0.000;61.46666
 771.86;    3.067;  -65.400;    0.000;68.46667
 772.12;  -38.600;  -74.067;    0.000;35.46667
 772.38;  -14.200;  -61.333;    0.000;47.13333
 772.63;  -12.267;  -78.867;    0.000;66.60000
 772.89;  -14.600;  -62.933;    0.000;48.33333
 773.15;  -21.467;  -81.667;    0.000;60.20000
 773.41;  -15.000;  -64.867;    0.000;49.86667
 773.66;   -7.600;  -80.733;    0.000;73.13333
 773.92;  -22.333;  -68.000;    0.000;45.66667
 774.18;  -11.333;  -76.400;    0.000;65.06667
 774.44;  -31.667;  -71.467;    0.000;39.80000
 774.69;  -23.600;  -74.933;    0.000;51.33333
 774.95;   -9.800;  -64.933;    0.000;55.13333
 775.21;    8.867;  -53.200;    0.000;62.06667
 775.46;  -23.267;  -74.600;    0.000;51.33333
 775.72;   -4.667;  -72.733;    0.000;68.06666
 775.98;  -24.267;  -45.933;    0.000;21.66667
 776.24;  -29.733;  -90.733;    0.000;61.00000
 776.49;  -21.400;  -83.400;    0.000;62.00000
 776.75;  -26.333;  -61.200;    0.000;34.86667
 777.01;  -19.267;  -78.733;    0.000;59.46666
 777.26;   -2.400;  -65.800;    0.000;63.40000
 777.52;   -4.133;  -63.133;    0.000;59.00000
 777.78;  -10.067;  -53.933;    0.000;43.86667
 778.03;  -15.133;  -60.200;    0.000;45.06667
 778.29;   -6.533;  -71.733;    0.000;65.20000
 778.55;   -3.067;  -67.733;    0.000;64.66666
 778.80;  -19.000;  -77.000;    0.000;58.00000
 779.06;  -20.733;  -71.400;    0.000;50.66667
 779.32;  -27.933;  -68.067;    0.000;40.13333
 779.57;  -37.133;  -83.600;    0.000;46.46666
 779.83;  -20.067;  -69.533;    0.000;49.46667
 780.09;  -26.600;  -68.267;    0.000;41.66667
 780.34;  -26.467;  -65.200;    0.000;38.73333
 780.60;  -25.267;  -37.000;    0.000;11.73333
 780.86;  -12.267;  -63.200;    0.000;50.93333
 781.11;  -14.467;  -62.667;    0.000;48.20000
 781.37;  -28.200;  -65.133;    0.000;36.93333
 781.63;  -11.533;  -57.733;    0.000;46.20000
 781.88;  -24.067;  -61.333;    0.000;37.26666
 782.14;  -31.000;  -46.600;    0.000;15.60000
 782.39;  -41.533;  -60.067;    0.000;18.53333
 782.65;  -20.600;  -53.667;    0.000;33.06667
 782.91;  -18.200;  -52.267;    0.000;34.06667
 783.16;  -34.467;  -68.800;    0.000;34.33334
 783.42;  -44.800;  -69.600;    0.000;24.80000
 783.67;  -32.867;  -68.467;    0.000;35.60000
 783.93;  -20.933;  -86.867;    0.000;65.93334
 784.19;  -20.067;  -59.600;    0.000;39.53333
 784.44;  -16.133;  -56.933;    0.000;40.80000
 784.70;   -9.800;  -64.933;    0.000;55.13333
 784.96;  -30.600;  -66.867;    0.000;36.26667
 785.21;  -40.667;  -82.800;    0.000;42.13334
 785.47;   -2.533;  -64.800;    0.000;62.26667
 785.72;  -24.667;  -63.733;    0.000;39.06667
 785.98;  -12.800;  -62.400;    0.000;49.60000
 786.23;  -23.333;  -69.267;    0.000;45.93334
 786.49;  -31.800;  -81.600;    0.000;49.80000
 786.75;  -34.533;  -66.333;    0.000;31.80000
 787.00;  -33.333;  -48.533;    0.000;15.20000
 787.26;  -38.467;  -73.800;    0.000;35.33334
 787.51;   -5.867;  -71.333;    0.000;65.46667
 787.77;   -6.933;  -50.067;    0.000;43.13333
 788.02;  -19.733;  -56.600;    0.000;36.86666
 788.28;  -19.333;  -69.733;    0.000;50.40000
 788.54;  -25.333;  -69.267;    0.000;43.93334
 788.79;  -21.867;  -42.400;    0.000;20.53333
 789.05;  -29.667;  -84.600;    0.000;54.93333
 789.30;  -42.667;  -57.467;    0.000;14.80000
 789.56;  -30.600;  -85.133;    0.000;54.53333
 789.81;  -25.533;  -69.400;    0.000;43.86667
 790.07;  -52.600;  -63.400;    0.000;10.80000
 790.32;  -34.333; -103.600;    0.000;69.26667
 790.58;   -7.600;  -69.133;    0.000;61.53333
 790.83;  -26.400;  -61.667;    0.000;35.26667
 791.09;  -25.933;  -83.333;    0.000;57.40000
 791.35;  -40.067;  -82.400;    0.000;42.33334
 791.60;  -41.467;  -63.867;    0.000;22.40000
 791.86;  -30.133;  -56.133;    0.000;26.00000
 792.11;  -33.000;  -50.400;    0.000;17.40000
 792.37;  -34.400;  -62.133;    0.000;27.73333
 792.62;  -41.267;  -63.867;    0.000;22.60000
 792.88;  -48.133;  -65.600;    0.000;17.46666
 793.13;  -49.600;  -80.333;    0.000;30.73334
 793.39;  -46.933;  -62.533;    0.000;15.60000
 793.64;  -45.933;  -81.467;    0.000;35.53333
 793.90;  -39.333;  -72.067;    0.000;32.73333
 794.15;  -28.400;  -72.133;    0.000;43.73333
 794.41;  -29.867;  -68.667;    0.000;38.80000
 794.66;  -29.933;  -76.733;    0.000;46.80000
 794.92;  -29.733;  -51.867;    0.000;22.13333
 795.17;  -50.200;  -73.400;    0.000;23.20000
 795.43;  -51.600;  -77.667;    0.000;26.06667
 795.68;  -19.933;  -64.200;    0.000;44.26666
 795.94;    2.000;  -68.400;    0.000;70.40000
 796.19;  -53.267;  -69.200;    0.000;15.93333
 796.44;  -27.400;  -60.600;    0.000;33.20000
 796.70;  -28.800;  -56.667;    0.000;27.86667
 796.95;  -33.667;  -67.467;    0.000;33.80000
 797.21;  -33.200;  -76.867;    0.000;43.66667
 797.46;  -49.533;  -64.733;    0.000;15.20000
 797.72;  -30.933;  -68.533;    0.000;37.60000
 797.97;  -50.933;  -71.933;    0.000;21.00000
 798.23;  -48.800;  -68.333;    0.000;19.53334
 798.48;  -40.867;  -74.600;    0.000;33.73333
 798.74;  -54.800;  -88.200;    0.000;33.40000
 798.99;  -41.467;  -81.733;    0.000;40.26666
 799.24;  -42.733;  -77.733;    0.000;35.00000
 799.50;  -39.733;  -74.600;    0.000;34.86666
 799.75;  -39.333;  -66.000;    0.000;26.66667
 800.01;  -41.133;  -74.333;    0.000;33.20000
 800.26;  -46.333;  -78.000;    0.000;31.66667
 800.52;  -29.600;  -85.667;    0.000;56.06666
 800.77;  -26.600;  -75.933;    0.000;49.33333
 801.02;  -66.600;  -83.000;    0.000;16.40000
 801.28;  -43.800; -101.667;    0.000;57.86666
 801.53;  -44.067;  -58.800;    0.000;14.73333
 801.79;  -59.667;  -69.533;    0.000; 9.86666
 802.04;  -48.533;  -64.867;    0.000;16.33334
 802.29;  -40.533;  -84.667;    0.000;44.13333
 802.55;  -55.733;  -71.133;    0.000;15.40000
 802.80;  -44.600;  -61.600;    0.000;17.00000
 803.06;  -32.733;  -60.267;    0.000;27.53333
 803.31;  -35.133;  -78.267;    0.000;43.13334
 803.56;  -43.200;  -57.400;    0.000;14.20000
 803.82;  -37.400;  -80.667;    0.000;43.26666
 804.07;  -42.600;  -55.067;    0.000;12.46667
 804.32;  -36.000;  -68.667;    0.000;32.66666
 804.58;  -34.000;  -89.067;    0.000;55.06667
 804.83;  -46.133;  -89.400;    0.000;43.26667
 805.09;  -44.000;  -64.467;    0.000;20.46667
 805.34;  -51.467;  -66.933;    0.000;15.46667
 805.59;  -38.800;  -56.267;    0.000;17.46667
 805.85;  -46.333;  -63.667;    0.000;17.33334
 806.10;  -44.133;  -57.067;    0.000;12.93333
 806.35;  -41.333;  -62.933;    0.000;21.60000
 806.61;  -23.333;  -76.933;    0.000;53.60000
 806.86;  -44.067;  -92.800;    0.000;48.73334
 807.11;  -39.733;  -68.933;    0.000;29.20000
 807.37;  -28.667;  -47.867;    0.000;19.20000
 807.62;  -51.400;  -82.333;    0.000;30.93333
 807.87;  -64.867;  -59.600;    0.000;-5.26667
 808.13;  -79.000;  -69.400;    0.000;-9.60000
 808.38;  -53.667;  -70.200;    0.000;16.53333
 808.63;  -40.200;  -78.867;    0.000;38.66667
 808.89;  -51.133;  -77.533;    0.000;26.40000
 809.14;  -52.467;  -78.000;    0.000;25.53333
 809.39;  -59.867;  -71.600;    0.000;11.73333
 809.65;  -64.667;  -59.800;    0.000;-4.86666
 809.90;  -61.067;  -57.000;    0.000;-4.06667
 810.15;  -39.667;  -86.600;    0.000;46.93333
 810.41;  -44.333;  -78.467;    0.000;34.13334
 810.66;  -48.800;  -68.533;    0.000;19.73333
 810.91;  -76.000;  -62.933;    0.000;-13.06667
 811.16;  -49.867;  -82.533;    0.000;32.66667
 811.42;  -65.000;  -70.533;    0.000; 5.53333
 811.67;  -67.467;  -66.733;    0.000;-0.73334
 811.92;  -51.600;  -86.133;    0.000;34.53333
 812.18;  -49.933;  -67.067;    0.000;17.13333
 812.43;  -73.267;  -87.867;    0.000;14.60000
 812.68;  -53.200;  -80.467;    0.000;27.26667
 812.93;  -41.067;  -75.067;    0.000;34.00000
 813.19;  -51.867;  -24.667;    0.000;-27.20000
 813.44;  -52.467;  -87.467;    0.000;35.00000
 813.69;  -55.667;  -67.867;    0.000;12.20000
 813.95;  -51.067;  -72.800;    0.000;21.73334
 814.20;  -45.733;  -64.267;    0.000;18.53334
 814.45;  -77.200;  -88.133;    0.000;10.93333
 814.70;  -66.800;  -73.733;    0.000; 6.93333
 814.96;  -61.533;  -85.400;    0.000;23.86667
 815.21;  -37.533;  -80.733;    0.000;43.20000
 815.46;  -65.533;  -80.333;    0.000;14.80000
 815.71;  -55.667;  -58.667;    0.000; 3.00000
 815.96;  -62.467;  -64.000;    0.000; 1.53333
 816.22;  -61.200;  -81.467;    0.000;20.26667
 816.47;  -56.200;  -70.733;    0.000;14.53333
 816.72;  -57.667;  -81.733;    0.000;24.06666
 816.97;  -53.667;  -61.333;    0.000; 7.66666
 817.23;  -36.933;  -71.600;    0.000;34.66666
 817.48;  -45.733;  -72.533;    0.000;26.80000
 817.73;  -34.533;  -74.467;    0.000;39.93333
 817.98;  -50.600;  -69.667;    0.000;19.06667
 818.23;  -53.467;  -54.667;    0.000; 1.20000
 818.49;  -45.800;  -83.600;    0.000;37.80000
 818.74;  -38.200;  -62.733;    0.000;24.53333
 818.99;  -52.200;  -89.667;    0.000;37.46666
 819.24;  -49.667;  -62.067;    0.000;12.40000
 819.50;  -50.000;  -71.600;    0.000;21.60000
 819.75;  -46.733;  -65.667;    0.000;18.93333
 820.00;  -28.333;  -59.067;    0.000;30.73333
 820.25;  -44.133;  -70.467;    0.000;26.33333
 820.50;  -57.000;  -83.933;    0.000;26.93333
 820.75;  -45.400;  -48.400;    0.000; 3.00000
 821.01;  -55.800;  -73.533;    0.000;17.73333
 821.26;  -38.800;  -70.133;    0.000;31.33333
 821.51;  -36.400;  -76.200;    0.000;39.80000
 821.76;  -36.600;  -92.000;    0.000;55.40000
 822.01;  -54.400;  -63.133;    0.000; 8.73333
 822.26;  -57.200;  -64.600;    0.000; 7.40000
 822.52;  -44.067;  -70.400;    0.000;26.33334
 822.77;  -74.067;  -69.733;    0.000;-4.33334
 823.02;  -52.200;  -64.267;    0.000;12.06667
 823.27;  -65.533;  -72.400;    0.000; 6.86667
 823.52;  -58.600;  -87.267;    0.000;28.66667
 823.77;  -72.667;  -66.067;    0.000;-6.60000
 824.03;  -35.400;  -56.733;    0.000;21.33333
 824.28;  -62.267;  -74.600;    0.000;12.33333
 824.53;  -48.467;  -67.933;    0.000;19.46667
 824.78;  -38.933;  -69.600;    0.000;30.66666
 825.03;  -65.400;  -83.533;    0.000;18.13333
 825.28;  -47.467;  -68.467;    0.000;21.00000
 825.53;  -56.000;  -68.867;    0.000;12.86667
 825.78;  -46.400;  -77.333;    0.000;30.93333
 826.04;  -53.333;  -91.467;    0.000;38.13334
 826.29;  -78.000;  -86.733;    0.000; 8.73333
 826.54;  -49.933;  -71.600;    0.000;21.66666
 826.79;  -37.000;  -63.733;    0.000;26.73333
 827.04;  -55.533;  -84.333;    0.000;28.80000
 827.29;  -58.533;  -56.933;    0.000;-1.60000
 827.54;  -40.533;  -52.867;    0.000;12.33333
 827.79;  -58.800;  -70.333;    0.000;11.53334
 828.04;  -29.600;  -62.933;    0.000;33.33333
 828.29;  -61.400;  -69.600;    0.000; 8.20000
 828.55;  -60.867;  -87.533;    0.000;26.66667
 828.80;  -55.867;  -68.333;    0.000;12.46667
 829.05;  -49.333;  -71.667;    0.000;22.33333
 829.30;  -72.467;  -83.333;    0.000;10.86667
 829.55;  -74.000;  -75.933;    0.000; 1.93333
 829.80;  -68.733;  -64.200;    0.000;-4.53333
 830.05;  -51.400;  -76.400;    0.000;25.00000
 830.30;  -61.933;  -73.067;    0.000;11.13333
 830.55;  -54.200;  -69.733;    0.000;15.53333
 830.80;  -73.533;  -86.867;    0.000;13.33334
 831.05;  -59.067;  -75.267;    0.000;16.20000
 831.30;  -58.200;  -59.467;    0.000; 1.26667
 831.55;  -54.133;  -70.867;    0.000;16.73333
 831.80;  -56.800;  -60.733;    0.000; 3.93333
 832.05;  -34.067;  -69.333;    0.000;35.26667
 832.30;  -37.533;  -57.267;    0.000;19.73333
 832.56;  -43.667; -102.267;    0.000;58.60000
 832.81;  -73.667;  -71.533;    0.000;-2.13333
 833.06;  -42.733;  -53.533;    0.000;10.80000
 833.31;  -63.400; -111.533;    0.000;48.13333
 833.56;  -70.667;  -66.267;    0.000;-4.39999
 833.81;  -54.867;  -89.600;    0.000;34.73333
 834.06;  -45.000;  -59.067;    0.000;14.06667
 834.31;  -67.467;  -80.667;    0.000;13.20000
 834.56;  -53.133;  -78.333;    0.000;25.20000
 834.81;  -82.133;  -62.800;    0.000;-19.33333
 835.06;  -42.933;  -76.800;    0.000;33.86667
 835.31;  -59.267;  -70.200;    0.000;10.93333
 835.56;  -57.200;  -61.333;    0.000; 4.13333
 835.81;  -62.200;  -74.400;    0.000;12.20000
 836.06;  -45.067;  -70.733;    0.000;25.66666
 836.31;  -54.933;  -75.733;    0.000;20.80000
 836.56;  -59.800;  -61.533;    0.000; 1.73333
 836.81;  -62.800;  -85.533;    0.000;22.73333
 837.06;  -50.867;  -67.867;    0.000;17.00000
 837.31;  -53.733;  -89.933;    0.000;36.20000
 837.56;  -69.467;  -90.000;    0.000;20.53333
 837.81;  -57.533;  -79.533;    0.000;22.00000
 838.06;  -43.267;  -71.533;    0.000;28.26667
 838.31;  -63.200;  -78.800;    0.000;15.60000
 838.56;  -71.200;  -87.600;    0.000;16.40000
 838.80;  -55.467;  -66.667;    0.000;11.20000
 839.05;  -62.467;  -74.467;    0.000;12.00000
 839.30;  -86.133;  -77.867;    0.000;-8.26666
 839.55;  -47.067;  -90.333;    0.000;43.26667
 839.80;  -57.067;  -77.133;    0.000;20.06667
 840.05;  -56.267;  -59.267;    0.000; 3.00000
 840.30;  -51.800;  -67.933;    0.000;16.13334
 840.55;  -50.267;  -76.133;    0.000;25.86666
 840.80;  -62.933;  -58.333;    0.000;-4.60000
 841.05;  -53.867;  -72.533;    0.000;18.66667
 841.30;  -50.467;  -85.533;    0.000;35.06667
 841.55;  -78.733;  -85.200;    0.000; 6.46667
 841.80;  -90.533;  -68.733;    0.000;-21.80000
 842.05;  -73.867;  -86.733;    0.000;12.86666
 842.30;  -82.133;  -84.200;    0.000; 2.06667
 842.55;  -48.467;  -53.200;    0.000; 4.73333
 842.79;  -53.533;  -88.600;    0.000;35.06667
 843.04;  -56.933;  -59.667;    0.000; 2.73333
 843.29;  -60.533;  -63.867;    0.000; 3.33333
 843.54;  -52.333;  -70.400;    0.000;18.06667
 843.79;  -67.867;  -78.200;    0.000;10.33333
 844.04;  -63.533;  -67.133;    0.000; 3.60000
 844.29;  -38.600;  -61.333;    0.000;22.73333
 844.54;  -61.133;  -72.067;    0.000;10.93333
 844.79;  -42.000;  -76.467;    0.000;34.46667
 845.04;  -44.933;  -74.200;    0.000;29.26666
 845.28;  -81.933;  -86.867;    0.000; 4.93333
 845.53;  -65.200;  -81.933;    0.000;16.73334
 845.78;  -55.400;  -61.400;    0.000; 6.00000
 846.03;  -86.667;  -65.400;    0.000;-21.26666
 846.28;  -72.533;  -75.400;    0.000; 2.86667
 846.53;  -64.467;  -60.333;    0.000;-4.13334
 846.78;  -62.600;  -72.400;    0.000; 9.80000
 847.02;  -42.333;  -75.400;    0.000;33.06667
 847.27;  -38.800;  -81.467;    0.000;42.66667
 847.52;  -47.933;  -89.867;    0.000;41.93333
 847.77;  -54.867;  -76.533;    0.000;21.66667
 848.02;  -65.400;  -92.067;    0.000;26.66666
 848.27;  -57.000;  -69.133;    0.000;12.13333
 848.52;  -67.067;  -87.733;    0.000;20.66666
 848.76;  -41.267;  -70.733;    0.000;29.46666
 849.01;  -64.000;  -71.533;    0.000; 7.53333
 849.26;  -64.533;  -81.667;    0.000;17.13333
 849.51;  -57.533;  -78.867;    0.000;21.33334
 849.76;  -75.733;  -80.067;    0.000; 4.33334
 850.01;  -75.000;  -86.267;    0.000;11.26667
 850.25;  -61.800;  -74.067;    0.000;12.26667
 850.50;  -61.533;  -73.533;    0.000;12.00000
 850.75;  -62.400;  -71.400;    0.000; 9.00000
 851.00;  -56.800;  -85.600;    0.000;28.80000
 851.25;  -48.733;  -72.333;    0.000;23.60000
 851.49;  -72.067;  -75.200;    0.000; 3.13333
 851.74;  -59.600;  -65.933;    0.000; 6.33334
 851.99;  -41.733;  -88.667;    0.000;46.93333
 852.24;  -69.933;  -57.333;    0.000;-12.60000
 852.49;  -56.600;  -90.000;    0.000;33.40000
 852.73;  -72.600;  -85.333;    0.000;12.73334
 852.98;  -68.000;  -84.133;    0.000;16.13333
 853.23;  -37.600;  -70.533;    0.000;32.93333
 853.48;  -75.533;  -68.067;    0.000;-7.46667
 853.73;  -66.800;  -81.467;    0.000;14.66666
 853.97;  -58.733;  -71.733;    0.000;13.00000
 854.22;  -71.867;  -76.867;    0.000; 5.00000
 854.47;  -75.400;  -81.467;    0.000; 6.06667
 854.72;  -60.267;  -51.200;    0.000;-9.06667
 854.96;  -38.800;  -77.600;    0.000;38.80000
 855.21;  -51.733;  -41.133;    0.000;-10.60000
 855.46;  -31.667;  -43.267;    0.000;11.60000
 855.71;  -63.200;  -74.067;    0.000;10.86666
 855.95;  -62.333;  -68.800;    0.000; 6.46667
 856.20;  -75.133;  -74.267;    0.000;-0.86666
 856.45;  -82.600;  -75.800;    0.000;-6.80000
 856.70;  -79.600;  -70.200;    0.000;-9.40000
 856.94;  -55.800;  -84.733;    0.000;28.93333
 857.19;  -47.467;  -60.533;    0.000;13.06667
 857.44;  -59.400;  -81.667;    0.000;22.26666
 857.69;  -68.800;  -57.800;    0.000;-11.00000
 857.93;  -62.467;  -75.133;    0.000;12.66666
 858.18;  -55.000;  -61.000;    0.000; 6.00000
 858.43;  -59.267;  -87.067;    0.000;27.80000
 858.67;  -48.067;  -57.133;    0.000; 9.06667
 858.92;  -65.467;  -69.667;    0.000; 4.20000
 859.17;  -50.000;  -38.067;    0.000;-11.93333
 859.42;  -74.600;  -86.667;    0.000;12.06667
 859.66;  -65.267;  -94.467;    0.000;29.20000
 859.91;  -61.667;  -87.200;    0.000;25.53333
 860.16;  -72.333;  -85.800;    0.000;13.46667
 860.40;  -79.867;  -62.867;    0.000;-17.00000
 860.65;  -73.400;  -78.800;    0.000; 5.40000
 860.90;  -59.267;  -75.267;    0.000;16.00000
 861.14;  -67.733;  -71.733;    0.000; 4.00000
 861.39;  -69.933;  -79.933;    0.000;10.00000
 861.64;  -70.533;  -79.067;    0.000; 8.53333
 861.88;  -50.600;  -71.200;    0.000;20.60000
 862.13;  -50.733;  -64.000;    0.000;13.26667
 862.38;  -76.933;  -97.267;    0.000;20.33334
 862.62;  -58.600;  -82.400;    0.000;23.80000
 862.87;  -47.267;  -74.133;    0.000;26.86666
 863.12;  -64.600;  -60.467;    0.000;-4.13333
 863.36;  -63.400;  -95.667;    0.000;32.26666
 863.61;  -79.200;  -74.333;    0.000;-4.86666
 863.86;  -61.400;  -88.600;    0.000;27.20000
 864.10;  -77.333;  -80.733;    0.000; 3.39999
 864.35;  -54.733;  -83.067;    0.000;28.33333
 864.60;  -53.400;  -73.067;    0.000;19.66666
 864.84;  -70.000;  -63.667;    0.000;-6.33333
 865.09;  -73.267;  -83.133;    0.000; 9.86666
 865.33;  -69.800;  -63.133;    0.000;-6.66667
 865.58;  -42.933;  -73.467;    0.000;30.53333
 865.83;  -74.067;  -67.333;    0.000;-6.73333
 866.07;  -83.867;  -83.133;    0.000;-0.73334
 866.32;  -36.933;  -46.800;    0.000; 9.86666
 866.57;  -76.000;  -50.000;    0.000;-26.00000
 866.81;  -77.200;  -63.133;    0.000;-14.06666
 867.06;  -76.200;  -92.933;    0.000;16.73334
 867.30;  -66.733; -100.800;    0.000;34.06667
 867.55;  -82.933;  -64.267;    0.000;-18.66666
 867.80;  -68.533;  -80.067;    0.000;11.53333
 868.04;  -64.267;  -71.933;    0.000; 7.66666
 868.29;  -74.000;  -74.400;    0.000; 0.40000
 868.53;  -63.267;  -89.933;    0.000;26.66667
 868.78;  -53.600;  -63.267;    0.000; 9.66667
 869.03;  -58.867;  -58.933;    0.000; 0.06667
 869.27;  -73.200;  -77.333;    0.000; 4.13334
 869.52;  -63.267;  -63.800;    0.000; 0.53333
 869.76;  -71.000;  -69.533;    0.000;-1.46667
 870.01;  -58.400;  -65.733;    0.000; 7.33333
 870.25;  -45.600;  -58.133;    0.000;12.53334
 870.50;  -63.467;  -69.067;    0.000; 5.60000
 870.75;  -73.733;  -86.600;    0.000;12.86667
 870.99;  -61.733;  -66.133;    0.000; 4.40000
 871.24;  -43.733;  -61.267;    0.000;17.53333
 871.48;  -51.933;  -73.533;    0.000;21.60000
 871.73;  -67.067;  -60.133;    0.000;-6.93333
 871.97;  -76.733;  -95.400;    0.000;18.66667
 872.22;  -67.867;  -61.200;    0.000;-6.66667
 872.46;  -61.800;  -75.933;    0.000;14.13334
 872.71;  -65.000;  -91.600;    0.000;26.60000
 872.95;  -49.333;  -66.800;    0.000;17.46667
 873.20;  -81.933;  -71.400;    0.000;-10.53333
 873.44;  -62.467;  -48.267;    0.000;-14.20000
 873.69;  -74.400;  -72.000;    0.000;-2.40000
 873.94;  -46.467;  -80.600;    0.000;34.13333
 874.18;  -65.067;  -71.867;    0.000; 6.80000
 874.43;  -74.200;  -52.733;    0.000;-21.46666
 874.67;  -50.867;  -70.333;    0.000;19.46667
 874.92;  -40.067;  -58.200;    0.000;18.13334
 875.16;  -66.000;  -77.933;    0.000;11.93333
 875.41;  -76.000;  -67.400;    0.000;-8.60000
 875.65;  -41.533;  -62.867;    0.000;21.33333
 875.90;  -69.800;  -51.067;    0.000;-18.73334
 876.14;  -83.867;  -94.333;    0.000;10.46667
 876.39;  -67.333;  -78.867;    0.000;11.53333
 876.63;  -52.667;  -60.867;    0.000; 8.20000
 876.88;  -60.733;  -54.467;    0.000;-6.26667
 877.12;  -57.733;  -64.933;    0.000; 7.20000
 877.36;  -76.467;  -68.333;    0.000;-8.13333
 877.61;  -62.733;  -81.000;    0.000;18.26667
 877.85;  -47.800;  -50.933;    0.000; 3.13334
 878.10;  -50.933;  -65.400;    0.000;14.46667
 878.34;  -45.867;  -51.133;    0.000; 5.26667
 878.59;  -49.200;  -72.400;    0.000;23.20000
 878.83;  -59.067;  -71.400;    0.000;12.33334
 879.08;  -62.800;  -68.267;    0.000; 5.46667
 879.32;  -63.467;  -73.800;    0.000;10.33334
 879.57;  -46.467;  -63.333;    0.000;16.86666
 879.81;  -64.067;  -62.267;    0.000;-1.80000
 880.05;  -39.733;  -43.733;    0.000; 4.00000
 880.30;  -65.267;  -63.733;    0.000;-1.53334
 880.54;  -55.267;  -67.067;    0.000;11.80000
 880.79;  -61.800;  -80.867;    0.000;19.06667
 881.03;  -73.600;  -50.667;    0.000;-22.93333
 881.28;  -52.867;  -65.067;    0.000;12.20000
 881.52;  -55.200;  -70.267;    0.000;15.06667
 881.76;  -64.733;  -58.333;    0.000;-6.40000
 882.01;  -47.400;  -68.600;    0.000;21.20000
 882.25;  -63.267;  -60.467;    0.000;-2.80000
 882.50;  -58.933;  -83.800;    0.000;24.86667
 882.74;  -53.267;  -74.200;    0.000;20.93333
 882.98;  -44.000;  -63.067;    0.000;19.06667
 883.23;  -48.733;  -51.800;    0.000; 3.06667
 883.47;  -53.533;  -83.067;    0.000;29.53333
 883.72;  -45.533;  -49.800;    0.000; 4.26667
 883.96;  -60.600;  -82.000;    0.000;21.40000
 884.20;  -28.133;  -58.733;    0.000;30.60000
 884.45;  -46.933;  -49.933;    0.000; 3.00000
 884.69;  -59.467;  -55.733;    0.000;-3.73333
 884.94;   -8.333;  -39.267;    0.000;30.93333
 885.18;  -56.067;  -80.733;    0.000;24.66666
 885.42;  -47.467;  -70.333;    0.000;22.86667
 885.67;  -53.333;  -76.467;    0.000;23.13334
 885.91;  -72.667;  -86.933;    0.000;14.26667
 886.15;  -65.400;  -58.533;    0.000;-6.86667
 886.40;  -31.133;  -43.733;    0.000;12.60000
 886.64;  -62.000;  -75.133;    0.000;13.13333
 886.88;  -69.400;  -73.800;    0.000; 4.40000
 887.13;  -42.067;  -38.000;    0.000;-4.06667
 887.37;  -49.867;  -62.200;    0.000;12.33334
 887.62;  -30.333;  -59.600;    0.000;29.26666
 887.86;  -41.933;  -69.067;    0.000;27.13333
 888.10;  -40.267;  -49.933;    0.000; 9.66667
 888.35;  -55.000;  -47.400;    0.000;-7.60000
 888.59;  -46.467;  -45.133;    0.000;-1.33333
 888.83;  -36.533;  -50.867;    0.000;14.33333
 889.07;  -45.267;  -48.400;    0.000; 3.13334
 889.32;  -45.733;  -79.267;    0.000;33.53334
 889.56;  -40.733;  -60.933;    0.000;20.20000
 889.80;  -35.533;  -58.933;    0.000;23.40000
 890.05;  -54.333;  -58.600;    0.000; 4.26667
 890.29;  -42.733;  -53.867;    0.000;11.13333
 890.53;  -30.733;  -65.267;    0.000;34.53334
 890.78;  -30.000;  -63.667;    0.000;33.66667
 891.02;  -34.733;  -57.667;    0.000;22.93333
 891.26;  -50.733;  -77.400;    0.000;26.66667
 891.51;  -41.000;  -58.267;    0.000;17.26667
 891.75;  -48.067;  -39.000;    0.000;-9.06667
 891.99;  -39.200;  -59.200;    0.000;20.00000
 892.23;  -41.733;  -64.467;    0.000;22.73333
 892.48;  -38.933;  -37.800;    0.000;-1.13334
 892.72;  -43.867;  -51.467;    0.000; 7.60000
 892.96;  -37.067;  -30.000;    0.000;-7.06667
 893.20;  -50.667;  -45.867;    0.000;-4.80000
 893.45;  -53.333;  -49.400;    0.000;-3.93333
 893.69;  -43.200;  -49.400;    0.000; 6.20000
 893.93;  -46.400;  -34.400;    0.000;-12.00000
 894.17;  -47.600;  -40.400;    0.000;-7.20000
 894.42;  -55.333;  -47.600;    0.000;-7.73333
 894.66;  -30.467;  -43.067;    0.000;12.60000
 894.90;  -29.000;  -56.267;    0.000;27.26667
 895.14;  -32.933;  -27.200;    0.000;-5.73333
 895.39;  -34.600;  -47.267;    0.000;12.66667
 895.63;  -26.533;  -31.600;    0.000; 5.06667
 895.87;  -56.400;  -22.000;    0.000;-34.40000
 896.11;  -23.667;  -50.533;    0.000;26.86667
 896.36;  -24.933;  -47.333;    0.000;22.40000
 896.60;  -37.067;  -46.933;    0.000; 9.86667
 896.84;    3.267;  -11.200;    0.000;14.46667
 897.08;  -20.000;  -20.133;    0.000; 0.13333
 897.32;  -39.267;  -21.733;    0.000;-17.53333
 897.57;   -7.800;  -10.467;    0.000; 2.66667
 897.81;  -27.267;  -28.467;    0.000; 1.20000
 898.05;  -22.533;  -29.467;    0.000; 6.93333
 898.29;  -24.533;    1.067;    0.000;-25.60000
 898.53;   -5.200;  -28.600;    0.000;23.40000
 898.78;    5.067;   -6.667;    0.000;11.73333
 899.02;  -12.800;  -13.933;    0.000; 1.13333
 899.26;   -2.267;    3.933;    0.000;-6.20000
 899.50;   19.600;   28.600;    0.000;-9.00000
 899.74;    2.800;    1.067;    0.000; 1.73333
 899.99;   11.800;   -0.133;    0.000;11.93333
 900.23;   31.933;    9.000;    0.000;22.93333
 900.47;   32.800;   29.733;    0.000; 3.06667
 900.71;   42.267;   20.800;    0.000;21.46667
 900.95;   26.867;   40.533;    0.000;-13.66667
 901.19;   53.867;   60.733;    0.000;-6.86667
 901.44;   52.133;   33.933;    0.000;18.20000
 901.68;   90.800;   70.600;    0.000;20.20000
 901.92;   80.400;  100.133;    0.000;-19.73333
 902.16;  103.333;  102.200;    0.000; 1.13334
 902.40;  111.867;  106.800;    0.000; 5.06667
 902.64;  127.267;  130.600;    0.000;-3.33334
 902.88;  163.467;  171.533;    0.000;-8.06668
 903.13;  184.600;  185.200;    0.000;-0.59999

