point2
Integration time [ms]:  30.000
Averaging Nr. [scans]: 15
Smoothing Nr. [pixels]: 0
Data measured with spectrometer [name]: 1307077U2
Wave   ;Sample   ;Dark     ;Reference;Scope Corrected for Dark
[nm]   ;[counts] ;[counts] ;[counts] 

 350.80;   -3.067;  -10.667;    0.000; 7.60000
 351.10;   10.600;   -8.067;    0.000;18.66667
 351.39;   37.667;   26.067;    0.000;11.60000
 351.69;  -21.533;   -3.733;    0.000;-17.80000
 351.99;  -20.133;   -3.067;    0.000;-17.06667
 352.28;  -14.067;  -15.133;    0.000; 1.06667
 352.58;    4.800;  -14.067;    0.000;18.86667
 352.88;    9.133;  -14.133;    0.000;23.26667
 353.17;   14.333;   14.200;    0.000; 0.13333
 353.47;   -0.067;  -16.667;    0.000;16.60000
 353.76;   13.133;  -10.600;    0.000;23.73333
 354.06;   -2.200;  -14.867;    0.000;12.66667
 354.36;    7.733;   -5.800;    0.000;13.53333
 354.65;   15.067;   14.067;    0.000; 1.00000
 354.95;    4.867;   -1.600;    0.000; 6.46667
 355.24;   -0.267;  -15.667;    0.000;15.40000
 355.54;   13.733;   -5.000;    0.000;18.73333
 355.84;    9.133;   -6.600;    0.000;15.73333
 356.13;   33.867;   12.733;    0.000;21.13333
 356.43;  -12.733;  -19.667;    0.000; 6.93333
 356.72;   -2.533;  -21.133;    0.000;18.60000
 357.02;   10.600;    2.133;    0.000; 8.46667
 357.31;   22.400;    4.667;    0.000;17.73333
 357.61;   11.800;    0.200;    0.000;11.60000
 357.91;  -19.867;  -11.800;    0.000;-8.06667
 358.20;  -19.067;   -3.400;    0.000;-15.66667
 358.50;   -3.533;  -28.600;    0.000;25.06667
 358.79;   -2.467;    9.933;    0.000;-12.40000
 359.09;    4.867;   10.067;    0.000;-5.20000
 359.38;    7.600;   -0.600;    0.000; 8.20000
 359.68;  -16.800;  -34.933;    0.000;18.13334
 359.98;    0.667;   -6.533;    0.000; 7.20000
 360.27;    5.200;    3.667;    0.000; 1.53333
 360.57;  -19.267;    7.267;    0.000;-26.53333
 360.86;   14.600;  -18.067;    0.000;32.66667
 361.16;   -9.733;  -31.667;    0.000;21.93333
 361.45;    5.200;   -6.333;    0.000;11.53333
 361.75;  -14.733;  -27.533;    0.000;12.80000
 362.04;   26.400;   17.200;    0.000; 9.20000
 362.34;  -10.333;   -6.667;    0.000;-3.66667
 362.64;    1.867;    2.267;    0.000;-0.40000
 362.93;   -9.867;    0.600;    0.000;-10.46667
 363.23;   -1.667;  -25.467;    0.000;23.80000
 363.52;  -17.467;  -21.333;    0.000; 3.86667
 363.82;   17.400;  -17.933;    0.000;35.33333
 364.11;    7.600;  -12.867;    0.000;20.46667
 364.41;    3.133;  -22.067;    0.000;25.20000
 364.70;   -9.400;    3.333;    0.000;-12.73333
 365.00;   10.800;  -18.133;    0.000;28.93333
 365.29;   -5.733;  -21.267;    0.000;15.53333
 365.59;  -12.067;  -18.800;    0.000; 6.73333
 365.88;  -19.200;  -11.133;    0.000;-8.06667
 366.18;    2.333;   -9.533;    0.000;11.86667
 366.47;   -6.533;  -19.333;    0.000;12.80000
 366.77;   -3.600;  -15.067;    0.000;11.46667
 367.06;  -20.533;  -14.133;    0.000;-6.40000
 367.36;   10.733;    0.467;    0.000;10.26667
 367.65;   -6.067;   -4.733;    0.000;-1.33333
 367.95;   -4.067;  -20.400;    0.000;16.33333
 368.24;   -7.800;    2.467;    0.000;-10.26667
 368.54;  -18.400;  -22.867;    0.000; 4.46667
 368.83;   28.533;   11.067;    0.000;17.46667
 369.13;   14.600;    1.133;    0.000;13.46667
 369.42;   -8.333;  -12.000;    0.000; 3.66667
 369.72;    9.333;    6.800;    0.000; 2.53333
 370.01;   -3.000;   -6.733;    0.000; 3.73333
 370.31;   19.533;   -5.067;    0.000;24.60000
 370.60;   28.800;   28.667;    0.000; 0.13333
 370.90;   -8.733;  -16.200;    0.000; 7.46667
 371.19;   -6.600;  -13.867;    0.000; 7.26667
 371.49;  -10.933;  -27.000;    0.000;16.06667
 371.78;    0.800;  -13.800;    0.000;14.60000
 372.08;    1.067;  -15.333;    0.000;16.40000
 372.37;   -5.933;    3.200;    0.000;-9.13333
 372.67;    0.333;   -0.533;    0.000; 0.86667
 372.96;   18.000;  -21.667;    0.000;39.66667
 373.26;  -24.933;  -18.467;    0.000;-6.46667
 373.55;   -7.333;   -9.867;    0.000; 2.53333
 373.85;  -16.200;   -1.933;    0.000;-14.26667
 374.14;   20.400;    3.333;    0.000;17.06667
 374.43;  -12.333;  -28.533;    0.000;16.20000
 374.73;   -9.400;  -17.400;    0.000; 8.00000
 375.02;   10.600;    6.933;    0.000; 3.66667
 375.32;   -7.333;  -13.000;    0.000; 5.66667
 375.61;   -0.533;  -28.133;    0.000;27.60000
 375.91;    0.533;   -3.067;    0.000; 3.60000
 376.20;  -23.333;  -32.933;    0.000; 9.60000
 376.50;   -6.600;  -31.933;    0.000;25.33333
 376.79;  -45.467;  -14.400;    0.000;-31.06667
 377.08;  -32.200;  -19.400;    0.000;-12.80000
 377.38;   -5.467;  -25.333;    0.000;19.86667
 377.67;  -10.333;  -22.733;    0.000;12.40000
 377.97;  -17.333;  -36.200;    0.000;18.86667
 378.26;   -8.667;    7.000;    0.000;-15.66667
 378.56;  -27.400;  -28.000;    0.000; 0.60000
 378.85;   -5.200;   -7.867;    0.000; 2.66667
 379.14;  -27.400;  -26.200;    0.000;-1.20000
 379.44;  -19.000;    1.600;    0.000;-20.60000
 379.73;   -8.333;   -8.333;    0.000; 0.00000
 380.03;   13.333;   -5.000;    0.000;18.33333
 380.32;   20.600;  -14.000;    0.000;34.60000
 380.62;  -17.267;    4.000;    0.000;-21.26667
 380.91;   -5.800;   -8.933;    0.000; 3.13333
 381.20;    3.533;    1.133;    0.000; 2.40000
 381.50;  -16.867;  -19.467;    0.000; 2.60000
 381.79;  -14.133;  -13.600;    0.000;-0.53333
 382.09;   -9.800;  -21.400;    0.000;11.60000
 382.38;  -30.933;    8.867;    0.000;-39.80000
 382.67;  -12.133;  -24.733;    0.000;12.60000
 382.97;   -3.467;  -13.200;    0.000; 9.73333
 383.26;  -11.867;    3.467;    0.000;-15.33333
 383.56;  -10.800;   -0.267;    0.000;-10.53333
 383.85;   -4.200;  -25.267;    0.000;21.06667
 384.14;  -15.200;   20.000;    0.000;-35.20000
 384.44;  -14.733;  -19.600;    0.000; 4.86667
 384.73;  -24.333;  -17.200;    0.000;-7.13333
 385.02;   13.600;  -20.200;    0.000;33.80000
 385.32;    5.933;  -14.933;    0.000;20.86667
 385.61;   -6.067;  -26.667;    0.000;20.60000
 385.91;    8.333;   -2.333;    0.000;10.66667
 386.20;  -26.333;  -23.533;    0.000;-2.80000
 386.49;  -22.667;  -21.800;    0.000;-0.86667
 386.79;   -6.400;  -18.800;    0.000;12.40000
 387.08;   -4.467;  -15.467;    0.000;11.00000
 387.37;   -0.733;  -16.733;    0.000;16.00000
 387.67;  -10.467;  -18.667;    0.000; 8.20000
 387.96;  -23.600;  -20.533;    0.000;-3.06667
 388.25;    1.467;   18.467;    0.000;-17.00000
 388.55;  -12.800;  -22.933;    0.000;10.13333
 388.84;   -4.933;  -23.867;    0.000;18.93333
 389.14;   -8.933;  -27.800;    0.000;18.86667
 389.43;   10.267;   -8.267;    0.000;18.53333
 389.72;  -17.733;  -30.867;    0.000;13.13333
 390.02;  -17.267;   -6.533;    0.000;-10.73333
 390.31;    2.467;  -15.667;    0.000;18.13333
 390.60;   -4.333;  -17.267;    0.000;12.93333
 390.90;   -5.133;  -27.867;    0.000;22.73333
 391.19;   -3.400;   -2.933;    0.000;-0.46667
 391.48;   -3.467;   -2.333;    0.000;-1.13333
 391.78;   -8.733;   -2.867;    0.000;-5.86667
 392.07;   45.200;   34.933;    0.000;10.26667
 392.36;   17.333;   -3.400;    0.000;20.73333
 392.66;    1.067;  -14.733;    0.000;15.80000
 392.95;  -12.133;  -17.867;    0.000; 5.73333
 393.24;  -39.667;  -34.867;    0.000;-4.80000
 393.53;  -16.867;   -1.600;    0.000;-15.26667
 393.83;  -17.533;  -34.933;    0.000;17.40000
 394.12;  -21.067;   -8.600;    0.000;-12.46667
 394.41;   -2.200;  -29.600;    0.000;27.40000
 394.71;   -8.133;   -6.600;    0.000;-1.53333
 395.00;   -6.733;  -28.000;    0.000;21.26667
 395.29;   -1.000;   -1.800;    0.000; 0.80000
 395.59;   -8.133;  -28.533;    0.000;20.40000
 395.88;  -15.933;  -21.267;    0.000; 5.33333
 396.17;  -13.600;  -20.067;    0.000; 6.46667
 396.46;   12.133;    5.867;    0.000; 6.26667
 396.76;  -12.600;  -37.933;    0.000;25.33333
 397.05;   18.400;   10.333;    0.000; 8.06667
 397.34;  -21.467;  -40.800;    0.000;19.33333
 397.64;  -16.067;   -8.133;    0.000;-7.93333
 397.93;  -17.933;  -30.533;    0.000;12.60000
 398.22;  -31.000;  -32.133;    0.000; 1.13334
 398.51;    7.133;  -13.467;    0.000;20.60000
 398.81;   -5.533;   -3.000;    0.000;-2.53333
 399.10;   -7.000;   -8.800;    0.000; 1.80000
 399.39;    7.133;   -8.067;    0.000;15.20000
 399.69;   -5.400;   -5.067;    0.000;-0.33333
 399.98;  -11.600;    1.200;    0.000;-12.80000
 400.27;  -12.600;  -36.133;    0.000;23.53333
 400.56;  -25.600;   -8.467;    0.000;-17.13333
 400.86;   -9.333;  -19.333;    0.000;10.00000
 401.15;    0.267;  -11.067;    0.000;11.33333
 401.44;   -9.533;  -40.467;    0.000;30.93333
 401.73;    3.667;    0.133;    0.000; 3.53333
 402.03;    7.467;   -9.000;    0.000;16.46667
 402.32;  -37.000;  -26.933;    0.000;-10.06667
 402.61;  -23.667;   -7.467;    0.000;-16.20000
 402.90;  -34.733;  -32.067;    0.000;-2.66667
 403.20;   -1.600;    2.933;    0.000;-4.53333
 403.49;    8.867;  -12.067;    0.000;20.93333
 403.78;    4.933;  -33.600;    0.000;38.53333
 404.07;    1.533;  -20.400;    0.000;21.93333
 404.37;   -6.733;  -10.867;    0.000; 4.13333
 404.66;  -10.800;    6.467;    0.000;-17.26667
 404.95;  -12.533;   -8.400;    0.000;-4.13333
 405.24;  -35.133;   -6.800;    0.000;-28.33333
 405.53;   -9.333;  -17.333;    0.000; 8.00000
 405.83;   12.867;    1.600;    0.000;11.26667
 406.12;  -15.467;  -21.133;    0.000; 5.66667
 406.41;    3.200;   15.533;    0.000;-12.33333
 406.70;  -11.200;  -22.467;    0.000;11.26667
 407.00;    3.067;    5.067;    0.000;-2.00000
 407.29;  -13.200;  -20.000;    0.000; 6.80000
 407.58;  -11.867;  -19.000;    0.000; 7.13333
 407.87;  -11.400;  -29.333;    0.000;17.93333
 408.16;  -21.467;  -21.400;    0.000;-0.06667
 408.46;  -25.200;  -36.867;    0.000;11.66666
 408.75;  -19.133;  -28.667;    0.000; 9.53333
 409.04;   -8.800;  -29.733;    0.000;20.93333
 409.33;   -6.400;  -13.533;    0.000; 7.13333
 409.62;   -6.600;    2.267;    0.000;-8.86667
 409.92;  -12.067;  -16.000;    0.000; 3.93333
 410.21;  -18.600;  -34.867;    0.000;16.26666
 410.50;  -22.000;  -19.000;    0.000;-3.00000
 410.79;    2.400;   -0.933;    0.000; 3.33333
 411.08;  -17.000;  -12.267;    0.000;-4.73333
 411.37;  -19.400;  -24.400;    0.000; 5.00000
 411.67;  -14.333;  -24.667;    0.000;10.33333
 411.96;    0.400;  -21.533;    0.000;21.93333
 412.25;  -14.267;  -11.000;    0.000;-3.26667
 412.54;  -15.933;  -18.200;    0.000; 2.26667
 412.83;  -15.533;  -14.667;    0.000;-0.86667
 413.13;   -8.467;  -19.400;    0.000;10.93333
 413.42;  -21.533;  -18.667;    0.000;-2.86667
 413.71;   -7.867;  -21.000;    0.000;13.13333
 414.00;  -20.467;  -32.467;    0.000;12.00000
 414.29;   -1.000;  -19.867;    0.000;18.86667
 414.58;  -23.267;  -29.867;    0.000; 6.60000
 414.87;  -17.200;  -40.667;    0.000;23.46667
 415.17;  -10.867;  -30.333;    0.000;19.46667
 415.46;   -7.600;  -29.000;    0.000;21.40000
 415.75;  -11.933;   -8.733;    0.000;-3.20000
 416.04;  -12.933;  -10.400;    0.000;-2.53333
 416.33;   -8.800;  -15.933;    0.000; 7.13333
 416.62;   -3.667;  -25.867;    0.000;22.20000
 416.91;  -14.267;   14.667;    0.000;-28.93333
 417.21;  -19.400;  -36.667;    0.000;17.26667
 417.50;  -17.267;  -42.533;    0.000;25.26667
 417.79;   -8.067;  -17.800;    0.000; 9.73333
 418.08;  -28.000;   -5.933;    0.000;-22.06667
 418.37;  -31.800;  -20.867;    0.000;-10.93333
 418.66;  -15.467;  -16.133;    0.000; 0.66667
 418.95;   12.933;  -16.733;    0.000;29.66667
 419.24;  -30.667;  -30.933;    0.000; 0.26667
 419.54;    0.733;  -19.600;    0.000;20.33333
 419.83;    0.333;  -17.600;    0.000;17.93333
 420.12;  -18.467;  -29.933;    0.000;11.46667
 420.41;   29.533;   17.667;    0.000;11.86667
 420.70;  -16.133;  -33.733;    0.000;17.60000
 420.99;  -11.600;   -4.667;    0.000;-6.93333
 421.28;  -30.333;  -20.067;    0.000;-10.26667
 421.57;    1.267;   -5.067;    0.000; 6.33333
 421.86;   15.000;    1.267;    0.000;13.73333
 422.16;    2.933;  -14.000;    0.000;16.93333
 422.45;   -0.333;  -40.467;    0.000;40.13333
 422.74;   -6.467;  -16.867;    0.000;10.40000
 423.03;  -14.800;  -15.133;    0.000; 0.33333
 423.32;   -9.533;  -11.533;    0.000; 2.00000
 423.61;   -3.267;  -12.733;    0.000; 9.46667
 423.90;  -11.000;  -27.000;    0.000;16.00000
 424.19;   35.000;   27.933;    0.000; 7.06667
 424.48;  -16.400;  -15.733;    0.000;-0.66667
 424.77;   -8.933;  -11.533;    0.000; 2.60000
 425.06;    5.733;    0.400;    0.000; 5.33333
 425.35;  -10.400;   -3.200;    0.000;-7.20000
 425.65;  -22.133;  -21.733;    0.000;-0.40000
 425.94;   -7.267;  -35.067;    0.000;27.80000
 426.23;  -18.267;  -37.200;    0.000;18.93333
 426.52;  -23.133;  -32.333;    0.000; 9.20000
 426.81;   25.800;   30.267;    0.000;-4.46667
 427.10;  -12.867;  -34.267;    0.000;21.40000
 427.39;  -23.733;  -18.133;    0.000;-5.60000
 427.68;  -17.333;  -21.067;    0.000; 3.73333
 427.97;  -11.333;    5.667;    0.000;-17.00000
 428.26;  -24.600;  -31.667;    0.000; 7.06667
 428.55;   -1.200;   -6.133;    0.000; 4.93333
 428.84;  -13.333;   -9.933;    0.000;-3.40000
 429.13;  -21.667;  -28.067;    0.000; 6.40000
 429.42;   15.467;  -16.867;    0.000;32.33333
 429.71;   -7.800;  -20.600;    0.000;12.80000
 430.00;    2.533;   -8.267;    0.000;10.80000
 430.29;  -25.867;  -40.733;    0.000;14.86667
 430.58;   -3.600;  -24.933;    0.000;21.33333
 430.87;  -11.733;  -30.667;    0.000;18.93333
 431.16;  -27.400;  -11.200;    0.000;-16.20000
 431.46;   19.067;  -15.733;    0.000;34.80000
 431.75;  -13.733;  -28.133;    0.000;14.40000
 432.04;   -1.400;  -15.867;    0.000;14.46667
 432.33;  -22.733;  -12.800;    0.000;-9.93333
 432.62;   -4.867;  -21.933;    0.000;17.06667
 432.91;  -19.267;  -26.333;    0.000; 7.06667
 433.20;  -15.533;  -20.867;    0.000; 5.33333
 433.49;  -17.400;  -45.733;    0.000;28.33333
 433.78;  -18.133;  -30.000;    0.000;11.86667
 434.07;   -2.867;  -22.133;    0.000;19.26667
 434.36;  -17.333;  -20.933;    0.000; 3.60000
 434.65;  -30.467;  -26.733;    0.000;-3.73333
 434.94;  -15.933;  -41.800;    0.000;25.86667
 435.23;    4.533;  -13.067;    0.000;17.60000
 435.52;  -14.733;   -6.467;    0.000;-8.26667
 435.81;   -9.867;  -18.200;    0.000; 8.33333
 436.10;   -1.867;  -25.267;    0.000;23.40000
 436.39;   21.133;  -15.267;    0.000;36.40000
 436.68;    1.000;  -22.333;    0.000;23.33333
 436.97;  -10.867;  -24.333;    0.000;13.46667
 437.26;  -16.733;   -8.200;    0.000;-8.53333
 437.55;    8.733;  -33.800;    0.000;42.53333
 437.83;  -33.267;  -24.733;    0.000;-8.53333
 438.12;  -23.333;  -37.200;    0.000;13.86667
 438.41;   -5.667;  -15.267;    0.000; 9.60000
 438.70;   20.333;   23.600;    0.000;-3.26667
 438.99;   20.267;   -2.933;    0.000;23.20000
 439.28;  -16.267;  -22.600;    0.000; 6.33333
 439.57;  -11.800;  -18.667;    0.000; 6.86667
 439.86;  -18.267;  -32.467;    0.000;14.20000
 440.15;   -0.400;   -6.933;    0.000; 6.53333
 440.44;  -18.400;  -29.667;    0.000;11.26667
 440.73;  -11.733;  -41.400;    0.000;29.66667
 441.02;   -6.867;  -29.800;    0.000;22.93333
 441.31;   -1.133;  -15.733;    0.000;14.60000
 441.60;  -10.667;  -20.667;    0.000;10.00000
 441.89;  -44.067;  -26.867;    0.000;-17.20000
 442.18;  -17.267;  -16.800;    0.000;-0.46667
 442.47;    2.467;  -13.200;    0.000;15.66667
 442.76;  -24.667;  -26.667;    0.000; 2.00000
 443.05;    2.400;  -11.400;    0.000;13.80000
 443.34;   -8.600;  -25.333;    0.000;16.73333
 443.63;  -23.000;  -34.067;    0.000;11.06667
 443.91;   -5.467;  -28.533;    0.000;23.06667
 444.20;  -11.667;  -36.600;    0.000;24.93333
 444.49;  -24.733;  -36.200;    0.000;11.46667
 444.78;  -19.933;    1.933;    0.000;-21.86667
 445.07;    8.133;  -20.067;    0.000;28.20000
 445.36;  -24.067;  -35.800;    0.000;11.73333
 445.65;  -20.600;  -16.267;    0.000;-4.33333
 445.94;   -5.800;  -21.400;    0.000;15.60000
 446.23;  -10.667;  -38.067;    0.000;27.40000
 446.52;   -0.733;   -5.467;    0.000; 4.73333
 446.81;  -23.800;  -17.400;    0.000;-6.40000
 447.10;  -37.133;  -19.533;    0.000;-17.60000
 447.38;  -22.733;  -38.600;    0.000;15.86666
 447.67;  -24.133;  -50.000;    0.000;25.86667
 447.96;  -34.667;  -49.267;    0.000;14.60000
 448.25;  -13.533;  -11.933;    0.000;-1.60000
 448.54;   80.933;   81.200;    0.000;-0.26666
 448.83;  -11.600;  -28.067;    0.000;16.46667
 449.12;  -16.600;  -47.133;    0.000;30.53333
 449.41;   -3.467;  -25.467;    0.000;22.00000
 449.70;  -18.267;  -39.867;    0.000;21.60000
 449.98;  -32.933;  -28.800;    0.000;-4.13334
 450.27;  -21.200;  -24.600;    0.000; 3.40000
 450.56;  -21.933;  -23.733;    0.000; 1.80000
 450.85;  -10.667;  -14.533;    0.000; 3.86667
 451.14;  -30.267;  -27.867;    0.000;-2.40000
 451.43;  -32.733;  -44.133;    0.000;11.40000
 451.72;  -34.067;  -29.800;    0.000;-4.26667
 452.01;   -1.067;  -25.533;    0.000;24.46667
 452.29;  -24.933;  -27.533;    0.000; 2.60000
 452.58;  -20.733;  -35.333;    0.000;14.60000
 452.87;  -11.800;  -17.133;    0.000; 5.33333
 453.16;  -15.733;  -26.533;    0.000;10.80000
 453.45;   -4.667;   -0.200;    0.000;-4.46667
 453.74;  -10.800;  -14.467;    0.000; 3.66667
 454.03;   -6.133;  -18.267;    0.000;12.13333
 454.31;  -22.467;  -32.933;    0.000;10.46667
 454.60;  -34.600;  -23.133;    0.000;-11.46667
 454.89;   12.000;  -17.333;    0.000;29.33333
 455.18;  -19.267;  -21.933;    0.000; 2.66667
 455.47;  -38.400;  -49.200;    0.000;10.80000
 455.76;  -17.400;  -17.267;    0.000;-0.13333
 456.04;   -7.067;  -30.333;    0.000;23.26667
 456.33;  -22.133;  -26.533;    0.000; 4.40000
 456.62;  -32.933;  -24.867;    0.000;-8.06667
 456.91;   -4.933;  -47.000;    0.000;42.06667
 457.20;    4.933;  -13.333;    0.000;18.26667
 457.49;  -25.267;  -22.933;    0.000;-2.33333
 457.77;  -26.533;  -28.667;    0.000; 2.13333
 458.06;   -1.467;  -19.333;    0.000;17.86667
 458.35;  -30.000;  -35.133;    0.000; 5.13334
 458.64;  -16.800;  -13.733;    0.000;-3.06667
 458.93;  -24.400;  -33.933;    0.000; 9.53333
 459.21;  -25.733;  -45.267;    0.000;19.53333
 459.50;  -13.067;  -24.333;    0.000;11.26667
 459.79;  -20.800;  -36.400;    0.000;15.60000
 460.08;   -7.400;  -42.400;    0.000;35.00000
 460.37;   -8.200;  -24.333;    0.000;16.13333
 460.65;   -7.400;  -26.333;    0.000;18.93333
 460.94;  -20.933;  -36.333;    0.000;15.40000
 461.23;  -14.800;  -32.533;    0.000;17.73333
 461.52;   12.333;   17.333;    0.000;-5.00000
 461.81;  -12.867;  -33.933;    0.000;21.06667
 462.09;   -6.400;  -24.667;    0.000;18.26667
 462.38;  -38.733;  -53.333;    0.000;14.60000
 462.67;  -26.067;  -15.400;    0.000;-10.66667
 462.96;   -4.733;  -40.267;    0.000;35.53333
 463.24;  -25.000;  -18.467;    0.000;-6.53333
 463.53;   -6.667;  -25.467;    0.000;18.80000
 463.82;  -21.467;   -2.667;    0.000;-18.80000
 464.11;  -26.933;  -34.867;    0.000; 7.93333
 464.40;  -24.733;  -35.800;    0.000;11.06667
 464.68;  -16.200;  -47.400;    0.000;31.20000
 464.97;  -19.533;  -32.333;    0.000;12.80000
 465.26;   17.600;   -9.533;    0.000;27.13333
 465.55;  -10.333;  -12.600;    0.000; 2.26667
 465.83;  -23.867;  -36.467;    0.000;12.60000
 466.12;  -11.933;  -22.400;    0.000;10.46667
 466.41;  -12.067;  -38.200;    0.000;26.13333
 466.70;  -34.133;  -33.533;    0.000;-0.60000
 466.98;  -29.533;  -44.333;    0.000;14.80000
 467.27;   -2.533;  -12.800;    0.000;10.26667
 467.56;   24.600;   -5.267;    0.000;29.86667
 467.85;   -4.333;  -13.867;    0.000; 9.53333
 468.13;  -24.733;  -48.000;    0.000;23.26667
 468.42;   -6.600;  -30.467;    0.000;23.86667
 468.71;    2.133;  -39.200;    0.000;41.33333
 468.99;    0.733;  -11.267;    0.000;12.00000
 469.28;  -11.800;  -31.867;    0.000;20.06667
 469.57;  -17.667;  -35.200;    0.000;17.53333
 469.86;   -9.533;  -50.333;    0.000;40.80000
 470.14;  -19.200;  -14.333;    0.000;-4.86667
 470.43;   -5.533;  -24.800;    0.000;19.26667
 470.72;  -31.867;  -28.933;    0.000;-2.93333
 471.00;  -26.467;  -41.667;    0.000;15.20000
 471.29;    7.467;   12.733;    0.000;-5.26667
 471.58;    7.133;   -6.133;    0.000;13.26667
 471.87;  -24.867;  -29.800;    0.000; 4.93333
 472.15;  -34.867;  -34.400;    0.000;-0.46666
 472.44;    2.400;    8.400;    0.000;-6.00000
 472.73;  -28.800;  -59.467;    0.000;30.66667
 473.01;  -36.600;  -23.667;    0.000;-12.93333
 473.30;    7.333;  -31.000;    0.000;38.33333
 473.59;  -11.867;  -31.467;    0.000;19.60000
 473.87;   -4.600;  -26.933;    0.000;22.33333
 474.16;  -32.067;  -33.600;    0.000; 1.53333
 474.45;   -7.667;  -42.133;    0.000;34.46667
 474.74;  -24.200;  -44.467;    0.000;20.26667
 475.02;    9.933;  -35.067;    0.000;45.00000
 475.31;   -6.333;  -24.800;    0.000;18.46667
 475.60;  -17.733;  -15.400;    0.000;-2.33333
 475.88;  -20.800;  -26.733;    0.000; 5.93333
 476.17;    3.067;   -1.333;    0.000; 4.40000
 476.46;   -1.467;  -39.867;    0.000;38.40000
 476.74;  -12.400;  -49.867;    0.000;37.46667
 477.03;  -26.000;  -24.000;    0.000;-2.00000
 477.32;   14.333;    2.133;    0.000;12.20000
 477.60;   -9.333;  -24.133;    0.000;14.80000
 477.89;   14.600;  -30.400;    0.000;45.00000
 478.18;  -15.133;    0.067;    0.000;-15.20000
 478.46;  -19.533;  -30.333;    0.000;10.80000
 478.75;  -10.533;  -35.267;    0.000;24.73333
 479.03;  -19.533;  -44.067;    0.000;24.53333
 479.32;   -1.800;  -44.533;    0.000;42.73333
 479.61;  -33.067;  -42.200;    0.000; 9.13334
 479.89;  -19.933;  -29.667;    0.000; 9.73333
 480.18;   -1.867;  -38.467;    0.000;36.60000
 480.47;   21.333;   -6.133;    0.000;27.46667
 480.75;   13.267;  -42.133;    0.000;55.40000
 481.04;   11.400;  -16.667;    0.000;28.06667
 481.33;   13.600;  -30.800;    0.000;44.40000
 481.61;   17.800;  -19.933;    0.000;37.73333
 481.90;   -4.867;  -63.733;    0.000;58.86667
 482.18;   12.800;   -9.067;    0.000;21.86667
 482.47;   17.133;  -22.667;    0.000;39.80000
 482.76;   11.133;  -45.333;    0.000;56.46667
 483.04;    9.867;  -37.667;    0.000;47.53333
 483.33;   25.933;  -22.333;    0.000;48.26667
 483.61;   30.200;  -40.933;    0.000;71.13334
 483.90;   14.867;  -16.333;    0.000;31.20000
 484.19;   12.867;  -46.400;    0.000;59.26667
 484.47;   46.733;  -21.733;    0.000;68.46667
 484.76;   44.600;  -59.933;    0.000;104.53333
 485.05;   77.600;  -19.600;    0.000;97.20000
 485.33;   74.000;  -16.000;    0.000;90.00000
 485.62;   57.667;  -34.400;    0.000;92.06667
 485.90;   87.467;  -30.133;    0.000;117.60000
 486.19;  105.533;  -33.000;    0.000;138.53333
 486.47;  146.200;   -8.200;    0.000;154.40000
 486.76;  114.333;  -31.467;    0.000;145.80000
 487.05;  139.867;  -10.333;    0.000;150.20000
 487.33;  146.533;  -27.067;    0.000;173.60001
 487.62;  158.800;  -68.133;    0.000;226.93333
 487.90;  185.533;  -23.600;    0.000;209.13334
 488.19;  203.333;  -18.533;    0.000;221.86666
 488.47;  227.267;  -20.467;    0.000;247.73333
 488.76;  252.800;  -36.333;    0.000;289.13334
 489.05;  283.267;    1.000;    0.000;282.26666
 489.33;  281.600;  -36.867;    0.000;318.46667
 489.62;  315.267;  -14.000;    0.000;329.26666
 489.90;  341.467;  -38.533;    0.000;380.00001
 490.19;  365.733;  -51.933;    0.000;417.66667
 490.47;  391.067;  -24.200;    0.000;415.26668
 490.76;  417.533;  -36.733;    0.000;454.26666
 491.05;  486.400;  -16.533;    0.000;502.93333
 491.33;  492.667;  -19.267;    0.000;511.93332
 491.62;  520.867;  -30.267;    0.000;551.13330
 491.90;  596.200;  -27.867;    0.000;624.06668
 492.19;  613.600;  -30.133;    0.000;643.73331
 492.47;  689.733;  -37.333;    0.000;727.06667
 492.76;  715.867;  -42.867;    0.000;758.73330
 493.04;  769.333;  -25.800;    0.000;795.13331
 493.33;  793.667;  -39.733;    0.000;833.40002
 493.61;  850.533;  -22.400;    0.000;872.93332
 493.90;  896.333;  -21.200;    0.000;917.53331
 494.18;  966.267;  -20.400;    0.000;986.66666
 494.47; 1008.667;  -32.400;    0.000;1041.06669
 494.75; 1035.333;  -39.067;    0.000;1074.40004
 495.04; 1114.867;  -26.733;    0.000;1141.60003
 495.32; 1157.600;  -21.733;    0.000;1179.33331
 495.61; 1222.467;  -37.333;    0.000;1259.80001
 495.89; 1273.067;  -36.000;    0.000;1309.06665
 496.18; 1371.800;  -30.333;    0.000;1402.13338
 496.46; 1468.467;  -37.533;    0.000;1506.00001
 496.75; 1452.200;  -29.400;    0.000;1481.59995
 497.03; 1540.933;  -29.600;    0.000;1570.53335
 497.32; 1607.733;  -39.400;    0.000;1647.13328
 497.60; 1669.000;  -52.200;    0.000;1721.20000
 497.89; 1773.733;  -42.200;    0.000;1815.93328
 498.17; 1880.400;  -17.667;    0.000;1898.06669
 498.46; 1977.467;  -34.067;    0.000;2011.53334
 498.74; 1998.400;  -29.533;    0.000;2027.93336
 499.03; 2081.267;  -39.000;    0.000;2120.26660
 499.31; 2135.000;  -31.867;    0.000;2166.86667
 499.60; 2294.200;  -12.933;    0.000;2307.13328
 499.88; 2369.933;   -4.267;    0.000;2374.20002
 500.17; 2392.600;  -41.800;    0.000;2434.40010
 500.45; 2514.667;  -25.400;    0.000;2540.06675
 500.74; 2638.133;  -10.133;    0.000;2648.26663
 501.02; 2700.933;  -39.933;    0.000;2740.86668
 501.31; 2805.000;  -54.867;    0.000;2859.86666
 501.59; 2906.200;  -21.000;    0.000;2927.19995
 501.88; 2943.800;  -40.667;    0.000;2984.46672
 502.16; 3077.733;  -30.400;    0.000;3108.13340
 502.45; 3203.133;  -35.400;    0.000;3238.53330
 502.73; 3253.533;  -27.067;    0.000;3280.60011
 503.01; 3347.133;  -29.133;    0.000;3376.26663
 503.30; 3467.333;  -24.000;    0.000;3491.33325
 503.58; 3458.733;  -41.333;    0.000;3500.06673
 503.87; 3645.133;  -26.600;    0.000;3671.73330
 504.15; 3757.200;  -50.067;    0.000;3807.26662
 504.44; 3837.133;  -17.267;    0.000;3854.39997
 504.72; 3928.200;  -13.600;    0.000;3941.79995
 505.00; 4075.533;  -13.800;    0.000;4089.33345
 505.29; 4187.267;  -11.600;    0.000;4198.86660
 505.57; 4309.333;   -9.867;    0.000;4319.20016
 505.86; 4368.600;  -41.533;    0.000;4410.13343
 506.14; 4452.733;  -44.800;    0.000;4497.53340
 506.43; 4552.133;  -21.267;    0.000;4573.39997
 506.71; 4627.733;  -54.400;    0.000;4682.13340
 506.99; 4771.800;  -38.133;    0.000;4809.93314
 507.28; 4844.533;  -29.667;    0.000;4874.19987
 507.56; 4981.267;  -60.133;    0.000;5041.39994
 507.85; 5080.667;  -35.067;    0.000;5115.73317
 508.13; 5088.067;  -49.667;    0.000;5137.73356
 508.41; 5310.800;    8.133;    0.000;5302.66647
 508.70; 5350.533;  -51.733;    0.000;5402.26654
 508.98; 5419.133;  -44.333;    0.000;5463.46663
 509.27; 5596.067;  -22.600;    0.000;5618.66689
 509.55; 5647.600;  -29.467;    0.000;5677.06676
 509.83; 5749.867;  -49.867;    0.000;5799.73336
 510.12; 5819.800;  -51.267;    0.000;5871.06647
 510.40; 6038.267;  -24.867;    0.000;6063.13327
 510.69; 6110.067;  -34.133;    0.000;6144.20023
 510.97; 6183.333;  -31.800;    0.000;6215.13350
 511.25; 6223.467;  -23.400;    0.000;6246.86680
 511.54; 6343.600;  -37.933;    0.000;6381.53343
 511.82; 6423.333;  -34.067;    0.000;6457.40016
 512.11; 6540.000;  -59.467;    0.000;6599.46667
 512.39; 6603.133;  -46.467;    0.000;6649.59997
 512.67; 6730.400;  -50.600;    0.000;6780.99990
 512.96; 6795.467;  -34.533;    0.000;6830.00013
 513.24; 6834.400;  -33.200;    0.000;6867.59990
 513.52; 7069.400;  -25.933;    0.000;7095.33323
 513.81; 7130.467;  -26.267;    0.000;7156.73346
 514.09; 7100.533;  -41.533;    0.000;7142.06654
 514.37; 7241.667;  -47.200;    0.000;7288.86650
 514.66; 7335.600;  -16.733;    0.000;7352.33343
 514.94; 7445.733;  -24.667;    0.000;7470.40006
 515.22; 7542.333;  -39.133;    0.000;7581.46683
 515.51; 7541.400;  -47.133;    0.000;7588.53324
 515.79; 7666.067;  -46.467;    0.000;7712.53356
 516.07; 7771.133;  -38.200;    0.000;7809.33330
 516.36; 7835.933;  -33.133;    0.000;7869.06644
 516.64; 7823.600;  -40.867;    0.000;7864.46676
 516.92; 8040.667;  -45.533;    0.000;8086.19984
 517.21; 8092.867;  -66.133;    0.000;8159.00003
 517.49; 8283.134;  -37.800;    0.000;8320.93379
 517.77; 8392.866;  -41.933;    0.000;8434.79955
 518.06; 8441.800;  -37.667;    0.000;8479.46647
 518.34; 8529.200;  -19.533;    0.000;8548.73353
 518.62; 8595.333;  -19.933;    0.000;8615.26634
 518.91; 8871.066;  143.200;    0.000;8727.86641
 519.19; 8769.267;  -42.733;    0.000;8811.99994
 519.47; 8844.600;  -29.533;    0.000;8874.13294
 519.76; 8954.934;  -29.133;    0.000;8984.06693
 520.04; 8965.800;  -37.467;    0.000;9003.26647
 520.32; 8933.800;    4.267;    0.000;8929.53314
 520.61; 9190.667;  -10.333;    0.000;9201.00033
 520.89; 9206.134;  -35.467;    0.000;9241.60046
 521.17; 9258.934;  -45.800;    0.000;9304.73359
 521.45; 9317.267;  -30.800;    0.000;9348.06660
 521.74; 9473.134;  -43.467;    0.000;9516.60046
 522.02; 9484.667;  -10.000;    0.000;9494.66699
 522.30; 9584.667;  -40.667;    0.000;9625.33366
 522.59; 9736.733;  -12.467;    0.000;9749.20006
 522.87; 9722.200;  -34.000;    0.000;9756.20020
 523.15; 9893.600;  -25.667;    0.000;9919.26628
 523.43; 9847.200;  -52.067;    0.000;9899.26686
 523.72; 9889.200;  -17.933;    0.000;9907.13353
 524.00;10022.066;  -49.067;    0.000;10071.13307
 524.28;10054.200;  -19.733;    0.000;10073.93353
 524.57;10077.667;  -24.000;    0.000;10101.66699
 524.85;10134.000;  -39.667;    0.000;10173.66667
 525.13;10316.467;  -37.800;    0.000;10354.26680
 525.41;10405.866;  -15.933;    0.000;10421.79954
 525.70;10277.934;  -39.200;    0.000;10317.13359
 525.98;10429.934;  -40.000;    0.000;10469.93359
 526.26;10531.333;  -38.467;    0.000;10569.79967
 526.54;10546.467;   -6.133;    0.000;10552.60013
 526.83;10693.467;  -41.067;    0.000;10734.53346
 527.11;10647.467;  -10.600;    0.000;10658.06680
 527.39;10712.866;  -42.867;    0.000;10755.73288
 527.67;10843.066;  -26.533;    0.000;10869.59974
 527.96;10894.467;  -44.800;    0.000;10939.26680
 528.24;10976.200;  -36.800;    0.000;11013.00019
 528.52;11083.667;  -45.200;    0.000;11128.86699
 528.80;11052.200;  -20.667;    0.000;11072.86686
 529.08;11132.733;  -61.067;    0.000;11193.80006
 529.37;11217.000;  -22.000;    0.000;11239.00000
 529.65;11197.134;  -42.133;    0.000;11239.26712
 529.93;11227.600;  -33.733;    0.000;11261.33294
 530.21;11270.200;  -60.200;    0.000;11330.40020
 530.50;11413.467;   -5.600;    0.000;11419.06680
 530.78;11476.733;  -45.933;    0.000;11522.66673
 531.06;11473.333;  -44.533;    0.000;11517.86634
 531.34;11500.000;  -43.400;    0.000;11543.40000
 531.62;11489.066;  -60.400;    0.000;11549.46641
 531.91;11648.200;  -48.733;    0.000;11696.93353
 532.19;11713.934;  -35.600;    0.000;11749.53359
 532.47;11754.267;  -39.333;    0.000;11793.59993
 532.75;11729.533;  -25.400;    0.000;11754.93320
 533.03;11902.733;  -13.067;    0.000;11915.80007
 533.32;11805.533;  -30.467;    0.000;11835.99987
 533.60;11880.533;  -42.733;    0.000;11923.26654
 533.88;11975.533;  -23.133;    0.000;11998.66654
 534.16;12047.000;  -39.933;    0.000;12086.93333
 534.44;12137.667;  -14.400;    0.000;12152.06699
 534.72;12097.667;  -56.267;    0.000;12153.93366
 535.01;12108.733;  -38.467;    0.000;12147.20007
 535.29;12279.066;  -60.267;    0.000;12339.33307
 535.57;12152.333;  -51.667;    0.000;12203.99968
 535.85;12305.600;  -37.467;    0.000;12343.06628
 536.13;12302.934;  -35.267;    0.000;12338.20026
 536.42;12342.134;  -50.600;    0.000;12392.73379
 536.70;12391.866;  -37.933;    0.000;12429.79955
 536.98;12476.066;  -29.933;    0.000;12505.99974
 537.26;12488.533;  -47.867;    0.000;12536.39987
 537.54;12459.866;  -68.200;    0.000;12528.06621
 537.82;12600.134;  -30.533;    0.000;12630.66712
 538.10;12526.333;  -36.067;    0.000;12562.39967
 538.39;12687.333;  -26.133;    0.000;12713.46634
 538.67;12626.934;  -35.733;    0.000;12662.66693
 538.95;12725.000;  -55.667;    0.000;12780.66667
 539.23;12795.333;  -45.333;    0.000;12840.66634
 539.51;12802.134;  -18.133;    0.000;12820.26712
 539.79;12805.267;  -36.133;    0.000;12841.39994
 540.07;12853.800;  -44.267;    0.000;12898.06647
 540.36;12871.467;  -52.133;    0.000;12923.60013
 540.64;12847.600;  -50.933;    0.000;12898.53294
 540.92;12969.200;  -51.133;    0.000;13020.33353
 541.20;13017.134;  -29.667;    0.000;13046.80046
 541.48;12973.800;   -2.533;    0.000;12976.33314
 541.76;13038.333;  -34.000;    0.000;13072.33301
 542.04;13134.333;  -58.333;    0.000;13192.66634
 542.32;13157.134;  -50.533;    0.000;13207.66712
 542.61;13080.333;  -35.467;    0.000;13115.79967
 542.89;13263.800;  -21.867;    0.000;13285.66647
 543.17;13237.667;  -37.333;    0.000;13275.00032
 543.45;13076.600;  -43.733;    0.000;13120.33294
 543.73;13251.066;  -50.933;    0.000;13301.99974
 544.01;13168.533;  -29.200;    0.000;13197.73320
 544.29;13281.134;  -28.600;    0.000;13309.73379
 544.57;13409.134;  -43.333;    0.000;13452.46712
 544.85;13481.866;  -50.400;    0.000;13532.26621
 545.13;13388.066;  -24.733;    0.000;13412.79974
 545.42;13316.000;  -45.733;    0.000;13361.73333
 545.70;13416.866;  -25.267;    0.000;13442.13288
 545.98;13384.000;  -58.867;    0.000;13442.86666
 546.26;13396.400;  -45.400;    0.000;13441.80039
 546.54;13501.066;  -54.400;    0.000;13555.46641
 546.82;13471.467;  -27.000;    0.000;13498.46680
 547.10;13591.934;  -21.800;    0.000;13613.73359
 547.38;13628.533;  -47.733;    0.000;13676.26654
 547.66;13636.200;  -34.933;    0.000;13671.13353
 547.94;13610.400;  -39.333;    0.000;13649.73372
 548.22;13603.200;  -43.200;    0.000;13646.40020
 548.50;13594.066;  -43.800;    0.000;13637.86641
 548.78;13588.400;  -38.667;    0.000;13627.06706
 549.06;13605.800;  -30.533;    0.000;13636.33314
 549.34;13661.467;  -50.667;    0.000;13712.13346
 549.63;13666.600;  -27.533;    0.000;13694.13294
 549.91;13579.267;  -40.800;    0.000;13620.06660
 550.19;13579.333;  -15.933;    0.000;13595.26634
 550.47;13691.733;  -53.400;    0.000;13745.13340
 550.75;13542.000;  -66.600;    0.000;13608.60000
 551.03;13696.533;  -61.600;    0.000;13758.13320
 551.31;13724.733;  -33.000;    0.000;13757.73340
 551.59;13624.333;  -65.733;    0.000;13690.06634
 551.87;13658.533;  -17.733;    0.000;13676.26654
 552.15;13675.000;  -62.133;    0.000;13737.13334
 552.43;13740.066;  -23.733;    0.000;13763.79974
 552.71;13659.800;  -52.067;    0.000;13711.86647
 552.99;13596.467;  -41.533;    0.000;13638.00013
 553.27;13740.333;  -51.067;    0.000;13791.39967
 553.55;13776.333;  -47.400;    0.000;13823.73301
 553.83;13725.400;  -50.333;    0.000;13775.73372
 554.11;13814.934;  -27.467;    0.000;13842.40026
 554.39;13730.000;  -29.467;    0.000;13759.46667
 554.67;13761.000;  -38.667;    0.000;13799.66667
 554.95;13788.934;  -32.133;    0.000;13821.06693
 555.23;13771.333;  -29.133;    0.000;13800.46634
 555.51;13699.667;  -56.467;    0.000;13756.13366
 555.79;13797.733;  -30.933;    0.000;13828.66673
 556.07;13708.400;  -48.267;    0.000;13756.66706
 556.35;13767.267;  -44.000;    0.000;13811.26660
 556.63;13773.934;  -51.200;    0.000;13825.13359
 556.91;13647.200;  -14.133;    0.000;13661.33353
 557.19;13628.267;  -57.133;    0.000;13685.39994
 557.47;13664.267;  -29.533;    0.000;13693.79993
 557.75;13620.066;  -55.667;    0.000;13675.73307
 558.03;13708.600;  -43.400;    0.000;13751.99961
 558.31;13697.600;  -55.267;    0.000;13752.86628
 558.59;13568.866;  -40.467;    0.000;13609.33288
 558.87;13701.667;  -44.467;    0.000;13746.13366
 559.15;13756.733;  -37.600;    0.000;13794.33340
 559.43;13728.800;  -44.400;    0.000;13773.19981
 559.71;13732.200;  -25.267;    0.000;13757.46686
 559.99;13651.200;  -46.133;    0.000;13697.33353
 560.27;13664.667;  -17.800;    0.000;13682.46699
 560.55;13603.934;  -41.533;    0.000;13645.46693
 560.82;13652.066;  -48.000;    0.000;13700.06641
 561.10;13636.667;  -60.000;    0.000;13696.66699
 561.38;13638.600;  -54.533;    0.000;13693.13294
 561.66;13549.200;  -33.133;    0.000;13582.33353
 561.94;13518.733;  -42.200;    0.000;13560.93340
 562.22;13612.000;  -47.267;    0.000;13659.26667
 562.50;13598.200;  -27.333;    0.000;13625.53353
 562.78;13561.000;  -32.267;    0.000;13593.26667
 563.06;13438.066;  -44.600;    0.000;13482.66640
 563.34;13565.400;  -42.067;    0.000;13607.46706
 563.62;13446.134;  -45.200;    0.000;13491.33379
 563.90;13412.600;  -55.533;    0.000;13468.13294
 564.18;13454.267;  -32.867;    0.000;13487.13327
 564.46;13466.934;  -42.267;    0.000;13509.20026
 564.74;13413.667;  -34.067;    0.000;13447.73366
 565.01;13351.467;  -41.467;    0.000;13392.93346
 565.29;13345.733;  -33.333;    0.000;13379.06673
 565.57;13307.400;  -52.200;    0.000;13359.60039
 565.85;13223.000;  -26.467;    0.000;13249.46667
 566.13;13187.533;  -61.067;    0.000;13248.59987
 566.41;13257.533;  -17.067;    0.000;13274.59987
 566.69;13179.600;  -44.133;    0.000;13223.73294
 566.97;13239.066;  -41.267;    0.000;13280.33307
 567.25;13138.800;  -57.933;    0.000;13196.73314
 567.53;13117.400;  -48.267;    0.000;13165.66706
 567.80;13091.934;  -41.000;    0.000;13132.93359
 568.08;13191.333;  -31.333;    0.000;13222.66634
 568.36;13009.800;  -40.867;    0.000;13050.66647
 568.64;12963.467;  -38.933;    0.000;13002.40013
 568.92;12988.000;  -20.733;    0.000;13008.73333
 569.20;12927.333;  -49.400;    0.000;12976.73301
 569.48;12989.733;  -63.267;    0.000;13053.00006
 569.76;12856.400;  -44.600;    0.000;12901.00039
 570.03;12887.200;  -34.933;    0.000;12922.13353
 570.31;12807.866;  -19.800;    0.000;12827.66621
 570.59;12763.866;  -51.333;    0.000;12815.19954
 570.87;12748.733;  -29.933;    0.000;12778.66673
 571.15;12727.733;  -77.933;    0.000;12805.66673
 571.43;12713.000;  -28.867;    0.000;12741.86667
 571.71;12579.200;  -53.333;    0.000;12632.53353
 571.98;12490.400;  -39.733;    0.000;12530.13372
 572.26;12618.866;  -46.533;    0.000;12665.39954
 572.54;12507.000;  -47.733;    0.000;12554.73333
 572.82;12519.134;  -45.267;    0.000;12564.40046
 573.10;12376.800;  -42.667;    0.000;12419.46647
 573.38;12426.066;  -47.267;    0.000;12473.33307
 573.66;12411.600;  -47.000;    0.000;12458.59961
 573.93;12357.533;  -58.800;    0.000;12416.33320
 574.21;12313.400;  -51.600;    0.000;12365.00039
 574.49;12308.267;  -62.467;    0.000;12370.73327
 574.77;12245.600;  -44.533;    0.000;12290.13294
 575.05;12110.533;  -34.733;    0.000;12145.26654
 575.33;12170.000;  -58.333;    0.000;12228.33333
 575.60;12164.000;  -44.867;    0.000;12208.86666
 575.88;12012.066;  -36.333;    0.000;12048.39974
 576.16;11991.333;  -35.267;    0.000;12026.59967
 576.44;11904.733;  -30.733;    0.000;11935.46673
 576.72;11885.200;  -62.067;    0.000;11947.26686
 576.99;11876.533;  -55.067;    0.000;11931.59987
 577.27;11778.533;  -45.600;    0.000;11824.13320
 577.55;11788.667;   -8.667;    0.000;11797.33366
 577.83;11703.400;  -47.533;    0.000;11750.93372
 578.11;11699.400;  -63.867;    0.000;11763.26706
 578.38;11744.533;  -41.533;    0.000;11786.06654
 578.66;11639.066;  -65.267;    0.000;11704.33308
 578.94;11539.400;  -43.400;    0.000;11582.80039
 579.22;11489.333;  -52.733;    0.000;11542.06634
 579.50;11392.267;  -21.133;    0.000;11413.39993
 579.77;11430.667;  -47.400;    0.000;11478.06699
 580.05;11413.400;  -49.467;    0.000;11462.86706
 580.33;11313.800;  -45.600;    0.000;11359.39980
 580.61;11285.200;  -56.000;    0.000;11341.20020
 580.88;11208.400;  -35.933;    0.000;11244.33372
 581.16;11208.467;  -50.200;    0.000;11258.66680
 581.44;11116.333;  -24.467;    0.000;11140.79967
 581.72;11072.800;  -71.133;    0.000;11143.93314
 581.99;10930.533;  -30.200;    0.000;10960.73320
 582.27;10973.066;  -58.133;    0.000;11031.19974
 582.55;10891.866;  -51.400;    0.000;10943.26621
 582.83;10946.733;  -30.533;    0.000;10977.26673
 583.10;10866.200;  -26.133;    0.000;10892.33353
 583.38;10780.200;  -70.733;    0.000;10850.93353
 583.66;10804.200;  -32.533;    0.000;10836.73353
 583.94;10689.400;  -46.333;    0.000;10735.73372
 584.21;10576.267;  -53.400;    0.000;10629.66660
 584.49;10561.866;  -62.467;    0.000;10624.33288
 584.77;10448.000;  -44.600;    0.000;10492.60000
 585.05;10448.267;  -70.867;    0.000;10519.13327
 585.32;10363.267;  -40.067;    0.000;10403.33327
 585.60;10386.934;  -53.067;    0.000;10440.00026
 585.88;10283.600;  -39.267;    0.000;10322.86628
 586.16;10212.200;  -42.067;    0.000;10254.26686
 586.43;10191.866;   -5.200;    0.000;10197.06621
 586.71;10123.066;  -29.000;    0.000;10152.06641
 586.99;10052.134;  -64.400;    0.000;10116.53379
 587.26;10068.934;  -57.400;    0.000;10126.33360
 587.54; 9978.800;  -38.000;    0.000;10016.79980
 587.82; 9933.467;  -54.400;    0.000;9987.86680
 588.10; 9818.934;  -23.133;    0.000;9842.06693
 588.37; 9831.934;  -46.867;    0.000;9878.80026
 588.65; 9681.667;  -44.600;    0.000;9726.26699
 588.93; 9686.333;  -50.600;    0.000;9736.93301
 589.20; 9623.467;  -41.000;    0.000;9664.46680
 589.48; 9550.866;  -30.800;    0.000;9581.66621
 589.76; 9555.934;   -9.667;    0.000;9565.60026
 590.03; 9460.667;  -39.800;    0.000;9500.46699
 590.31; 9456.400;  -41.400;    0.000;9497.80039
 590.59; 9401.667;  -38.467;    0.000;9440.13366
 590.86; 9174.667;  -34.067;    0.000;9208.73366
 591.14; 9219.200;  -62.400;    0.000;9281.60020
 591.42; 9126.134;  -60.200;    0.000;9186.33379
 591.70; 9121.066;  -55.400;    0.000;9176.46641
 591.97; 9017.800;  -46.600;    0.000;9064.39980
 592.25; 9036.533;  -38.400;    0.000;9074.93320
 592.53; 8901.134;  -30.467;    0.000;8931.60046
 592.80; 8902.667;  -42.533;    0.000;8945.20033
 593.08; 8862.000;  -36.933;    0.000;8898.93333
 593.36; 8784.400;   -5.267;    0.000;8789.66706
 593.63; 8694.200;  -32.933;    0.000;8727.13353
 593.91; 8598.934;  -47.467;    0.000;8646.40026
 594.18; 8601.667;  -29.667;    0.000;8631.33366
 594.46; 8614.866;  -50.333;    0.000;8665.19954
 594.74; 8446.934;  -54.667;    0.000;8501.60026
 595.01; 8419.267;  -70.800;    0.000;8490.06660
 595.29; 8407.333;  -78.067;    0.000;8485.39967
 595.57; 8388.267;  -29.000;    0.000;8417.26660
 595.84; 8270.066;  -48.867;    0.000;8318.93307
 596.12; 8211.066;  -46.267;    0.000;8257.33307
 596.40; 8128.933;  -65.200;    0.000;8194.13310
 596.67; 8036.267;  -68.267;    0.000;8104.53327
 596.95; 7960.733;  -41.667;    0.000;8002.40007
 597.22; 8011.067;  -55.267;    0.000;8066.33356
 597.50; 7975.467;  -26.067;    0.000;8001.53346
 597.78; 7839.067;  -53.067;    0.000;7892.13356
 598.05; 7736.800;  -44.933;    0.000;7781.73314
 598.33; 7749.867;  -52.867;    0.000;7802.73336
 598.61; 7725.600;  -48.333;    0.000;7773.93343
 598.88; 7656.333;  -42.200;    0.000;7698.53350
 599.16; 7562.733;  -51.133;    0.000;7613.86673
 599.43; 7495.667;  -70.800;    0.000;7566.46651
 599.71; 7466.667;  -55.933;    0.000;7522.59984
 599.99; 7339.867;  -58.400;    0.000;7398.26670
 600.26; 7391.333;  -53.400;    0.000;7444.73350
 600.54; 7318.667;  -34.467;    0.000;7353.13317
 600.81; 7250.067;  -35.000;    0.000;7285.06689
 601.09; 7279.467;  -41.400;    0.000;7320.86680
 601.36; 7212.400;  -49.267;    0.000;7261.66657
 601.64; 7100.133;  -43.800;    0.000;7143.93330
 601.92; 7060.200;  -37.467;    0.000;7097.66686
 602.19; 6972.267;  -64.600;    0.000;7036.86660
 602.47; 6962.200;  -65.467;    0.000;7027.66686
 602.74; 6947.133;  -45.667;    0.000;6992.79997
 603.02; 6835.067;  -29.200;    0.000;6864.26690
 603.29; 6760.267;  -35.800;    0.000;6796.06660
 603.57; 6808.333;  -62.533;    0.000;6870.86683
 603.85; 6719.800;  -53.267;    0.000;6773.06647
 604.12; 6670.067;  -18.000;    0.000;6688.06689
 604.40; 6569.867;  -52.800;    0.000;6622.66670
 604.67; 6517.800;  -37.600;    0.000;6555.39980
 604.95; 6520.467;  -59.400;    0.000;6579.86680
 605.22; 6412.400;  -48.333;    0.000;6460.73323
 605.50; 6446.200;  -40.467;    0.000;6486.66686
 605.77; 6413.467;  -26.200;    0.000;6439.66680
 606.05; 6373.000;  -56.600;    0.000;6429.60000
 606.33; 6353.200;  -41.333;    0.000;6394.53353
 606.60; 6224.800;  -52.533;    0.000;6277.33314
 606.88; 6245.867;  -26.400;    0.000;6272.26670
 607.15; 6135.867;  -44.933;    0.000;6180.80003
 607.43; 6133.400;  -33.267;    0.000;6166.66657
 607.70; 6114.467;  -34.133;    0.000;6148.60013
 607.98; 6078.133;  -55.200;    0.000;6133.33330
 608.25; 6042.667;  -67.333;    0.000;6109.99984
 608.53; 5985.067;  -55.200;    0.000;6040.26690
 608.80; 5850.933;  -67.400;    0.000;5918.33311
 609.08; 5922.333;  -55.600;    0.000;5977.93349
 609.35; 5907.000;  -59.400;    0.000;5966.40000
 609.63; 5822.733;  -62.667;    0.000;5885.40007
 609.90; 5808.600;  -63.133;    0.000;5871.73343
 610.18; 5793.733;  -27.600;    0.000;5821.33340
 610.45; 5674.467;  -59.733;    0.000;5734.20013
 610.73; 5704.867;  -53.200;    0.000;5758.06670
 611.00; 5722.800;  -17.533;    0.000;5740.33314
 611.28; 5681.533;  -49.733;    0.000;5731.26654
 611.55; 5562.667;  -72.867;    0.000;5635.53317
 611.83; 5570.133;  -50.467;    0.000;5620.59997
 612.10; 5598.333;  -58.000;    0.000;5656.33350
 612.38; 5533.600;  -39.333;    0.000;5572.93343
 612.65; 5487.467;  -44.467;    0.000;5531.93346
 612.93; 5386.800;  -65.867;    0.000;5452.66647
 613.20; 5378.533;  -41.600;    0.000;5420.13320
 613.48; 5416.267;  -60.267;    0.000;5476.53327
 613.75; 5295.133;  -78.933;    0.000;5374.06664
 614.03; 5354.867;  -53.400;    0.000;5408.26670
 614.30; 5243.000;  -75.000;    0.000;5318.00000
 614.57; 5257.467;  -69.800;    0.000;5327.26680
 614.85; 5296.267;  -60.333;    0.000;5356.59993
 615.12; 5191.333;  -51.133;    0.000;5242.46683
 615.40; 5203.667;  -61.267;    0.000;5264.93317
 615.67; 5129.867;  -51.467;    0.000;5181.33337
 615.95; 5085.067;  -53.800;    0.000;5138.86689
 616.22; 5104.267;  -55.467;    0.000;5159.73327
 616.50; 5058.267;  -45.333;    0.000;5103.59993
 616.77; 5028.733;  -50.933;    0.000;5079.66673
 617.05; 4992.400;  -51.133;    0.000;5043.53324
 617.32; 4867.267;  -51.400;    0.000;4918.66660
 617.59; 4950.333;  -59.800;    0.000;5010.13350
 617.87; 4861.267;  -62.333;    0.000;4923.59993
 618.14; 4765.333;  -73.733;    0.000;4839.06683
 618.42; 4721.533;  -44.267;    0.000;4765.79987
 618.69; 4744.133;  -71.333;    0.000;4815.46664
 618.97; 4699.067;  -62.467;    0.000;4761.53356
 619.24; 4641.333;  -49.600;    0.000;4690.93349
 619.51; 4526.600;  -49.867;    0.000;4576.46676
 619.79; 4519.533;  -53.333;    0.000;4572.86654
 620.06; 4454.133;  -56.000;    0.000;4510.13330
 620.34; 4293.533;  -87.400;    0.000;4380.93320
 620.61; 4274.933;  -41.733;    0.000;4316.66644
 620.88; 4224.600;  -47.200;    0.000;4271.80010
 621.16; 4305.600;  -43.000;    0.000;4348.60010
 621.43; 4326.333;  -65.333;    0.000;4391.66683
 621.71; 4357.667;  -59.200;    0.000;4416.86650
 621.98; 4343.600;  -37.333;    0.000;4380.93343
 622.25; 4240.667;  -50.533;    0.000;4291.19984
 622.53; 4197.200;  -53.733;    0.000;4250.93353
 622.80; 4181.867;  -47.733;    0.000;4229.60003
 623.08; 4151.333;  -65.533;    0.000;4216.86683
 623.35; 4133.600;  -57.600;    0.000;4191.20010
 623.62; 4103.867;  -59.933;    0.000;4163.80003
 623.90; 4112.800;  -60.600;    0.000;4173.39980
 624.17; 4080.600;  -44.600;    0.000;4125.20010
 624.44; 3984.067;  -54.533;    0.000;4038.59998
 624.72; 4013.267;  -41.267;    0.000;4054.53327
 624.99; 3941.800;  -62.933;    0.000;4004.73338
 625.26; 4038.733;  -68.533;    0.000;4107.26673
 625.54; 4070.400;  -41.400;    0.000;4111.79990
 625.81; 4028.733;  -68.467;    0.000;4097.20007
 626.09; 3927.133;  -37.267;    0.000;3964.39997
 626.36; 3973.200;  -57.667;    0.000;4030.86662
 626.63; 3971.200;  -36.733;    0.000;4007.93328
 626.91; 3919.800;  -73.333;    0.000;3993.13338
 627.18; 3845.067;  -41.133;    0.000;3886.19999
 627.45; 3877.933;  -64.800;    0.000;3942.73335
 627.73; 3843.533;  -59.400;    0.000;3902.93345
 628.00; 3854.133;  -82.733;    0.000;3936.86663
 628.27; 3803.867;  -17.933;    0.000;3821.80003
 628.55; 3756.467;  -58.533;    0.000;3814.99989
 628.82; 3760.867;  -66.200;    0.000;3827.06670
 629.09; 3846.400;  -32.067;    0.000;3878.46657
 629.37; 3808.467;  -47.133;    0.000;3855.59989
 629.64; 3744.533;  -55.800;    0.000;3800.33345
 629.91; 3739.933;  -51.533;    0.000;3791.46668
 630.18; 3728.067;  -85.400;    0.000;3813.46665
 630.46; 3707.067;  -34.267;    0.000;3741.33332
 630.73; 3710.200;  -46.133;    0.000;3756.33329
 631.00; 3654.067;  -42.933;    0.000;3696.99998
 631.28; 3642.933;  -81.200;    0.000;3724.13335
 631.55; 3660.267;  -47.667;    0.000;3707.93327
 631.82; 3655.200;  -54.600;    0.000;3709.79995
 632.10; 3508.867;  -33.067;    0.000;3541.93336
 632.37; 3599.733;  -52.667;    0.000;3652.40007
 632.64; 3592.000;  -46.600;    0.000;3638.60000
 632.91; 3547.867;  -65.267;    0.000;3613.13337
 633.19; 3585.800;  -54.867;    0.000;3640.66671
 633.46; 3487.133;  -73.000;    0.000;3560.13330
 633.73; 3528.733;  -27.467;    0.000;3556.20007
 634.01; 3619.867;  -50.000;    0.000;3669.86670
 634.28; 3535.867;  -46.267;    0.000;3582.13337
 634.55; 3529.067;  -34.067;    0.000;3563.13332
 634.82; 3557.067;  -53.400;    0.000;3610.46665
 635.10; 3556.400;  -46.400;    0.000;3602.79990
 635.37; 3542.333;  -51.600;    0.000;3593.93325
 635.64; 3535.400;  -63.600;    0.000;3598.99990
 635.91; 3517.333;  -58.600;    0.000;3575.93325
 636.19; 3543.200;  -65.733;    0.000;3608.93328
 636.46; 3550.467;  -37.867;    0.000;3588.33322
 636.73; 3584.133;  -40.067;    0.000;3624.19997
 637.00; 3620.600;  -34.800;    0.000;3655.40010
 637.28; 3587.733;  -66.933;    0.000;3654.66673
 637.55; 3652.667;  -12.933;    0.000;3665.60008
 637.82; 3513.267;  -57.800;    0.000;3571.06660
 638.09; 3517.733;  -28.600;    0.000;3546.33340
 638.37; 3418.133;  -76.200;    0.000;3494.33330
 638.64; 3437.667;  -55.933;    0.000;3493.60008
 638.91; 3378.733;  -70.200;    0.000;3448.93340
 639.18; 3414.000;  -43.867;    0.000;3457.86666
 639.46; 3405.267;  -80.267;    0.000;3485.53327
 639.73; 3346.400;  -35.467;    0.000;3381.86657
 640.00; 3302.600;  -69.667;    0.000;3372.26676
 640.27; 3292.267;  -72.933;    0.000;3365.19994
 640.54; 3245.133;  -59.533;    0.000;3304.66663
 640.82; 3194.467;  -46.400;    0.000;3240.86655
 641.09; 3222.533;  -62.400;    0.000;3284.93345
 641.36; 3180.000;  -54.133;    0.000;3234.13334
 641.63; 3171.000;  -54.733;    0.000;3225.73333
 641.91; 3155.933;  -58.000;    0.000;3213.93335
 642.18; 3069.000;  -68.533;    0.000;3137.53333
 642.45; 2976.200;  -47.267;    0.000;3023.46662
 642.72; 3012.533;  -74.133;    0.000;3086.66678
 642.99; 3029.333;  -27.000;    0.000;3056.33325
 643.26; 2970.733;  -45.067;    0.000;3015.80006
 643.54; 2942.600;  -34.133;    0.000;2976.73343
 643.81; 2910.667;  -69.267;    0.000;2979.93342
 644.08; 2857.933;  -46.133;    0.000;2904.06668
 644.35; 2896.800;  -49.400;    0.000;2946.20005
 644.62; 2828.600;  -53.400;    0.000;2882.00010
 644.90; 2818.200;  -52.400;    0.000;2870.59995
 645.17; 2802.333;  -53.867;    0.000;2856.19992
 645.44; 2798.267;  -70.333;    0.000;2868.59994
 645.71; 2740.933;  -62.133;    0.000;2803.06668
 645.98; 2784.867;  -74.600;    0.000;2859.46670
 646.25; 2780.933;  -54.867;    0.000;2835.80001
 646.53; 2720.467;  -59.667;    0.000;2780.13322
 646.80; 2703.933;  -51.867;    0.000;2755.80001
 647.07; 2719.067;  -77.333;    0.000;2796.39999
 647.34; 2667.733;  -48.533;    0.000;2716.26673
 647.61; 2657.867;  -62.600;    0.000;2720.46670
 647.88; 2635.733;  -28.600;    0.000;2664.33340
 648.15; 2571.133;  -51.867;    0.000;2622.99997
 648.43; 2529.933;  -46.600;    0.000;2576.53335
 648.70; 2558.867;  -62.933;    0.000;2621.80003
 648.97; 2550.133;  -59.867;    0.000;2609.99997
 649.24; 2529.067;  -50.333;    0.000;2579.39998
 649.51; 2523.867;  -58.600;    0.000;2582.46670
 649.78; 2526.133;  -79.467;    0.000;2605.59997
 650.05; 2492.333;  -45.667;    0.000;2537.99992
 650.32; 2556.067;   32.333;    0.000;2523.73332
 650.60; 2459.467;  -51.000;    0.000;2510.46655
 650.87; 2394.400;  -53.600;    0.000;2447.99990
 651.14; 2432.533;  -50.267;    0.000;2482.80011
 651.41; 2410.733;  -72.133;    0.000;2482.86673
 651.68; 2402.267;  -51.533;    0.000;2453.79993
 651.95; 2375.067;  -41.667;    0.000;2416.73332
 652.22; 2337.800;  -63.267;    0.000;2401.06672
 652.49; 2355.933;  -82.200;    0.000;2438.13335
 652.76; 2314.600;  -69.467;    0.000;2384.06676
 653.03; 2342.533;  -47.533;    0.000;2390.06678
 653.31; 2314.533;  -66.000;    0.000;2380.53345
 653.58; 2271.400;  -66.867;    0.000;2338.26657
 653.85; 2224.200;  -45.467;    0.000;2269.66662
 654.12; 2262.733;  -53.867;    0.000;2316.60006
 654.39; 2267.600;  -11.267;    0.000;2278.86676
 654.66; 2292.200;  -27.933;    0.000;2320.13328
 654.93; 2277.333;  -35.000;    0.000;2312.33325
 655.20; 2158.867;  -72.133;    0.000;2231.00003
 655.47; 2170.400;  -56.400;    0.000;2226.79990
 655.74; 2202.133;  -55.067;    0.000;2257.19997
 656.01; 2185.600;  -63.400;    0.000;2249.00010
 656.28; 2155.133;  -65.600;    0.000;2220.73330
 656.55; 2165.133;  -38.400;    0.000;2203.53330
 656.83; 2142.467;  -59.667;    0.000;2202.13322
 657.10; 2109.467;  -66.400;    0.000;2175.86655
 657.37; 2102.733;  -63.667;    0.000;2166.40007
 657.64; 2074.467;  -59.200;    0.000;2133.66655
 657.91; 2039.067;  -67.267;    0.000;2106.33332
 658.18; 2019.400;  -39.333;    0.000;2058.73336
 658.45; 2030.733;  -72.267;    0.000;2102.99995
 658.72; 2016.000;  -56.667;    0.000;2072.66667
 658.99; 2009.000;  -68.667;    0.000;2077.66666
 659.26; 2017.600;  -30.667;    0.000;2048.26664
 659.53; 1958.667;  -77.000;    0.000;2035.66663
 659.80; 1932.533;  -52.933;    0.000;1985.46666
 660.07; 1964.200;  -41.200;    0.000;2005.39995
 660.34; 1884.667;  -61.800;    0.000;1946.46663
 660.61; 1904.933;  -98.733;    0.000;2003.66668
 660.88; 1920.133;  -64.933;    0.000;1985.06664
 661.15; 1918.067;  -51.267;    0.000;1969.33332
 661.42; 1889.867;  -49.867;    0.000;1939.73336
 661.69; 1871.733;  -61.667;    0.000;1933.39994
 661.96; 1829.067;  -83.733;    0.000;1912.79998
 662.23; 1808.200;  -59.333;    0.000;1867.53328
 662.50; 1823.333;  -62.067;    0.000;1885.40004
 662.77; 1793.400;  -59.867;    0.000;1853.26669
 663.04; 1772.800;  -50.867;    0.000;1823.66671
 663.31; 1749.867;  -58.733;    0.000;1808.60003
 663.58; 1806.733;  -42.933;    0.000;1849.66661
 663.85; 1773.867;  -64.067;    0.000;1837.93336
 664.12; 1766.600;  -64.533;    0.000;1831.13331
 664.39; 1742.400;  -67.467;    0.000;1809.86669
 664.66; 1716.333;  -67.067;    0.000;1783.40004
 664.93; 1725.467;  -71.200;    0.000;1796.66667
 665.20; 1666.800;  -63.000;    0.000;1729.80005
 665.47; 1730.267;  -63.267;    0.000;1793.53339
 665.74; 1644.533;  -74.467;    0.000;1718.99999
 666.01; 1625.000;  -48.400;    0.000;1673.40000
 666.28; 1649.400;  -75.400;    0.000;1724.80003
 666.55; 1588.400;  -57.533;    0.000;1645.93336
 666.82; 1614.000;  -60.733;    0.000;1674.73333
 667.09; 1606.200;  -50.533;    0.000;1656.73328
 667.36; 1608.333;  -58.133;    0.000;1666.46671
 667.63; 1610.533;  -61.800;    0.000;1672.33332
 667.90; 1592.267;  -67.200;    0.000;1659.46672
 668.16; 1519.667;  -66.933;    0.000;1586.59996
 668.43; 1516.067;  -79.267;    0.000;1595.33332
 668.70; 1585.933;  -54.533;    0.000;1640.46668
 668.97; 1529.600;  -59.200;    0.000;1588.79998
 669.24; 1517.600;  -54.533;    0.000;1572.13331
 669.51; 1511.267;  -63.000;    0.000;1574.26672
 669.78; 1498.400;  -76.667;    0.000;1575.06669
 670.05; 1480.000;  -59.867;    0.000;1539.86666
 670.32; 1501.933;  -57.600;    0.000;1559.53335
 670.59; 1420.667;  -57.467;    0.000;1478.13329
 670.86; 1456.067;  -66.800;    0.000;1522.86665
 671.13; 1485.933;  -42.667;    0.000;1528.60002
 671.40; 1441.800;  -58.600;    0.000;1500.40005
 671.67; 1447.400;  -40.933;    0.000;1488.33336
 671.93; 1427.133;  -73.267;    0.000;1500.39997
 672.20; 1389.467;  -68.333;    0.000;1457.80001
 672.47; 1399.467;  -77.467;    0.000;1476.93334
 672.74; 1360.000;  -54.000;    0.000;1414.00000
 673.01; 1366.400;  -70.733;    0.000;1437.13335
 673.28; 1381.333;  -42.267;    0.000;1423.60004
 673.55; 1354.267;  -73.333;    0.000;1427.60006
 673.82; 1331.867;  -56.333;    0.000;1388.20003
 674.09; 1347.733;  -72.267;    0.000;1419.99995
 674.35; 1313.200;  -69.267;    0.000;1382.46662
 674.62; 1328.067;  -61.733;    0.000;1389.79998
 674.89; 1267.467;  -61.667;    0.000;1329.13334
 675.16; 1298.467;  -70.200;    0.000;1368.66667
 675.43; 1307.267;  -56.000;    0.000;1363.26672
 675.70; 1274.933;  -36.533;    0.000;1311.46668
 675.97; 1260.600;  -46.333;    0.000;1306.93331
 676.24; 1264.667;  -55.400;    0.000;1320.06663
 676.50; 1228.733;  -56.333;    0.000;1285.06661
 676.77; 1234.067;  -72.533;    0.000;1306.59998
 677.04; 1225.267;  -54.600;    0.000;1279.86672
 677.31; 1205.800;  -70.200;    0.000;1276.00005
 677.58; 1184.467;  -58.200;    0.000;1242.66668
 677.85; 1234.933;  -39.133;    0.000;1274.06668
 678.12; 1177.200;  -53.667;    0.000;1230.86662
 678.38; 1173.400;  -52.000;    0.000;1225.40002
 678.65; 1177.200;  -69.867;    0.000;1247.06662
 678.92; 1140.800;  -71.733;    0.000;1212.53338
 679.19; 1176.600;  -30.733;    0.000;1207.33331
 679.46; 1169.600;  -61.733;    0.000;1231.33331
 679.73; 1125.933;  -60.200;    0.000;1186.13335
 679.99; 1076.000;  -86.000;    0.000;1162.00000
 680.26; 1087.667;  -83.867;    0.000;1171.53329
 680.53; 1082.067;  -75.933;    0.000;1157.99998
 680.80; 1094.200;  -65.733;    0.000;1159.93328
 681.07; 1075.800;  -67.733;    0.000;1143.53338
 681.33; 1133.400;  -55.133;    0.000;1188.53336
 681.60; 1101.733;  -77.933;    0.000;1179.66661
 681.87; 1053.133;  -65.800;    0.000;1118.93330
 682.14; 1055.400;  -46.067;    0.000;1101.46669
 682.41; 1033.600;  -70.933;    0.000;1104.53331
 682.67; 1042.267;  -45.667;    0.000;1087.93339
 682.94; 1025.333;  -70.467;    0.000;1095.80004
 683.21; 1003.200;  -76.133;    0.000;1079.33334
 683.48;  995.000;  -50.933;    0.000;1045.93333
 683.75; 1013.667;  -58.000;    0.000;1071.66669
 684.01; 1004.267;  -51.933;    0.000;1056.20000
 684.28;  947.733;  -66.333;    0.000;1014.06667
 684.55;  995.533;  -56.933;    0.000;1052.46666
 684.82;  957.333;  -82.467;    0.000;1039.79998
 685.09;  963.933;  -49.467;    0.000;1013.40002
 685.35;  946.933;  -43.467;    0.000;990.40002
 685.62;  928.400;  -42.400;    0.000;970.80003
 685.89;  942.067;  -37.800;    0.000;979.86665
 686.16;  911.467;  -66.600;    0.000;978.06667
 686.42;  909.333;  -71.600;    0.000;980.93331
 686.69;  965.467;  -41.267;    0.000;1006.73334
 686.96;  893.067;  -73.200;    0.000;966.26665
 687.23;  908.467;  -39.400;    0.000;947.86668
 687.49;  888.067;  -25.133;    0.000;913.19998
 687.76;  872.733;  -63.333;    0.000;936.06667
 688.03;  870.400;  -57.067;    0.000;927.46669
 688.30;  843.000;  -74.933;    0.000;917.93333
 688.56;  881.533;  -71.733;    0.000;953.26665
 688.83;  840.000;  -87.133;    0.000;927.13333
 689.10;  820.667;  -55.733;    0.000;876.40002
 689.37;  840.533;  -77.600;    0.000;918.13332
 689.63;  852.467;  -54.467;    0.000;906.93334
 689.90;  851.667;  -52.933;    0.000;904.60002
 690.17;  788.067;  -75.000;    0.000;863.06665
 690.44;  797.800;  -54.600;    0.000;852.39999
 690.70;  780.267;  -74.000;    0.000;854.26666
 690.97;  800.267;  -50.933;    0.000;851.20000
 691.24;  822.467;  -40.400;    0.000;862.86668
 691.50;  761.400;  -78.133;    0.000;839.53336
 691.77;  764.933;  -73.533;    0.000;838.46668
 692.04;  770.200;  -61.467;    0.000;831.66668
 692.30;  754.800;  -73.067;    0.000;827.86665
 692.57;  735.733;  -51.267;    0.000;787.00000
 692.84;  700.933;  -84.467;    0.000;785.40002
 693.11;  723.467;  -51.333;    0.000;774.80001
 693.37;  732.733;  -71.600;    0.000;804.33334
 693.64;  686.933;  -66.067;    0.000;753.00002
 693.91;  694.733;  -65.400;    0.000;760.13334
 694.17;  721.933;  -65.733;    0.000;787.66668
 694.44;  698.667;  -82.000;    0.000;780.66669
 694.71;  656.200;  -52.800;    0.000;709.00001
 694.97;  684.333;  -62.800;    0.000;747.13331
 695.24;  653.600;  -71.267;    0.000;724.86665
 695.51;  668.467;  -92.533;    0.000;761.00001
 695.77;  658.667;  -50.733;    0.000;709.40002
 696.04;  653.800;  -73.267;    0.000;727.06666
 696.31;  641.000;  -64.733;    0.000;705.73333
 696.57;  637.800;  -50.000;    0.000;687.79999
 696.84;  644.533;  -58.133;    0.000;702.66666
 697.11;  639.733;  -55.267;    0.000;695.00000
 697.37;  628.667;  -35.533;    0.000;664.20002
 697.64;  619.333;  -76.600;    0.000;695.93331
 697.91;  593.400;  -59.133;    0.000;652.53336
 698.17;  582.200;  -75.200;    0.000;657.40001
 698.44;  582.600;  -48.733;    0.000;631.33331
 698.71;  581.800;  -63.933;    0.000;645.73332
 698.97;  559.267;  -57.000;    0.000;616.26666
 699.24;  579.000;  -51.667;    0.000;630.66667
 699.50;  532.200;  -52.467;    0.000;584.66668
 699.77;  568.733;  -41.133;    0.000;609.86667
 700.04;  535.800;  -64.333;    0.000;600.13332
 700.30;  511.200;  -73.133;    0.000;584.33334
 700.57;  547.400;  -63.333;    0.000;610.73336
 700.84;  545.200;  -63.467;    0.000;608.66668
 701.10;  476.867;  -65.867;    0.000;542.73334
 701.37;  499.867;  -75.867;    0.000;575.73334
 701.63;  484.000;  -76.933;    0.000;560.93333
 701.90;  478.867;  -58.667;    0.000;537.53334
 702.17;  498.333;  -34.933;    0.000;533.26668
 702.43;  429.000;  -70.067;    0.000;499.06667
 702.70;  475.200;  -16.800;    0.000;492.00001
 702.96;  441.000;  -62.267;    0.000;503.26667
 703.23;  467.067;  -67.867;    0.000;534.93335
 703.50;  414.533;  -74.200;    0.000;488.73332
 703.76;  416.933;  -68.333;    0.000;485.26665
 704.03;  418.467;  -57.267;    0.000;475.73334
 704.29;  417.333;  -51.267;    0.000;468.60001
 704.56;  384.800;  -65.867;    0.000;450.66666
 704.82;  407.133;  -56.267;    0.000;463.40000
 705.09;  397.067;  -57.733;    0.000;454.80001
 705.36;  371.267;  -86.867;    0.000;458.13333
 705.62;  383.333;  -30.000;    0.000;413.33334
 705.89;  369.933;  -58.600;    0.000;428.53332
 706.15;  375.000;  -80.667;    0.000;455.66666
 706.42;  375.533;  -44.000;    0.000;419.53333
 706.68;  334.067;  -79.667;    0.000;413.73335
 706.95;  321.333;  -40.800;    0.000;362.13334
 707.21;  315.000;  -89.600;    0.000;404.60000
 707.48;  337.667;  -62.333;    0.000;399.99999
 707.75;  334.400;  -64.267;    0.000;398.66666
 708.01;  302.800;  -70.867;    0.000;373.66666
 708.28;  309.400;  -63.800;    0.000;373.19999
 708.54;  305.733;  -54.600;    0.000;360.33334
 708.81;  317.733;  -42.000;    0.000;359.73334
 709.07;  292.400;  -64.000;    0.000;356.39999
 709.34;  301.067;  -80.467;    0.000;381.53335
 709.60;  258.667;  -74.000;    0.000;332.66666
 709.87;  291.267;  -42.733;    0.000;334.00000
 710.13;  278.867;  -78.600;    0.000;357.46667
 710.40;  272.667;  -88.600;    0.000;361.26665
 710.66;  236.067;  -68.533;    0.000;304.60000
 710.93;  246.533;  -68.467;    0.000;315.00001
 711.19;  270.533;  -68.667;    0.000;339.19999
 711.46;  261.533;  -57.333;    0.000;318.86666
 711.72;  250.267;  -60.533;    0.000;310.80000
 711.99;  261.467;  -64.333;    0.000;325.80001
 712.25;  256.933;  -40.867;    0.000;297.79998
 712.52;  275.333;  -65.467;    0.000;340.80001
 712.78;  267.333;  -58.067;    0.000;325.40001
 713.05;  216.267;  -70.400;    0.000;286.66666
 713.31;  262.333;  -74.867;    0.000;337.20001
 713.58;  233.067;  -63.200;    0.000;296.26667
 713.84;  212.000;  -56.933;    0.000;268.93333
 714.11;  232.933;  -61.600;    0.000;294.53333
 714.37;  242.733;  -37.200;    0.000;279.93334
 714.64;  244.800;  -62.467;    0.000;307.26667
 714.90;  226.933;  -48.000;    0.000;274.93333
 715.17;  202.133;  -73.333;    0.000;275.46667
 715.43;  229.000;  -57.000;    0.000;286.00000
 715.70;  220.867;  -75.133;    0.000;296.00000
 715.96;  190.000;  -66.733;    0.000;256.73333
 716.22;  212.000;  -68.733;    0.000;280.73333
 716.49;  214.733;  -86.533;    0.000;301.26667
 716.75;  196.467;  -93.600;    0.000;290.06666
 717.02;  222.067;  -68.267;    0.000;290.33334
 717.28;  188.933;  -84.933;    0.000;273.86667
 717.55;  211.533;  -80.267;    0.000;291.80001
 717.81;  193.467;  -59.400;    0.000;252.86666
 718.08;  192.267;  -56.133;    0.000;248.40000
 718.34;  196.533;  -85.333;    0.000;281.86668
 718.60;  202.600;  -55.400;    0.000;258.00001
 718.87;  189.867;  -56.600;    0.000;246.46667
 719.13;  176.800;  -68.400;    0.000;245.20000
 719.40;  178.133;  -73.933;    0.000;252.06667
 719.66;  181.800;  -79.400;    0.000;261.20000
 719.93;  205.267;  -54.600;    0.000;259.86666
 720.19;  171.600;  -66.733;    0.000;238.33334
 720.45;  184.267;  -73.800;    0.000;258.06667
 720.72;  216.333;  -67.933;    0.000;284.26666
 720.98;  196.067;  -63.600;    0.000;259.66666
 721.25;  171.333;  -65.133;    0.000;236.46666
 721.51;  173.000;  -76.600;    0.000;249.60000
 721.77;  176.333;  -57.200;    0.000;233.53333
 722.04;  228.200;  -63.600;    0.000;291.80000
 722.30;  188.733;  -46.667;    0.000;235.40001
 722.57;  176.867;  -76.467;    0.000;253.33334
 722.83;  194.667;  -56.667;    0.000;251.33334
 723.09;  165.133;  -77.467;    0.000;242.60000
 723.36;  167.000;  -70.600;    0.000;237.60000
 723.62;  198.867;  -57.267;    0.000;256.13334
 723.88;  189.667;  -44.467;    0.000;234.13334
 724.15;  177.400;  -60.667;    0.000;238.06666
 724.41;  183.067;  -84.067;    0.000;267.13333
 724.68;  180.267;  -74.867;    0.000;255.13333
 724.94;  204.067;  -63.133;    0.000;267.20000
 725.20;  201.000;  -84.933;    0.000;285.93333
 725.47;  177.333;  -66.867;    0.000;244.20000
 725.73;  172.867;  -87.800;    0.000;260.66667
 725.99;  155.533;  -77.667;    0.000;233.20000
 726.26;  178.333;  -81.333;    0.000;259.66666
 726.52;  170.467;  -58.867;    0.000;229.33332
 726.78;  170.600;  -64.600;    0.000;235.20000
 727.05;  163.933;  -32.600;    0.000;196.53333
 727.31;  181.200;  -79.600;    0.000;260.80000
 727.57;  177.667;  -67.267;    0.000;244.93334
 727.84;  169.133;  -56.733;    0.000;225.86666
 728.10;  181.400;  -64.267;    0.000;245.66666
 728.36;  184.133;  -57.667;    0.000;241.80000
 728.63;  165.733;  -59.533;    0.000;225.26667
 728.89;  169.467;  -82.267;    0.000;251.73333
 729.15;  165.800;  -65.000;    0.000;230.80000
 729.42;  149.133;  -74.333;    0.000;223.46667
 729.68;  173.133;  -58.800;    0.000;231.93333
 729.94;  120.800;  -90.333;    0.000;211.13334
 730.21;  163.467;  -77.133;    0.000;240.59999
 730.47;  156.333;  -73.333;    0.000;229.66666
 730.73;  130.467;  -62.533;    0.000;192.99999
 731.00;  157.667;  -55.533;    0.000;213.20000
 731.26;  156.733;  -72.600;    0.000;229.33334
 731.52;  150.933;  -72.400;    0.000;223.33334
 731.78;  131.400;  -66.267;    0.000;197.66666
 732.05;  134.600;  -89.533;    0.000;224.13334
 732.31;  147.533;  -55.267;    0.000;202.80001
 732.57;  146.133;  -71.867;    0.000;218.00000
 732.84;  135.000;  -67.067;    0.000;202.06667
 733.10;  138.333;  -81.133;    0.000;219.46666
 733.36;  141.133;  -69.667;    0.000;210.80000
 733.62;  120.133;  -72.267;    0.000;192.40000
 733.89;  135.200;  -79.000;    0.000;214.20000
 734.15;  128.333;  -77.333;    0.000;205.66666
 734.41;  129.600;  -49.667;    0.000;179.26667
 734.67;  122.733;  -76.000;    0.000;198.73333
 734.94;  139.600;  -69.667;    0.000;209.26667
 735.20;  125.933;  -68.133;    0.000;194.06667
 735.46;  121.600;  -52.467;    0.000;174.06667
 735.73;  131.133;  -63.200;    0.000;194.33333
 735.99;  131.333;  -72.733;    0.000;204.06666
 736.25;  126.800;  -84.267;    0.000;211.06667
 736.51;  135.600;  -50.800;    0.000;186.40001
 736.77;  104.467;  -74.133;    0.000;178.60000
 737.04;  125.133;  -60.667;    0.000;185.80000
 737.30;  121.000;  -76.933;    0.000;197.93333
 737.56;  135.800;  -34.267;    0.000;170.06667
 737.82;  115.333;  -91.600;    0.000;206.93333
 738.09;  114.400;  -65.733;    0.000;180.13333
 738.35;   97.267;  -81.067;    0.000;178.33334
 738.61;  122.067;  -51.333;    0.000;173.40000
 738.87;  111.733;  -72.667;    0.000;184.39999
 739.14;  107.333;  -60.533;    0.000;167.86667
 739.40;   85.533; -110.533;    0.000;196.06667
 739.66;  109.467;  -47.267;    0.000;156.73333
 739.92;  114.000;  -73.267;    0.000;187.26667
 740.18;  119.133;  -62.000;    0.000;181.13333
 740.45;   97.267;  -93.133;    0.000;190.40000
 740.71;  113.333;  -51.200;    0.000;164.53334
 740.97;  110.467;  -59.667;    0.000;170.13334
 741.23;  100.667;  -66.533;    0.000;167.20000
 741.49;   87.667;  -82.600;    0.000;170.26666
 741.76;   95.067;  -60.000;    0.000;155.06667
 742.02;   85.333;  -94.333;    0.000;179.66667
 742.28;   85.867;  -60.733;    0.000;146.60000
 742.54;   79.667;  -77.400;    0.000;157.06667
 742.80;   73.867;  -62.600;    0.000;136.46667
 743.06;  103.667;  -66.800;    0.000;170.46667
 743.33;   94.733;  -54.600;    0.000;149.33333
 743.59;   74.067;  -94.400;    0.000;168.46667
 743.85;   99.733;  -65.000;    0.000;164.73333
 744.11;   86.533;  -79.333;    0.000;165.86667
 744.37;  112.267;  -56.600;    0.000;168.86667
 744.63;   65.200;  -84.267;    0.000;149.46667
 744.90;   65.600;  -70.467;    0.000;136.06667
 745.16;   86.133;  -77.467;    0.000;163.60000
 745.42;   76.733;  -53.200;    0.000;129.93333
 745.68;   74.400;  -69.667;    0.000;144.06667
 745.94;  105.533;  -41.400;    0.000;146.93333
 746.20;   88.333;  -76.933;    0.000;165.26667
 746.46;   76.467;  -45.467;    0.000;121.93333
 746.72;   86.667;  -64.067;    0.000;150.73333
 746.99;   68.133;  -60.933;    0.000;129.06667
 747.25;   93.000;  -51.133;    0.000;144.13334
 747.51;   50.133;  -68.667;    0.000;118.80000
 747.77;   80.800;  -70.333;    0.000;151.13334
 748.03;   44.133;  -82.333;    0.000;126.46667
 748.29;   56.067;  -76.867;    0.000;132.93333
 748.55;   67.667;  -69.800;    0.000;137.46667
 748.81;   43.000;  -76.733;    0.000;119.73333
 749.08;   87.533;  -46.333;    0.000;133.86666
 749.34;   60.333;  -55.800;    0.000;116.13333
 749.60;   81.067;  -54.667;    0.000;135.73333
 749.86;   72.067;  -66.467;    0.000;138.53333
 750.12;   34.267;  -68.533;    0.000;102.80000
 750.38;   49.600;  -82.333;    0.000;131.93333
 750.64;   43.000;  -60.133;    0.000;103.13334
 750.90;   53.467;  -52.200;    0.000;105.66667
 751.16;   47.200;  -79.933;    0.000;127.13334
 751.42;   48.933;  -69.600;    0.000;118.53333
 751.68;   47.467;  -41.467;    0.000;88.93333
 751.95;   34.267;  -81.733;    0.000;116.00000
 752.21;   20.133;  -71.067;    0.000;91.20000
 752.47;   35.667;  -90.800;    0.000;126.46667
 752.73;   31.733;  -78.067;    0.000;109.80000
 752.99;   12.000;  -93.933;    0.000;105.93333
 753.25;   29.267;  -72.800;    0.000;102.06667
 753.51;   46.400;  -77.000;    0.000;123.40000
 753.77;   23.467;  -66.867;    0.000;90.33334
 754.03;   30.200;  -86.733;    0.000;116.93333
 754.29;   32.933;  -59.267;    0.000;92.20000
 754.55;   63.000;  -74.800;    0.000;137.80000
 754.81;   33.000;  -73.800;    0.000;106.80000
 755.07;   27.867;  -87.067;    0.000;114.93333
 755.33;   24.267;  -65.867;    0.000;90.13334
 755.59;   24.533;  -81.733;    0.000;106.26666
 755.85;   27.333;  -77.600;    0.000;104.93333
 756.11;   22.000;  -76.600;    0.000;98.60000
 756.37;   29.800;  -82.800;    0.000;112.60000
 756.63;   63.733;  -52.067;    0.000;115.80000
 756.89;    2.067;  -85.400;    0.000;87.46667
 757.15;   24.333;  -86.000;    0.000;110.33333
 757.41;   56.200;  -37.733;    0.000;93.93333
 757.68;   22.000;  -83.133;    0.000;105.13333
 757.94;   32.333;  -53.400;    0.000;85.73333
 758.20;   31.667;  -70.533;    0.000;102.20000
 758.46;   10.200;  -83.067;    0.000;93.26667
 758.72;   22.933;  -82.467;    0.000;105.40000
 758.98;   28.067;  -65.000;    0.000;93.06667
 759.24;   14.000;  -78.800;    0.000;92.80000
 759.50;   28.467;  -66.200;    0.000;94.66666
 759.76;   23.200;  -70.333;    0.000;93.53334
 760.02;    0.867;  -45.267;    0.000;46.13333
 760.27;   28.200;  -79.133;    0.000;107.33333
 760.53;   19.133;  -48.867;    0.000;68.00000
 760.79;   20.933;  -77.933;    0.000;98.86667
 761.05;    1.733;  -63.133;    0.000;64.86667
 761.31;   16.867;  -72.867;    0.000;89.73334
 761.57;   42.467;  -54.200;    0.000;96.66667
 761.83;    1.067;  -68.733;    0.000;69.80000
 762.09;   -6.133;  -72.733;    0.000;66.60000
 762.35;    2.667;  -79.400;    0.000;82.06667
 762.61;  -22.533;  -60.333;    0.000;37.80000
 762.87;   19.333;  -69.067;    0.000;88.40000
 763.13;   -7.467;  -82.000;    0.000;74.53333
 763.39;   16.333;  -57.600;    0.000;73.93333
 763.65;    9.667;  -73.600;    0.000;83.26667
 763.91;   -3.200;  -69.867;    0.000;66.66667
 764.17;    6.400;  -52.133;    0.000;58.53334
 764.43;  -21.133;  -65.733;    0.000;44.60000
 764.69;   23.533;  -61.600;    0.000;85.13333
 764.95;    5.267;  -72.800;    0.000;78.06667
 765.21;  -12.267;  -61.533;    0.000;49.26667
 765.47;   15.400;  -82.400;    0.000;97.80000
 765.73;   -1.200;  -62.667;    0.000;61.46667
 765.98;    8.133;  -67.200;    0.000;75.33333
 766.24;   -2.133;  -77.000;    0.000;74.86667
 766.50;  -16.333;  -80.533;    0.000;64.20000
 766.76;    2.933;  -48.867;    0.000;51.80000
 767.02;    0.267;  -68.400;    0.000;68.66667
 767.28;    4.000;  -68.867;    0.000;72.86667
 767.54;  -10.933;  -85.067;    0.000;74.13333
 767.80;   -8.133;  -66.867;    0.000;58.73334
 768.06;   19.133;  -53.867;    0.000;73.00000
 768.32;   27.933;  -62.467;    0.000;90.40000
 768.58;  -10.000;  -71.133;    0.000;61.13333
 768.83;  -11.133;  -71.333;    0.000;60.20000
 769.09;  -20.867;  -73.667;    0.000;52.80000
 769.35;  -30.133;  -61.800;    0.000;31.66667
 769.61;  -15.333;  -80.400;    0.000;65.06667
 769.87;    3.867;  -55.667;    0.000;59.53333
 770.13;   -6.933;  -60.267;    0.000;53.33333
 770.39;  -36.800;  -82.733;    0.000;45.93333
 770.65;    9.933;  -64.000;    0.000;73.93333
 770.90;  -19.333;  -73.333;    0.000;54.00000
 771.16;  -23.200;  -82.933;    0.000;59.73333
 771.42;   -9.600;  -68.467;    0.000;58.86667
 771.68;  -18.667;  -81.400;    0.000;62.73334
 771.94;  -11.733;  -61.867;    0.000;50.13333
 772.20;  -13.933;  -79.067;    0.000;65.13333
 772.46;   -6.067;  -71.200;    0.000;65.13333
 772.71;   -8.000;  -85.267;    0.000;77.26667
 772.97;   16.267;  -52.267;    0.000;68.53333
 773.23;  -41.333;  -78.200;    0.000;36.86666
 773.49;   17.400;  -40.667;    0.000;58.06667
 773.75;  -21.000;  -82.200;    0.000;61.20000
 774.01;  -23.067;  -85.067;    0.000;62.00000
 774.26;  -26.667;  -92.400;    0.000;65.73334
 774.52;    3.267;  -54.600;    0.000;57.86667
 774.78;  -33.467;  -89.600;    0.000;56.13333
 775.04;   -1.000;  -26.200;    0.000;25.20000
 775.30;   -6.467;  -52.400;    0.000;45.93333
 775.56;  -27.867;  -71.533;    0.000;43.66667
 775.81;  -14.933;  -73.000;    0.000;58.06667
 776.07;  -33.133;  -78.400;    0.000;45.26667
 776.33;  -19.267;  -79.933;    0.000;60.66667
 776.59;  -25.133;  -73.400;    0.000;48.26667
 776.85;  -30.400;  -83.533;    0.000;53.13333
 777.10;  -16.667;  -55.200;    0.000;38.53333
 777.36;  -38.667;  -73.533;    0.000;34.86666
 777.62;   -7.133;  -49.400;    0.000;42.26667
 777.88;   -7.133;  -79.800;    0.000;72.66667
 778.14;  -22.000;  -60.133;    0.000;38.13334
 778.39;  -17.333;  -73.800;    0.000;56.46667
 778.65;  -18.667;  -68.733;    0.000;50.06666
 778.91;  -21.267;  -95.267;    0.000;74.00000
 779.17;  -25.067;  -56.000;    0.000;30.93333
 779.42;  -43.400; -105.133;    0.000;61.73333
 779.68;  -45.800;  -72.267;    0.000;26.46667
 779.94;  -24.467;  -92.533;    0.000;68.06667
 780.20;  -27.800;  -56.867;    0.000;29.06667
 780.46;  -40.133;  -87.333;    0.000;47.20000
 780.71;  -24.667;  -53.600;    0.000;28.93333
 780.97;  -24.267;  -80.600;    0.000;56.33333
 781.23;   -9.533;  -69.333;    0.000;59.80000
 781.49;  -13.667;  -68.667;    0.000;55.00000
 781.74;  -28.867;  -85.533;    0.000;56.66667
 782.00;  -53.000;  -98.000;    0.000;45.00000
 782.26;  -17.600;  -69.267;    0.000;51.66667
 782.52;  -10.467;  -85.400;    0.000;74.93334
 782.77;  -32.667;  -42.000;    0.000; 9.33333
 783.03;  -25.933;  -83.867;    0.000;57.93334
 783.29;  -41.733;  -82.600;    0.000;40.86666
 783.54;  -25.400;  -81.533;    0.000;56.13333
 783.80;  -21.000;  -27.200;    0.000; 6.20000
 784.06;  -34.600;  -72.267;    0.000;37.66667
 784.32;  -36.533;  -72.733;    0.000;36.20000
 784.57;   -6.067;  -67.533;    0.000;61.46667
 784.83;  -48.200;  -89.200;    0.000;41.00000
 785.09;  -51.000;  -84.400;    0.000;33.40000
 785.34;  -40.333;  -53.600;    0.000;13.26667
 785.60;  -24.867;  -69.467;    0.000;44.60000
 785.86;  -27.533;  -65.533;    0.000;38.00000
 786.12;  -11.000;  -62.667;    0.000;51.66667
 786.37;  -10.000;  -52.600;    0.000;42.60000
 786.63;  -61.533; -109.867;    0.000;48.33334
 786.89;  -30.400;  -70.467;    0.000;40.06667
 787.14;  -15.800;  -62.133;    0.000;46.33333
 787.40;  -21.333;  -63.667;    0.000;42.33333
 787.66;  -24.133;  -64.133;    0.000;40.00000
 787.91;  -10.267;  -46.000;    0.000;35.73333
 788.17;  -32.667;  -84.400;    0.000;51.73333
 788.43;  -49.600;  -78.600;    0.000;29.00000
 788.68;  -36.600;  -83.133;    0.000;46.53333
 788.94;  -24.933;  -69.267;    0.000;44.33334
 789.20;  -35.800;  -73.400;    0.000;37.60000
 789.45;  -57.400;  -81.267;    0.000;23.86667
 789.71;  -46.200;  -82.200;    0.000;36.00000
 789.97;  -27.467;  -40.333;    0.000;12.86666
 790.22;  -39.867;  -61.133;    0.000;21.26667
 790.48;  -28.067;  -83.133;    0.000;55.06666
 790.74;  -33.667;  -71.933;    0.000;38.26667
 790.99;   -9.267;  -58.533;    0.000;49.26667
 791.25;  -37.733;  -93.200;    0.000;55.46666
 791.51;  -44.600;  -91.200;    0.000;46.60000
 791.76;  -34.933;  -59.600;    0.000;24.66666
 792.02;  -44.933;  -65.600;    0.000;20.66666
 792.27;  -24.533;  -68.733;    0.000;44.20000
 792.53;  -52.667;  -62.800;    0.000;10.13333
 792.79;  -50.333;  -82.467;    0.000;32.13334
 793.04;  -55.067;  -72.667;    0.000;17.60000
 793.30;  -42.667;  -64.867;    0.000;22.20000
 793.56;  -41.733;  -61.800;    0.000;20.06667
 793.81;  -17.600;  -45.000;    0.000;27.40000
 794.07;  -47.667;  -63.600;    0.000;15.93333
 794.32;  -35.933;  -87.267;    0.000;51.33334
 794.58;  -38.467;  -83.333;    0.000;44.86667
 794.84;  -53.267;  -83.867;    0.000;30.60000
 795.09;  -44.067;  -54.067;    0.000;10.00000
 795.35;  -30.067;  -65.200;    0.000;35.13333
 795.60;  -29.733;  -45.800;    0.000;16.06667
 795.86;  -25.400;  -51.867;    0.000;26.46667
 796.12;  -58.867;  -69.933;    0.000;11.06667
 796.37;  -42.200;  -81.333;    0.000;39.13334
 796.63;  -34.000;  -57.200;    0.000;23.20000
 796.88;  -39.400;  -75.533;    0.000;36.13333
 797.14;  -48.467;  -53.333;    0.000; 4.86666
 797.39;  -39.933;  -58.000;    0.000;18.06667
 797.65;  -45.000;  -73.800;    0.000;28.80000
 797.91;  -45.400;  -82.200;    0.000;36.80000
 798.16;  -42.733;  -60.333;    0.000;17.60000
 798.42;  -45.000;  -91.933;    0.000;46.93333
 798.67;  -57.533;  -67.600;    0.000;10.06667
 798.93;  -58.000;  -91.800;    0.000;33.80000
 799.18;  -60.533;  -74.067;    0.000;13.53333
 799.44;  -80.000;  -92.067;    0.000;12.06667
 799.69;  -54.000;  -89.600;    0.000;35.60000
 799.95;  -54.867; -108.133;    0.000;53.26667
 800.21;  -62.667;  -75.200;    0.000;12.53333
 800.46;   -8.133;  -50.800;    0.000;42.66667
 800.72;  -56.200;  -78.867;    0.000;22.66667
 800.97;  -61.067;  -79.067;    0.000;18.00000
 801.23;  -54.000;  -74.400;    0.000;20.40000
 801.48;  -58.667;  -82.867;    0.000;24.20000
 801.74;  -55.000;  -74.533;    0.000;19.53333
 801.99;  -44.467;  -63.267;    0.000;18.80000
 802.25;  -43.733;  -68.733;    0.000;25.00000
 802.50;  -64.933;  -75.600;    0.000;10.66666
 802.76;  -43.267;  -57.533;    0.000;14.26667
 803.01;  -58.600; -105.867;    0.000;47.26667
 803.27;  -81.800;  -72.467;    0.000;-9.33334
 803.52;  -37.467;  -69.800;    0.000;32.33334
 803.78;  -50.067;  -55.733;    0.000; 5.66667
 804.03;  -52.400;  -80.533;    0.000;28.13333
 804.29;  -64.067;  -73.467;    0.000; 9.40000
 804.54;  -34.333;  -78.533;    0.000;44.20000
 804.80;  -64.400;  -87.267;    0.000;22.86667
 805.05;  -54.867;  -67.267;    0.000;12.40001
 805.31;  -43.133;  -44.667;    0.000; 1.53333
 805.56;  -32.067;  -64.600;    0.000;32.53333
 805.82;  -61.533;  -74.800;    0.000;13.26667
 806.07;  -47.600;  -66.800;    0.000;19.20000
 806.33;  -40.600;  -85.867;    0.000;45.26667
 806.58;  -57.467;  -93.200;    0.000;35.73333
 806.84;  -56.867;  -62.467;    0.000; 5.60000
 807.09;  -66.067;  -68.800;    0.000; 2.73334
 807.34;  -56.800;  -56.067;    0.000;-0.73333
 807.60;  -33.133;  -78.733;    0.000;45.59999
 807.85;  -38.600;  -49.667;    0.000;11.06667
 808.11;  -54.733;  -83.200;    0.000;28.46666
 808.36;  -39.667;  -59.400;    0.000;19.73333
 808.62;  -44.200;  -84.200;    0.000;40.00000
 808.87;  -44.133;  -86.000;    0.000;41.86666
 809.13;  -64.067;  -85.467;    0.000;21.40000
 809.38;  -32.467;  -52.467;    0.000;20.00000
 809.63;  -59.667;  -79.133;    0.000;19.46666
 809.89;  -31.867;  -48.667;    0.000;16.80000
 810.14;  -66.667;  -63.067;    0.000;-3.60000
 810.40;  -50.600;  -59.067;    0.000; 8.46667
 810.65;  -50.667;  -84.333;    0.000;33.66667
 810.91;  -70.067;  -83.000;    0.000;12.93333
 811.16;  -27.533;  -76.533;    0.000;49.00000
 811.41;  -35.533;  -57.733;    0.000;22.20000
 811.67;  -38.067;  -75.333;    0.000;37.26667
 811.92;  -20.467;  -51.600;    0.000;31.13333
 812.18;  -41.800;  -85.200;    0.000;43.40000
 812.43;  -58.400;  -66.667;    0.000; 8.26666
 812.68;  -55.200;  -71.733;    0.000;16.53333
 812.94;  -59.933;  -59.467;    0.000;-0.46667
 813.19;  -59.733;  -67.200;    0.000; 7.46666
 813.45;  -22.200;  -29.333;    0.000; 7.13333
 813.70;  -50.067;  -71.533;    0.000;21.46667
 813.95;  -44.600;  -63.267;    0.000;18.66667
 814.21;  -39.867;  -66.400;    0.000;26.53334
 814.46;  -41.067;  -80.600;    0.000;39.53333
 814.71;  -58.533;  -86.200;    0.000;27.66666
 814.97;  -56.333;  -57.667;    0.000; 1.33334
 815.22;  -52.467;  -90.867;    0.000;38.40000
 815.48;  -46.533;  -83.133;    0.000;36.60000
 815.73;   -5.000;  -27.667;    0.000;22.66667
 815.98;  -58.867;  -61.067;    0.000; 2.20000
 816.24;  -54.800;  -78.867;    0.000;24.06667
 816.49;  -55.600;  -68.400;    0.000;12.80000
 816.74;  -49.467;  -65.600;    0.000;16.13333
 817.00;  -22.000;  -44.933;    0.000;22.93333
 817.25;  -50.133;  -72.333;    0.000;22.20000
 817.50;  -52.067;  -74.067;    0.000;22.00000
 817.76;  -62.933;  -80.933;    0.000;18.00000
 818.01;  -73.600;  -69.133;    0.000;-4.46667
 818.26;  -55.800;  -76.800;    0.000;21.00000
 818.52;  -41.800;  -82.333;    0.000;40.53334
 818.77;  -74.267;  -76.400;    0.000; 2.13333
 819.02;  145.733;  140.600;    0.000; 5.13333
 819.28;  -47.333;  -80.067;    0.000;32.73333
 819.53;  -71.333;  -79.733;    0.000; 8.39999
 819.78;  -65.133;  -61.733;    0.000;-3.40000
 820.04;  -61.067;  -59.000;    0.000;-2.06667
 820.29;  -46.467;  -65.067;    0.000;18.60000
 820.54;  -22.933;  -57.733;    0.000;34.80000
 820.79;  -64.867;  -50.133;    0.000;-14.73333
 821.05;  -72.333;  -91.400;    0.000;19.06667
 821.30;  -34.667;  -40.000;    0.000; 5.33333
 821.55;  -24.333;  -22.267;    0.000;-2.06667
 821.81;  -48.933;  -69.733;    0.000;20.80000
 822.06;  -63.467;  -66.800;    0.000; 3.33334
 822.31;  -27.267;  -48.267;    0.000;21.00000
 822.56;  -62.733;  -76.933;    0.000;14.20000
 822.82;  -57.733;  -83.933;    0.000;26.20000
 823.07;  -53.600;  -34.133;    0.000;-19.46666
 823.32;  -83.200;  -96.267;    0.000;13.06667
 823.58;  -39.933;  -77.533;    0.000;37.60000
 823.83;  -65.733;  -77.533;    0.000;11.80000
 824.08;  -69.467;  -81.067;    0.000;11.60000
 824.33;  -63.200;  -91.267;    0.000;28.06667
 824.59;  -70.667;  -70.400;    0.000;-0.26666
 824.84;  -70.200;  -85.067;    0.000;14.86667
 825.09;  -63.400;  -80.733;    0.000;17.33333
 825.34;  -66.600;  -72.200;    0.000; 5.60000
 825.60;  -71.267;  -68.733;    0.000;-2.53334
 825.85;  -58.067; -110.267;    0.000;52.20000
 826.10;  -71.733;  -92.200;    0.000;20.46667
 826.35;  -65.267;  -91.667;    0.000;26.39999
 826.61;  -59.533;  -85.333;    0.000;25.80000
 826.86;  -73.733;  -84.667;    0.000;10.93333
 827.11;  -61.667;  -68.733;    0.000; 7.06666
 827.36;  -71.933;  -88.600;    0.000;16.66666
 827.61;  -81.000;  -86.867;    0.000; 5.86667
 827.87;  -69.867;  -77.333;    0.000; 7.46667
 828.12;  -65.467;  -67.400;    0.000; 1.93333
 828.37;  -48.267;  -66.867;    0.000;18.60000
 828.62;  -65.333;  -75.533;    0.000;10.20000
 828.88;  -66.200;  -58.533;    0.000;-7.66666
 829.13;  -46.000;  -41.800;    0.000;-4.20000
 829.38;  -73.200;  -80.333;    0.000; 7.13334
 829.63;  -69.800;  -57.267;    0.000;-12.53334
 829.88;  -77.533; -112.000;    0.000;34.46667
 830.14;  -76.600;  -67.600;    0.000;-9.00000
 830.39;  -44.733;  -56.400;    0.000;11.66667
 830.64;  -69.733;  -77.533;    0.000; 7.80000
 830.89;  -55.800;  -71.667;    0.000;15.86666
 831.14;  -51.667;  -64.933;    0.000;13.26667
 831.39;  -97.200;  -86.733;    0.000;-10.46667
 831.65;  -66.667;  -91.933;    0.000;25.26667
 831.90;  -74.400;  -68.667;    0.000;-5.73334
 832.15;  -54.200;  -58.733;    0.000; 4.53333
 832.40;  -52.133;  -59.267;    0.000; 7.13333
 832.65;  -61.933;  -72.600;    0.000;10.66666
 832.90;  -68.133;  -90.467;    0.000;22.33334
 833.16;  -72.267;  -64.933;    0.000;-7.33334
 833.41;  -70.067;  -81.667;    0.000;11.60000
 833.66;  -80.667;  -62.867;    0.000;-17.80000
 833.91;  -70.867;  -79.067;    0.000; 8.20000
 834.16;  -74.600;  -91.467;    0.000;16.86667
 834.41;  -74.733;  -73.800;    0.000;-0.93333
 834.66;  -34.867;  -46.333;    0.000;11.46667
 834.92;  -67.333;  -85.067;    0.000;17.73333
 835.17;  -74.200;  -77.200;    0.000; 3.00000
 835.42;  -76.733;  -74.200;    0.000;-2.53333
 835.67;  -53.467;  -67.200;    0.000;13.73333
 835.92;  -76.000;  -78.867;    0.000; 2.86667
 836.17;  -77.600;  -69.867;    0.000;-7.73333
 836.42;  -86.000;  -79.133;    0.000;-6.86667
 836.67;  -77.667;  -82.733;    0.000; 5.06667
 836.93;  -79.467;  -74.667;    0.000;-4.80000
 837.18;  -55.467;  -59.000;    0.000; 3.53333
 837.43;  -60.467;  -81.600;    0.000;21.13333
 837.68;  -61.067;  -70.600;    0.000; 9.53333
 837.93;  -87.067;  -93.733;    0.000; 6.66666
 838.18;  -75.867;  -70.133;    0.000;-5.73334
 838.43;  -70.467;  -93.333;    0.000;22.86667
 838.68;  -73.000;  -70.400;    0.000;-2.60000
 838.93;  -74.667;  -70.933;    0.000;-3.73333
 839.18;  -54.733;  -49.933;    0.000;-4.80000
 839.43;  -63.400;  -80.400;    0.000;17.00000
 839.69;  -90.067;  -82.800;    0.000;-7.26666
 839.94;  -91.000;  -89.200;    0.000;-1.80000
 840.19;  -54.200;  -71.333;    0.000;17.13334
 840.44;  -78.067;  -72.267;    0.000;-5.80000
 840.69;  -62.200;  -50.400;    0.000;-11.80000
 840.94;  -69.600;  -76.667;    0.000; 7.06667
 841.19;  -43.133;  -47.000;    0.000; 3.86666
 841.44;  -65.533;  -69.533;    0.000; 4.00000
 841.69;  -47.867;  -45.067;    0.000;-2.80000
 841.94;  -72.667;  -73.533;    0.000; 0.86667
 842.19;  -82.533;  -87.133;    0.000; 4.60000
 842.44;  -83.067;  -76.800;    0.000;-6.26666
 842.69;  -60.200;  -71.000;    0.000;10.80000
 842.94;  -69.867;  -69.667;    0.000;-0.20000
 843.19;  -74.467;  -76.267;    0.000; 1.80000
 843.44;  -85.600;  -73.267;    0.000;-12.33333
 843.69;  -84.533;  -91.933;    0.000; 7.40000
 843.94;  -14.600;   -9.400;    0.000;-5.20000
 844.19;  -72.133;  -76.733;    0.000; 4.60000
 844.44;  -56.800;  -87.733;    0.000;30.93333
 844.69;  -66.333;  -49.867;    0.000;-16.46667
 844.95;  -66.667;  -73.467;    0.000; 6.80000
 845.20;  -82.133;  -86.600;    0.000; 4.46667
 845.45;  -48.800;  -63.000;    0.000;14.20000
 845.70;  -64.200;  -68.333;    0.000; 4.13334
 845.95;  -75.200;  -78.533;    0.000; 3.33334
 846.20;  -67.667;  -77.267;    0.000; 9.60001
 846.45;  -79.400;  -72.000;    0.000;-7.40000
 846.70;  -62.733;  -49.333;    0.000;-13.40000
 846.95;  -61.200;  -74.467;    0.000;13.26667
 847.20;  -64.467;  -81.267;    0.000;16.80000
 847.44;  -38.333;  -34.000;    0.000;-4.33333
 847.69;  -66.800;  -72.200;    0.000; 5.39999
 847.94;  -68.533;  -80.400;    0.000;11.86667
 848.19;  -74.667;  -73.933;    0.000;-0.73333
 848.44;  -52.667;  -64.267;    0.000;11.60000
 848.69;  -88.533;  -59.267;    0.000;-29.26667
 848.94;  -80.867;  -56.800;    0.000;-24.06667
 849.19;  -77.667;  -94.733;    0.000;17.06667
 849.44;  -67.733;  -71.267;    0.000; 3.53334
 849.69;  -49.933;  -77.800;    0.000;27.86667
 849.94;  -64.000;  -92.733;    0.000;28.73333
 850.19;  -60.600;  -46.533;    0.000;-14.06667
 850.44;  -60.000;  -67.267;    0.000; 7.26667
 850.69;  -73.400;  -62.400;    0.000;-11.00000
 850.94;  -71.800;  -74.600;    0.000; 2.80000
 851.19;  -72.400;  -62.000;    0.000;-10.40000
 851.44;  -64.133;  -79.133;    0.000;15.00000
 851.69;  -59.867;  -85.800;    0.000;25.93334
 851.94;  -80.400;  -75.933;    0.000;-4.46667
 852.19;  -66.000;  -64.867;    0.000;-1.13333
 852.44;  -70.200;  -87.333;    0.000;17.13334
 852.68;  -80.867;  -76.933;    0.000;-3.93333
 852.93;  -59.600;  -60.000;    0.000; 0.40000
 853.18;  -65.267;  -71.000;    0.000; 5.73333
 853.43;  -73.400;  -77.933;    0.000; 4.53333
 853.68;  -75.333;  -71.200;    0.000;-4.13334
 853.93;  -52.267;  -65.267;    0.000;13.00000
 854.18;  -77.133;  -54.400;    0.000;-22.73333
 854.43;  -62.733;  -76.600;    0.000;13.86666
 854.68;  -58.933;  -82.267;    0.000;23.33334
 854.93;  -49.067;  -89.333;    0.000;40.26667
 855.18;  -72.733;  -74.933;    0.000; 2.20000
 855.42;  -47.133;  -50.933;    0.000; 3.80000
 855.67;  -66.667;  -72.400;    0.000; 5.73334
 855.92;  -81.133;  -73.067;    0.000;-8.06667
 856.17;  -51.867;  -41.333;    0.000;-10.53333
 856.42;  -66.800;  -73.933;    0.000; 7.13333
 856.67;  -63.800;  -52.667;    0.000;-11.13333
 856.92;  -72.067;  -86.333;    0.000;14.26667
 857.17;  -83.600;  -84.333;    0.000; 0.73334
 857.41;  -66.667;  -87.267;    0.000;20.60001
 857.66;  -56.733;  -63.667;    0.000; 6.93333
 857.91;  -61.533;  -77.533;    0.000;16.00000
 858.16;  -76.667;  -55.067;    0.000;-21.60000
 858.41;  -54.400;  -76.467;    0.000;22.06667
 858.66;  -63.667;  -69.600;    0.000; 5.93333
 858.91;  -59.467;  -74.600;    0.000;15.13333
 859.15;  -81.000;  -85.133;    0.000; 4.13333
 859.40;  -57.000;  -64.800;    0.000; 7.80000
 859.65;  -90.600;  -75.600;    0.000;-15.00000
 859.90;  -85.933;  -83.400;    0.000;-2.53333
 860.15;  -57.267;  -65.200;    0.000; 7.93333
 860.40;  -65.267;  -68.267;    0.000; 3.00000
 860.64;  -70.067;  -54.267;    0.000;-15.80000
 860.89;  -75.800;  -86.133;    0.000;10.33333
 861.14;  -77.400;  -84.600;    0.000; 7.20000
 861.39;  -70.000;  -72.800;    0.000; 2.80000
 861.64;  -63.733;  -63.533;    0.000;-0.20000
 861.88;  -54.000;  -73.667;    0.000;19.66666
 862.13;  -61.400;  -68.200;    0.000; 6.80000
 862.38;  -77.933;  -80.333;    0.000; 2.40000
 862.63;  -79.133;  -79.000;    0.000;-0.13333
 862.88;  -76.467;  -79.933;    0.000; 3.46667
 863.12;  -67.533;  -57.667;    0.000;-9.86666
 863.37;  -74.333;  -85.867;    0.000;11.53333
 863.62;  -71.933;  -62.000;    0.000;-9.93333
 863.87;  -85.533; -100.800;    0.000;15.26667
 864.12;  -60.200;  -66.533;    0.000; 6.33333
 864.36;  -72.000;  -84.733;    0.000;12.73333
 864.61;  -73.867;  -68.600;    0.000;-5.26667
 864.86;  -75.333;  -85.867;    0.000;10.53333
 865.11;  -65.333;  -48.933;    0.000;-16.40000
 865.35;  -54.133;  -52.400;    0.000;-1.73333
 865.60;  -47.667;  -72.733;    0.000;25.06666
 865.85;  -37.333;  -51.867;    0.000;14.53333
 866.10;  -58.467;  -70.000;    0.000;11.53333
 866.34;  -60.400;  -82.533;    0.000;22.13333
 866.59;  -52.600;  -60.933;    0.000; 8.33334
 866.84;  -77.533;  -87.067;    0.000; 9.53333
 867.09;  -70.533;  -72.667;    0.000; 2.13333
 867.33;  -73.800;  -73.067;    0.000;-0.73334
 867.58;  -83.733;  -67.467;    0.000;-16.26666
 867.83;  -79.133;  -86.267;    0.000; 7.13334
 868.08;  -59.200;  -43.400;    0.000;-15.80000
 868.32;  -65.467;  -66.267;    0.000; 0.80000
 868.57;  -78.067;  -78.867;    0.000; 0.80000
 868.82;  -48.933;  -74.467;    0.000;25.53333
 869.07; -100.333;  -83.067;    0.000;-17.26667
 869.31;  -58.533;  -82.067;    0.000;23.53333
 869.56;  -90.200;  -75.533;    0.000;-14.66666
 869.81;  -65.933;  -56.200;    0.000;-9.73333
 870.05;  -94.400;  -68.667;    0.000;-25.73334
 870.30;  -46.333;  -77.200;    0.000;30.86666
 870.55;  -50.867;  -62.667;    0.000;11.80000
 870.80;  -45.867;  -65.133;    0.000;19.26667
 871.04;  -69.067;  -44.933;    0.000;-24.13333
 871.29;  -63.600;  -78.933;    0.000;15.33334
 871.54;  -74.667;  -56.600;    0.000;-18.06667
 871.78;  -80.200;  -85.667;    0.000; 5.46667
 872.03;  -60.000;  -51.133;    0.000;-8.86666
 872.28;  -54.933;  -61.733;    0.000; 6.80000
 872.52;  -74.867;  -63.800;    0.000;-11.06667
 872.77;  -56.800;  -73.600;    0.000;16.80000
 873.02;  -68.533;  -81.000;    0.000;12.46667
 873.26;  -80.467;  -70.000;    0.000;-10.46667
 873.51;  -65.600;  -55.733;    0.000;-9.86666
 873.76;  -55.067;  -63.733;    0.000; 8.66667
 874.00;  -50.333;  -44.533;    0.000;-5.80000
 874.25;  -65.333;  -76.000;    0.000;10.66666
 874.50;  -84.667;  -73.400;    0.000;-11.26666
 874.74;  -66.200;  -79.200;    0.000;13.00000
 874.99;  -71.867;  -63.400;    0.000;-8.46667
 875.24;  -40.133;  -45.267;    0.000; 5.13333
 875.48;  -65.667;  -61.733;    0.000;-3.93333
 875.73;  -72.933;  -85.133;    0.000;12.20000
 875.98;  -60.467;  -58.400;    0.000;-2.06667
 876.22;  -65.333;  -78.067;    0.000;12.73333
 876.47;  -59.600;  -55.400;    0.000;-4.20000
 876.71;  -51.533;  -61.067;    0.000; 9.53333
 876.96;  -42.867;  -61.800;    0.000;18.93333
 877.21;  -50.067;  -85.800;    0.000;35.73334
 877.45;  -71.533;  -80.533;    0.000; 9.00000
 877.70;  -47.467;  -51.933;    0.000; 4.46667
 877.95;  -44.200;  -69.667;    0.000;25.46666
 878.19;  -32.533;  -34.067;    0.000; 1.53333
 878.44;  -63.267;  -62.667;    0.000;-0.60000
 878.68;  -32.000;  -39.000;    0.000; 7.00000
 878.93;  -52.733;  -65.533;    0.000;12.80000
 879.18;  -42.533;  -50.333;    0.000; 7.80000
 879.42;  -52.067;  -42.467;    0.000;-9.60000
 879.67;  -54.000;  -65.467;    0.000;11.46667
 879.91;  -47.667;  -41.467;    0.000;-6.20000
 880.16;  -52.667;  -46.133;    0.000;-6.53333
 880.40;  -62.600;  -51.733;    0.000;-10.86666
 880.65;  -62.133;  -49.867;    0.000;-12.26667
 880.90;  -35.933;  -41.800;    0.000; 5.86666
 881.14;  -37.067;  -64.400;    0.000;27.33334
 881.39;  -69.867;  -48.933;    0.000;-20.93333
 881.63;  -56.200;  -65.667;    0.000; 9.46666
 881.88;  -53.267;  -52.333;    0.000;-0.93333
 882.12;  -45.733;  -58.267;    0.000;12.53333
 882.37;  -48.000;  -62.600;    0.000;14.60000
 882.62;  -78.867;  -52.800;    0.000;-26.06667
 882.86;  -66.067;  -59.133;    0.000;-6.93333
 883.11;  -40.600;  -76.267;    0.000;35.66667
 883.35;  -30.467;  -29.533;    0.000;-0.93333
 883.60;  -25.267;  -30.467;    0.000; 5.20000
 883.84;  -54.000;  -52.133;    0.000;-1.86666
 884.09;  -44.067;  -64.400;    0.000;20.33334
 884.33;  -49.867;  -53.000;    0.000; 3.13334
 884.58;  -28.867;  -64.333;    0.000;35.46667
 884.82;  -25.867;  -66.467;    0.000;40.60000
 885.07;  -52.867;  -59.933;    0.000; 7.06667
 885.31;  -67.600;  -51.600;    0.000;-16.00000
 885.56;  -27.667;  -34.467;    0.000; 6.80000
 885.80;  -58.000;  -52.467;    0.000;-5.53333
 886.05;  -62.200;  -80.000;    0.000;17.80000
 886.29;  -36.933;  -37.600;    0.000; 0.66666
 886.54;  -33.533;  -75.867;    0.000;42.33334
 886.78;  -40.600;  -33.133;    0.000;-7.46666
 887.03;  -34.933;  -46.933;    0.000;12.00000
 887.27;   -9.333;  -21.733;    0.000;12.40000
 887.52;  -63.067;  -62.133;    0.000;-0.93333
 887.76;  -31.067;  -51.533;    0.000;20.46667
 888.01;  -55.467;  -52.067;    0.000;-3.40000
 888.25;  -43.467;  -59.067;    0.000;15.60000
 888.50;  -33.133;  -36.600;    0.000; 3.46666
 888.74;  -34.333;  -46.933;    0.000;12.60000
 888.99;  -30.400;  -45.200;    0.000;14.80000
 889.23;  -44.000;  -51.000;    0.000; 7.00000
 889.48;  -40.133;  -59.000;    0.000;18.86666
 889.72;  -27.333;  -42.867;    0.000;15.53333
 889.97;  -26.600;  -38.067;    0.000;11.46667
 890.21;  -40.400;  -35.067;    0.000;-5.33334
 890.46;  -15.533;  -33.600;    0.000;18.06666
 890.70;  -22.667;  -33.867;    0.000;11.20000
 890.94;  -45.800;  -39.600;    0.000;-6.20000
 891.19;  -22.667;  -24.467;    0.000; 1.80000
 891.43;  -21.400;  -41.200;    0.000;19.80000
 891.68;  -17.467;  -16.933;    0.000;-0.53333
 891.92;  -35.933;  -48.067;    0.000;12.13333
 892.17;  -37.133;  -12.533;    0.000;-24.60000
 892.41;  -20.133;  -39.600;    0.000;19.46667
 892.66;  -17.733;  -44.467;    0.000;26.73333
 892.90;   -3.800;   -5.000;    0.000; 1.20000
 893.14;  -21.267;  -18.267;    0.000;-3.00000
 893.39;   -2.533;  -43.533;    0.000;41.00000
 893.63;  -38.067;  -32.467;    0.000;-5.60000
 893.88;  -37.400;  -49.733;    0.000;12.33333
 894.12;  -15.600;  -30.533;    0.000;14.93333
 894.36;  -12.400;  -19.067;    0.000; 6.66667
 894.61;  -33.867;  -13.933;    0.000;-19.93333
 894.85;  -17.933;  -23.000;    0.000; 5.06667
 895.10;    1.400;  -14.133;    0.000;15.53333
 895.34;  -36.333;  -31.733;    0.000;-4.60000
 895.58;  -13.133;   -7.333;    0.000;-5.80000
 895.83;  -17.267;  -21.667;    0.000; 4.40000
 896.07;  -14.400;   -5.867;    0.000;-8.53333
 896.32;  -12.067;  -19.867;    0.000; 7.80000
 896.56;   -8.800;  -25.333;    0.000;16.53333
 896.80;   -6.067;  -21.333;    0.000;15.26667
 897.05;   12.267;  -26.600;    0.000;38.86667
 897.29;    9.800;   -7.867;    0.000;17.66667
 897.53;  -18.333;  -10.200;    0.000;-8.13333
 897.78;  -13.867;  -28.667;    0.000;14.80000
 898.02;    8.133;    6.600;    0.000; 1.53333
 898.26;   -9.467;  -19.933;    0.000;10.46667
 898.51;   13.200;    5.400;    0.000; 7.80000
 898.75;    2.533;  -27.200;    0.000;29.73333
 898.99;    6.200;   -5.400;    0.000;11.60000
 899.24;    2.133;  -17.067;    0.000;19.20000
 899.48;   26.467;   14.400;    0.000;12.06667
 899.73;   -4.067;    1.533;    0.000;-5.60000
 899.97;    9.200;   24.667;    0.000;-15.46667
 900.21;   47.667;   26.333;    0.000;21.33333
 900.46;   24.400;   14.467;    0.000; 9.93333
 900.70;   21.933;   37.000;    0.000;-15.06667
 900.94;   13.267;   18.667;    0.000;-5.40000
 901.18;   35.067;   38.867;    0.000;-3.80000
 901.43;   73.467;   46.467;    0.000;27.00000
 901.67;   52.533;   44.400;    0.000; 8.13333
 901.91;   46.400;   66.667;    0.000;-20.26666
 902.16;   67.267;   46.133;    0.000;21.13334
 902.40;   77.467;   68.800;    0.000; 8.66666
 902.64;   90.733;   80.800;    0.000; 9.93333
 902.89;   76.467;   81.733;    0.000;-5.26666
 903.13;  103.067;   86.733;    0.000;16.33334
 903.37;  125.600;  132.800;    0.000;-7.20000
 903.61;  137.400;  135.867;    0.000; 1.53333
 903.86;  144.067;  140.667;    0.000; 3.39999
 904.10;  161.333;  146.200;    0.000;15.13333
 904.34;  175.600;  171.133;    0.000; 4.46667
 904.59;  193.067;  189.400;    0.000; 3.66667
 904.83;  239.200;  214.067;    0.000;25.13333
 905.07;  265.200;  252.800;    0.000;12.40001
 905.31;  301.000;  319.667;    0.000;-18.66666
 905.56;  312.133;  313.533;    0.000;-1.39999
 905.80;  394.267;  365.800;    0.000;28.46667

