point3
Integration time [ms]:  30.000
Averaging Nr. [scans]: 15
Smoothing Nr. [pixels]: 0
Data measured with spectrometer [name]: 1307077U2
Wave   ;Sample   ;Dark     ;Reference;Scope Corrected for Dark
[nm]   ;[counts] ;[counts] ;[counts] 

 350.80;    2.133;  -10.667;    0.000;12.80000
 351.10;   -8.467;   -8.067;    0.000;-0.40000
 351.39;   23.333;   26.067;    0.000;-2.73333
 351.69;   -6.667;   -3.733;    0.000;-2.93333
 351.99;   13.400;   -3.067;    0.000;16.46667
 352.28;  -16.800;  -15.133;    0.000;-1.66667
 352.58;    1.800;  -14.067;    0.000;15.86667
 352.88;   -4.267;  -14.133;    0.000; 9.86667
 353.17;    4.200;   14.200;    0.000;-10.00000
 353.47;  -10.667;  -16.667;    0.000; 6.00000
 353.76;    0.267;  -10.600;    0.000;10.86667
 354.06;    7.667;  -14.867;    0.000;22.53333
 354.36;   20.067;   -5.800;    0.000;25.86667
 354.65;   15.467;   14.067;    0.000; 1.40000
 354.95;   -1.533;   -1.600;    0.000; 0.06667
 355.24;    6.933;  -15.667;    0.000;22.60000
 355.54;    8.933;   -5.000;    0.000;13.93333
 355.84;    8.933;   -6.600;    0.000;15.53333
 356.13;   21.400;   12.733;    0.000; 8.66667
 356.43;  -14.067;  -19.667;    0.000; 5.60000
 356.72;    1.533;  -21.133;    0.000;22.66667
 357.02;    5.000;    2.133;    0.000; 2.86667
 357.31;   29.000;    4.667;    0.000;24.33333
 357.61;    4.267;    0.200;    0.000; 4.06667
 357.91;   -3.933;  -11.800;    0.000; 7.86667
 358.20;  -13.267;   -3.400;    0.000;-9.86667
 358.50;   -7.600;  -28.600;    0.000;21.00000
 358.79;    0.067;    9.933;    0.000;-9.86667
 359.09;   16.200;   10.067;    0.000; 6.13333
 359.38;   -3.333;   -0.600;    0.000;-2.73333
 359.68;  -23.400;  -34.933;    0.000;11.53333
 359.98;   23.467;   -6.533;    0.000;30.00000
 360.27;   -2.133;    3.667;    0.000;-5.80000
 360.57;   -3.800;    7.267;    0.000;-11.06667
 360.86;   22.200;  -18.067;    0.000;40.26667
 361.16;   -8.067;  -31.667;    0.000;23.60000
 361.45;    6.400;   -6.333;    0.000;12.73333
 361.75;   -9.600;  -27.533;    0.000;17.93333
 362.04;   43.200;   17.200;    0.000;26.00000
 362.34;   10.667;   -6.667;    0.000;17.33333
 362.64;  -13.267;    2.267;    0.000;-15.53333
 362.93;  -23.867;    0.600;    0.000;-24.46667
 363.23;    3.267;  -25.467;    0.000;28.73333
 363.52;   12.867;  -21.333;    0.000;34.20000
 363.82;   -2.267;  -17.933;    0.000;15.66667
 364.11;   24.133;  -12.867;    0.000;37.00000
 364.41;  -11.467;  -22.067;    0.000;10.60000
 364.70;    2.067;    3.333;    0.000;-1.26667
 365.00;   -7.600;  -18.133;    0.000;10.53333
 365.29;   -6.067;  -21.267;    0.000;15.20000
 365.59;   -0.933;  -18.800;    0.000;17.86667
 365.88;   -7.533;  -11.133;    0.000; 3.60000
 366.18;   -2.800;   -9.533;    0.000; 6.73333
 366.47;  -14.800;  -19.333;    0.000; 4.53333
 366.77;   -5.067;  -15.067;    0.000;10.00000
 367.06;   15.133;  -14.133;    0.000;29.26667
 367.36;   15.000;    0.467;    0.000;14.53333
 367.65;    8.800;   -4.733;    0.000;13.53333
 367.95;    7.133;  -20.400;    0.000;27.53333
 368.24;    5.867;    2.467;    0.000; 3.40000
 368.54;   -0.600;  -22.867;    0.000;22.26667
 368.83;   16.600;   11.067;    0.000; 5.53333
 369.13;    4.867;    1.133;    0.000; 3.73333
 369.42;  -19.000;  -12.000;    0.000;-7.00000
 369.72;    6.467;    6.800;    0.000;-0.33333
 370.01;   15.533;   -6.733;    0.000;22.26667
 370.31;    5.333;   -5.067;    0.000;10.40000
 370.60;   27.600;   28.667;    0.000;-1.06667
 370.90;   -7.667;  -16.200;    0.000; 8.53333
 371.19;  -18.267;  -13.867;    0.000;-4.40000
 371.49;  -16.667;  -27.000;    0.000;10.33333
 371.78;   -6.800;  -13.800;    0.000; 7.00000
 372.08;    8.600;  -15.333;    0.000;23.93333
 372.37;   -3.067;    3.200;    0.000;-6.26667
 372.67;    3.800;   -0.533;    0.000; 4.33333
 372.96;  -14.733;  -21.667;    0.000; 6.93333
 373.26;   -9.000;  -18.467;    0.000; 9.46667
 373.55;    2.667;   -9.867;    0.000;12.53333
 373.85;  -35.133;   -1.933;    0.000;-33.20000
 374.14;  -12.467;    3.333;    0.000;-15.80000
 374.43;   -8.667;  -28.533;    0.000;19.86667
 374.73;  -12.133;  -17.400;    0.000; 5.26667
 375.02;    4.867;    6.933;    0.000;-2.06667
 375.32;    8.333;  -13.000;    0.000;21.33333
 375.61;   -9.133;  -28.133;    0.000;19.00000
 375.91;   -5.267;   -3.067;    0.000;-2.20000
 376.20;  -18.933;  -32.933;    0.000;14.00000
 376.50;  -14.333;  -31.933;    0.000;17.60000
 376.79;    2.467;  -14.400;    0.000;16.86667
 377.08;    5.467;  -19.400;    0.000;24.86667
 377.38;   -7.733;  -25.333;    0.000;17.60000
 377.67;  -18.333;  -22.733;    0.000; 4.40000
 377.97;  -22.933;  -36.200;    0.000;13.26667
 378.26;   10.400;    7.000;    0.000; 3.40000
 378.56;  -26.333;  -28.000;    0.000; 1.66667
 378.85;    3.933;   -7.867;    0.000;11.80000
 379.14;    5.933;  -26.200;    0.000;32.13333
 379.44;    5.533;    1.600;    0.000; 3.93333
 379.73;    2.067;   -8.333;    0.000;10.40000
 380.03;    2.800;   -5.000;    0.000; 7.80000
 380.32;   -6.933;  -14.000;    0.000; 7.06667
 380.62;   14.600;    4.000;    0.000;10.60000
 380.91;   -4.800;   -8.933;    0.000; 4.13333
 381.20;  -19.067;    1.133;    0.000;-20.20000
 381.50;    3.733;  -19.467;    0.000;23.20000
 381.79;   -5.067;  -13.600;    0.000; 8.53333
 382.09;  -18.600;  -21.400;    0.000; 2.80000
 382.38;  -11.267;    8.867;    0.000;-20.13333
 382.67;  -23.000;  -24.733;    0.000; 1.73333
 382.97;   -3.133;  -13.200;    0.000;10.06667
 383.26;   -6.133;    3.467;    0.000;-9.60000
 383.56;   -5.533;   -0.267;    0.000;-5.26667
 383.85;   -2.867;  -25.267;    0.000;22.40000
 384.14;    3.800;   20.000;    0.000;-16.20000
 384.44;   -3.467;  -19.600;    0.000;16.13333
 384.73;  -10.200;  -17.200;    0.000; 7.00000
 385.02;    0.667;  -20.200;    0.000;20.86667
 385.32;   11.200;  -14.933;    0.000;26.13333
 385.61;  -21.000;  -26.667;    0.000; 5.66667
 385.91;    2.200;   -2.333;    0.000; 4.53333
 386.20;  -13.467;  -23.533;    0.000;10.06667
 386.49;  -18.933;  -21.800;    0.000; 2.86667
 386.79;   -2.467;  -18.800;    0.000;16.33333
 387.08;   -9.400;  -15.467;    0.000; 6.06667
 387.37;    6.800;  -16.733;    0.000;23.53333
 387.67;   -9.000;  -18.667;    0.000; 9.66667
 387.96;  -21.400;  -20.533;    0.000;-0.86667
 388.25;    9.133;   18.467;    0.000;-9.33333
 388.55;  -13.533;  -22.933;    0.000; 9.40000
 388.84;    2.000;  -23.867;    0.000;25.86667
 389.14;   -6.200;  -27.800;    0.000;21.60000
 389.43;   -4.467;   -8.267;    0.000; 3.80000
 389.72;  -22.733;  -30.867;    0.000; 8.13333
 390.02;  -26.333;   -6.533;    0.000;-19.80000
 390.31;  -16.000;  -15.667;    0.000;-0.33333
 390.60;  -10.667;  -17.267;    0.000; 6.60000
 390.90;    1.400;  -27.867;    0.000;29.26667
 391.19;    0.867;   -2.933;    0.000; 3.80000
 391.48;  -12.200;   -2.333;    0.000;-9.86667
 391.78;  -25.000;   -2.867;    0.000;-22.13333
 392.07;   32.000;   34.933;    0.000;-2.93333
 392.36;    4.533;   -3.400;    0.000; 7.93333
 392.66;   -7.733;  -14.733;    0.000; 7.00000
 392.95;  -20.667;  -17.867;    0.000;-2.80000
 393.24;  -33.333;  -34.867;    0.000; 1.53333
 393.53;  -10.267;   -1.600;    0.000;-8.66667
 393.83;  -22.133;  -34.933;    0.000;12.80000
 394.12;   -6.867;   -8.600;    0.000; 1.73333
 394.41;  -14.800;  -29.600;    0.000;14.80000
 394.71;   -0.800;   -6.600;    0.000; 5.80000
 395.00;   -5.200;  -28.000;    0.000;22.80000
 395.29;  -11.733;   -1.800;    0.000;-9.93333
 395.59;  -17.067;  -28.533;    0.000;11.46667
 395.88;   -2.867;  -21.267;    0.000;18.40000
 396.17;  -19.933;  -20.067;    0.000; 0.13334
 396.46;    8.067;    5.867;    0.000; 2.20000
 396.76;  -12.333;  -37.933;    0.000;25.60000
 397.05;   17.733;   10.333;    0.000; 7.40000
 397.34;  -30.800;  -40.800;    0.000;10.00000
 397.64;  -15.467;   -8.133;    0.000;-7.33333
 397.93;    1.133;  -30.533;    0.000;31.66667
 398.22;  -40.067;  -32.133;    0.000;-7.93333
 398.51;   -7.133;  -13.467;    0.000; 6.33333
 398.81;  -29.067;   -3.000;    0.000;-26.06667
 399.10;   -4.867;   -8.800;    0.000; 3.93333
 399.39;   -2.600;   -8.067;    0.000; 5.46667
 399.69;    6.133;   -5.067;    0.000;11.20000
 399.98;   -4.333;    1.200;    0.000;-5.53333
 400.27;  -19.333;  -36.133;    0.000;16.80000
 400.56;   -5.733;   -8.467;    0.000; 2.73333
 400.86;   -5.333;  -19.333;    0.000;14.00000
 401.15;    3.533;  -11.067;    0.000;14.60000
 401.44;  -17.400;  -40.467;    0.000;23.06667
 401.73;    5.000;    0.133;    0.000; 4.86667
 402.03;    3.200;   -9.000;    0.000;12.20000
 402.32;  -13.333;  -26.933;    0.000;13.60000
 402.61;   -6.467;   -7.467;    0.000; 1.00000
 402.90;  -15.467;  -32.067;    0.000;16.60000
 403.20;   -6.000;    2.933;    0.000;-8.93333
 403.49;    7.467;  -12.067;    0.000;19.53333
 403.78;   -6.333;  -33.600;    0.000;27.26666
 404.07;   -7.333;  -20.400;    0.000;13.06667
 404.37;  -28.600;  -10.867;    0.000;-17.73333
 404.66;  -14.400;    6.467;    0.000;-20.86667
 404.95;  -14.867;   -8.400;    0.000;-6.46667
 405.24;  -14.133;   -6.800;    0.000;-7.33333
 405.53;   -5.333;  -17.333;    0.000;12.00000
 405.83;   -1.533;    1.600;    0.000;-3.13333
 406.12;  -20.800;  -21.133;    0.000; 0.33333
 406.41;   -1.400;   15.533;    0.000;-16.93333
 406.70;   -9.933;  -22.467;    0.000;12.53333
 407.00;   -6.467;    5.067;    0.000;-11.53333
 407.29;   -3.800;  -20.000;    0.000;16.20000
 407.58;  -12.667;  -19.000;    0.000; 6.33333
 407.87;   -2.733;  -29.333;    0.000;26.60000
 408.16;  -22.533;  -21.400;    0.000;-1.13333
 408.46;  -27.667;  -36.867;    0.000; 9.20000
 408.75;   -5.867;  -28.667;    0.000;22.80000
 409.04;   -4.400;  -29.733;    0.000;25.33333
 409.33;    6.600;  -13.533;    0.000;20.13333
 409.62;    0.800;    2.267;    0.000;-1.46667
 409.92;   13.467;  -16.000;    0.000;29.46667
 410.21;  -10.600;  -34.867;    0.000;24.26666
 410.50;  -38.067;  -19.000;    0.000;-19.06667
 410.79;  -11.267;   -0.933;    0.000;-10.33333
 411.08;  -18.267;  -12.267;    0.000;-6.00000
 411.37;  -22.067;  -24.400;    0.000; 2.33333
 411.67;   -8.533;  -24.667;    0.000;16.13333
 411.96;  -12.000;  -21.533;    0.000; 9.53333
 412.25;   -8.600;  -11.000;    0.000; 2.40000
 412.54;    0.933;  -18.200;    0.000;19.13333
 412.83;  -37.200;  -14.667;    0.000;-22.53333
 413.13;  -22.933;  -19.400;    0.000;-3.53333
 413.42;   -1.733;  -18.667;    0.000;16.93333
 413.71;   -8.133;  -21.000;    0.000;12.86667
 414.00;   -6.667;  -32.467;    0.000;25.80000
 414.29;    2.400;  -19.867;    0.000;22.26667
 414.58;   -1.067;  -29.867;    0.000;28.80000
 414.87;  -35.000;  -40.667;    0.000; 5.66667
 415.17;  -22.933;  -30.333;    0.000; 7.40000
 415.46;  -10.133;  -29.000;    0.000;18.86667
 415.75;  -20.200;   -8.733;    0.000;-11.46667
 416.04;   -7.067;  -10.400;    0.000; 3.33333
 416.33;  -16.200;  -15.933;    0.000;-0.26667
 416.62;  -19.733;  -25.867;    0.000; 6.13333
 416.91;  -16.800;   14.667;    0.000;-31.46667
 417.21;  -16.200;  -36.667;    0.000;20.46667
 417.50;   -9.467;  -42.533;    0.000;33.06667
 417.79;   -9.867;  -17.800;    0.000; 7.93333
 418.08;  -18.267;   -5.933;    0.000;-12.33333
 418.37;  -30.000;  -20.867;    0.000;-9.13333
 418.66;  -16.467;  -16.133;    0.000;-0.33333
 418.95;   25.200;  -16.733;    0.000;41.93333
 419.24;  -19.933;  -30.933;    0.000;11.00000
 419.54;  -14.067;  -19.600;    0.000; 5.53333
 419.83;   -2.867;  -17.600;    0.000;14.73333
 420.12;  -26.400;  -29.933;    0.000; 3.53333
 420.41;   17.267;   17.667;    0.000;-0.40000
 420.70;  -21.333;  -33.733;    0.000;12.40000
 420.99;  -12.200;   -4.667;    0.000;-7.53333
 421.28;  -21.667;  -20.067;    0.000;-1.60000
 421.57;   -0.600;   -5.067;    0.000; 4.46667
 421.86;   -3.867;    1.267;    0.000;-5.13333
 422.16;  -14.467;  -14.000;    0.000;-0.46667
 422.45;  -10.133;  -40.467;    0.000;30.33333
 422.74;  -14.400;  -16.867;    0.000; 2.46667
 423.03;   -3.933;  -15.133;    0.000;11.20000
 423.32;  -30.200;  -11.533;    0.000;-18.66667
 423.61;   11.200;  -12.733;    0.000;23.93333
 423.90;   -3.667;  -27.000;    0.000;23.33333
 424.19;   58.400;   27.933;    0.000;30.46667
 424.48;  -12.267;  -15.733;    0.000; 3.46667
 424.77;   -3.600;  -11.533;    0.000; 7.93333
 425.06;    3.600;    0.400;    0.000; 3.20000
 425.35;  -20.800;   -3.200;    0.000;-17.60000
 425.65;  -22.800;  -21.733;    0.000;-1.06667
 425.94;  -18.133;  -35.067;    0.000;16.93333
 426.23;  -11.733;  -37.200;    0.000;25.46667
 426.52;  -10.600;  -32.333;    0.000;21.73333
 426.81;   15.667;   30.267;    0.000;-14.60000
 427.10;  -24.733;  -34.267;    0.000; 9.53333
 427.39;  -24.133;  -18.133;    0.000;-6.00000
 427.68;   -7.467;  -21.067;    0.000;13.60000
 427.97;   -4.000;    5.667;    0.000;-9.66667
 428.26;  -23.800;  -31.667;    0.000; 7.86667
 428.55;    8.333;   -6.133;    0.000;14.46667
 428.84;    1.133;   -9.933;    0.000;11.06667
 429.13;  -17.000;  -28.067;    0.000;11.06667
 429.42;    5.333;  -16.867;    0.000;22.20000
 429.71;    7.200;  -20.600;    0.000;27.80000
 430.00;  -19.867;   -8.267;    0.000;-11.60000
 430.29;  -13.000;  -40.733;    0.000;27.73333
 430.58;  -11.933;  -24.933;    0.000;13.00000
 430.87;  -11.400;  -30.667;    0.000;19.26667
 431.16;  -28.200;  -11.200;    0.000;-17.00000
 431.46;    8.200;  -15.733;    0.000;23.93333
 431.75;  -19.600;  -28.133;    0.000; 8.53333
 432.04;   -2.067;  -15.867;    0.000;13.80000
 432.33;  -24.400;  -12.800;    0.000;-11.60000
 432.62;  -18.333;  -21.933;    0.000; 3.60000
 432.91;  -37.667;  -26.333;    0.000;-11.33333
 433.20;   -5.600;  -20.867;    0.000;15.26667
 433.49;  -11.000;  -45.733;    0.000;34.73333
 433.78;  -22.800;  -30.000;    0.000; 7.20000
 434.07;  -26.733;  -22.133;    0.000;-4.60000
 434.36;   -7.067;  -20.933;    0.000;13.86667
 434.65;  -17.933;  -26.733;    0.000; 8.80000
 434.94;  -17.067;  -41.800;    0.000;24.73333
 435.23;  -16.067;  -13.067;    0.000;-3.00000
 435.52;    1.000;   -6.467;    0.000; 7.46667
 435.81;  -21.800;  -18.200;    0.000;-3.60000
 436.10;   -8.133;  -25.267;    0.000;17.13333
 436.39;   -6.867;  -15.267;    0.000; 8.40000
 436.68;   -3.067;  -22.333;    0.000;19.26667
 436.97;  -15.000;  -24.333;    0.000; 9.33333
 437.26;  -14.267;   -8.200;    0.000;-6.06667
 437.55;   -7.733;  -33.800;    0.000;26.06667
 437.83;  -11.267;  -24.733;    0.000;13.46667
 438.12;  -26.867;  -37.200;    0.000;10.33333
 438.41;   -6.067;  -15.267;    0.000; 9.20000
 438.70;   19.400;   23.600;    0.000;-4.20000
 438.99;   15.600;   -2.933;    0.000;18.53333
 439.28;  -17.600;  -22.600;    0.000; 5.00000
 439.57;  -17.400;  -18.667;    0.000; 1.26667
 439.86;   -8.400;  -32.467;    0.000;24.06667
 440.15;   -3.067;   -6.933;    0.000; 3.86667
 440.44;  -18.733;  -29.667;    0.000;10.93333
 440.73;  -19.333;  -41.400;    0.000;22.06667
 441.02;  -24.867;  -29.800;    0.000; 4.93333
 441.31;    1.067;  -15.733;    0.000;16.80000
 441.60;    5.533;  -20.667;    0.000;26.20000
 441.89;  -23.933;  -26.867;    0.000; 2.93333
 442.18;  -12.333;  -16.800;    0.000; 4.46667
 442.47;  -17.067;  -13.200;    0.000;-3.86667
 442.76;  -39.867;  -26.667;    0.000;-13.20000
 443.05;    1.067;  -11.400;    0.000;12.46667
 443.34;  -14.600;  -25.333;    0.000;10.73333
 443.63;  -22.800;  -34.067;    0.000;11.26667
 443.91;    2.933;  -28.533;    0.000;31.46667
 444.20;  -18.867;  -36.600;    0.000;17.73333
 444.49;  -18.600;  -36.200;    0.000;17.60000
 444.78;  -11.600;    1.933;    0.000;-13.53333
 445.07;    9.733;  -20.067;    0.000;29.80000
 445.36;  -27.333;  -35.800;    0.000; 8.46667
 445.65;   -5.400;  -16.267;    0.000;10.86667
 445.94;  -19.000;  -21.400;    0.000; 2.40000
 446.23;  -17.467;  -38.067;    0.000;20.60000
 446.52;   -9.133;   -5.467;    0.000;-3.66667
 446.81;   -8.133;  -17.400;    0.000; 9.26667
 447.10;  -14.600;  -19.533;    0.000; 4.93333
 447.38;  -19.133;  -38.600;    0.000;19.46667
 447.67;   -2.667;  -50.000;    0.000;47.33333
 447.96;  -11.533;  -49.267;    0.000;37.73333
 448.25;  -16.600;  -11.933;    0.000;-4.66667
 448.54;  102.467;   81.200;    0.000;21.26667
 448.83;  -14.667;  -28.067;    0.000;13.40000
 449.12;  -20.467;  -47.133;    0.000;26.66667
 449.41;   -8.000;  -25.467;    0.000;17.46667
 449.70;  -22.067;  -39.867;    0.000;17.80000
 449.98;  -28.733;  -28.800;    0.000; 0.06667
 450.27;    2.133;  -24.600;    0.000;26.73333
 450.56;  -21.933;  -23.733;    0.000; 1.80000
 450.85;   -5.800;  -14.533;    0.000; 8.73333
 451.14;  -21.400;  -27.867;    0.000; 6.46667
 451.43;  -15.667;  -44.133;    0.000;28.46667
 451.72;   -9.200;  -29.800;    0.000;20.60000
 452.01;   11.667;  -25.533;    0.000;37.20000
 452.29;  -16.400;  -27.533;    0.000;11.13333
 452.58;  -10.800;  -35.333;    0.000;24.53333
 452.87;  -15.533;  -17.133;    0.000; 1.60000
 453.16;  -25.800;  -26.533;    0.000; 0.73333
 453.45;   15.067;   -0.200;    0.000;15.26667
 453.74;  -13.200;  -14.467;    0.000; 1.26667
 454.03;  -23.667;  -18.267;    0.000;-5.40000
 454.31;  -15.733;  -32.933;    0.000;17.20000
 454.60;  -24.200;  -23.133;    0.000;-1.06667
 454.89;   -3.267;  -17.333;    0.000;14.06667
 455.18;  -33.867;  -21.933;    0.000;-11.93333
 455.47;  -21.200;  -49.200;    0.000;28.00000
 455.76;  -47.600;  -17.267;    0.000;-30.33333
 456.04;    2.067;  -30.333;    0.000;32.40000
 456.33;  -30.200;  -26.533;    0.000;-3.66667
 456.62;  -29.200;  -24.867;    0.000;-4.33333
 456.91;  -21.267;  -47.000;    0.000;25.73333
 457.20;  -13.200;  -13.333;    0.000; 0.13333
 457.49;  -22.400;  -22.933;    0.000; 0.53333
 457.77;  -11.067;  -28.667;    0.000;17.60000
 458.06;  -11.733;  -19.333;    0.000; 7.60000
 458.35;  -26.400;  -35.133;    0.000; 8.73334
 458.64;  -40.267;  -13.733;    0.000;-26.53333
 458.93;  -18.267;  -33.933;    0.000;15.66667
 459.21;  -19.533;  -45.267;    0.000;25.73333
 459.50;   -9.800;  -24.333;    0.000;14.53333
 459.79;  -26.333;  -36.400;    0.000;10.06667
 460.08;  -19.667;  -42.400;    0.000;22.73334
 460.37;  -12.733;  -24.333;    0.000;11.60000
 460.65;  -10.000;  -26.333;    0.000;16.33333
 460.94;  -16.667;  -36.333;    0.000;19.66667
 461.23;   -8.133;  -32.533;    0.000;24.40000
 461.52;    8.867;   17.333;    0.000;-8.46667
 461.81;  -22.600;  -33.933;    0.000;11.33333
 462.09;  -25.333;  -24.667;    0.000;-0.66667
 462.38;  -28.600;  -53.333;    0.000;24.73333
 462.67;  -15.333;  -15.400;    0.000; 0.06667
 462.96;  -29.067;  -40.267;    0.000;11.20000
 463.24;  -23.267;  -18.467;    0.000;-4.80000
 463.53;   -7.533;  -25.467;    0.000;17.93333
 463.82;  -29.400;   -2.667;    0.000;-26.73333
 464.11;  -31.267;  -34.867;    0.000; 3.60000
 464.40;  -14.067;  -35.800;    0.000;21.73333
 464.68;  -46.400;  -47.400;    0.000; 1.00000
 464.97;   -4.600;  -32.333;    0.000;27.73333
 465.26;   -5.733;   -9.533;    0.000; 3.80000
 465.55;   -4.133;  -12.600;    0.000; 8.46667
 465.83;  -22.333;  -36.467;    0.000;14.13333
 466.12;  -21.200;  -22.400;    0.000; 1.20000
 466.41;  -17.467;  -38.200;    0.000;20.73333
 466.70;  -18.467;  -33.533;    0.000;15.06667
 466.98;  -23.800;  -44.333;    0.000;20.53333
 467.27;  -11.467;  -12.800;    0.000; 1.33333
 467.56;    1.133;   -5.267;    0.000; 6.40000
 467.85;    1.467;  -13.867;    0.000;15.33333
 468.13;  -28.467;  -48.000;    0.000;19.53333
 468.42;  -14.067;  -30.467;    0.000;16.40000
 468.71;  -10.000;  -39.200;    0.000;29.20000
 468.99;  -18.267;  -11.267;    0.000;-7.00000
 469.28;  -14.933;  -31.867;    0.000;16.93333
 469.57;  -26.867;  -35.200;    0.000; 8.33333
 469.86;   -8.333;  -50.333;    0.000;42.00000
 470.14;  -21.600;  -14.333;    0.000;-7.26667
 470.43;    3.200;  -24.800;    0.000;28.00000
 470.72;  -29.267;  -28.933;    0.000;-0.33333
 471.00;  -15.667;  -41.667;    0.000;26.00000
 471.29;   -0.600;   12.733;    0.000;-13.33333
 471.58;   11.267;   -6.133;    0.000;17.40000
 471.87;  -23.000;  -29.800;    0.000; 6.80000
 472.15;  -16.667;  -34.400;    0.000;17.73334
 472.44;    2.733;    8.400;    0.000;-5.66667
 472.73;  -33.867;  -59.467;    0.000;25.60000
 473.01;  -16.467;  -23.667;    0.000; 7.20000
 473.30;  -10.867;  -31.000;    0.000;20.13333
 473.59;  -14.600;  -31.467;    0.000;16.86667
 473.87;   -0.400;  -26.933;    0.000;26.53333
 474.16;  -33.067;  -33.600;    0.000; 0.53333
 474.45;  -14.067;  -42.133;    0.000;28.06667
 474.74;  -37.533;  -44.467;    0.000; 6.93333
 475.02;  -14.133;  -35.067;    0.000;20.93333
 475.31;   14.267;  -24.800;    0.000;39.06667
 475.60;  -13.133;  -15.400;    0.000; 2.26667
 475.88;  -13.733;  -26.733;    0.000;13.00000
 476.17;   15.000;   -1.333;    0.000;16.33333
 476.46;   -4.200;  -39.867;    0.000;35.66667
 476.74;  -17.267;  -49.867;    0.000;32.60000
 477.03;  -21.400;  -24.000;    0.000; 2.60000
 477.32;  -17.533;    2.133;    0.000;-19.66667
 477.60;   -0.133;  -24.133;    0.000;24.00000
 477.89;  -10.533;  -30.400;    0.000;19.86667
 478.18;   -3.667;    0.067;    0.000;-3.73333
 478.46;    6.467;  -30.333;    0.000;36.80000
 478.75;  -14.867;  -35.267;    0.000;20.40000
 479.03;   -3.133;  -44.067;    0.000;40.93333
 479.32;   -8.267;  -44.533;    0.000;36.26667
 479.61;  -11.067;  -42.200;    0.000;31.13333
 479.89;  -14.000;  -29.667;    0.000;15.66667
 480.18;  -22.467;  -38.467;    0.000;16.00000
 480.47;  -10.133;   -6.133;    0.000;-4.00000
 480.75;  -40.400;  -42.133;    0.000; 1.73333
 481.04;  -10.133;  -16.667;    0.000; 6.53333
 481.33;   -0.800;  -30.800;    0.000;30.00000
 481.61;  -16.267;  -19.933;    0.000; 3.66667
 481.90;  -30.000;  -63.733;    0.000;33.73333
 482.18;   25.800;   -9.067;    0.000;34.86667
 482.47;  -11.133;  -22.667;    0.000;11.53333
 482.76;  -13.933;  -45.333;    0.000;31.40000
 483.04;  -27.133;  -37.667;    0.000;10.53333
 483.33;   -2.200;  -22.333;    0.000;20.13333
 483.61;  -18.800;  -40.933;    0.000;22.13334
 483.90;   -9.333;  -16.333;    0.000; 7.00000
 484.19;  -20.600;  -46.400;    0.000;25.80000
 484.47;    4.333;  -21.733;    0.000;26.06667
 484.76;   -9.533;  -59.933;    0.000;50.40000
 485.05;  -11.600;  -19.600;    0.000; 8.00000
 485.33;   20.400;  -16.000;    0.000;36.40000
 485.62;   -7.333;  -34.400;    0.000;27.06667
 485.90;    2.600;  -30.133;    0.000;32.73333
 486.19;   -1.467;  -33.000;    0.000;31.53333
 486.47;   26.867;   -8.200;    0.000;35.06667
 486.76;    6.067;  -31.467;    0.000;37.53333
 487.05;   33.867;  -10.333;    0.000;44.20000
 487.33;    6.667;  -27.067;    0.000;33.73333
 487.62;   13.200;  -68.133;    0.000;81.33333
 487.90;   23.267;  -23.600;    0.000;46.86667
 488.19;   58.933;  -18.533;    0.000;77.46667
 488.47;   38.533;  -20.467;    0.000;59.00000
 488.76;   58.600;  -36.333;    0.000;94.93333
 489.05;   74.667;    1.000;    0.000;73.66666
 489.33;   58.000;  -36.867;    0.000;94.86666
 489.62;   91.533;  -14.000;    0.000;105.53333
 489.90;   73.533;  -38.533;    0.000;112.06667
 490.19;   93.333;  -51.933;    0.000;145.26667
 490.47;  126.267;  -24.200;    0.000;150.46667
 490.76;  110.400;  -36.733;    0.000;147.13334
 491.05;  143.800;  -16.533;    0.000;160.33334
 491.33;  144.667;  -19.267;    0.000;163.93334
 491.62;  153.400;  -30.267;    0.000;183.66666
 491.90;  167.333;  -27.867;    0.000;195.20000
 492.19;  202.067;  -30.133;    0.000;232.20000
 492.47;  210.867;  -37.333;    0.000;248.20000
 492.76;  247.667;  -42.867;    0.000;290.53334
 493.04;  257.133;  -25.800;    0.000;282.93333
 493.33;  278.533;  -39.733;    0.000;318.26666
 493.61;  304.267;  -22.400;    0.000;326.66666
 493.90;  355.667;  -21.200;    0.000;376.86666
 494.18;  386.667;  -20.400;    0.000;407.06666
 494.47;  385.867;  -32.400;    0.000;418.26667
 494.75;  403.533;  -39.067;    0.000;442.59999
 495.04;  439.733;  -26.733;    0.000;466.46667
 495.32;  501.933;  -21.733;    0.000;523.66665
 495.61;  530.133;  -37.333;    0.000;567.46669
 495.89;  539.800;  -36.000;    0.000;575.79999
 496.18;  604.733;  -30.333;    0.000;635.06667
 496.46;  633.000;  -37.533;    0.000;670.53333
 496.75;  677.800;  -29.400;    0.000;707.19999
 497.03;  720.400;  -29.600;    0.000;750.00002
 497.32;  779.400;  -39.400;    0.000;818.80003
 497.60;  805.667;  -52.200;    0.000;857.86669
 497.89;  853.000;  -42.200;    0.000;895.20000
 498.17;  919.333;  -17.667;    0.000;936.99998
 498.46;  972.467;  -34.067;    0.000;1006.53334
 498.74; 1025.667;  -29.533;    0.000;1055.19996
 499.03; 1064.200;  -39.000;    0.000;1103.19995
 499.31; 1136.867;  -31.867;    0.000;1168.73337
 499.60; 1176.600;  -12.933;    0.000;1189.53331
 499.88; 1278.800;   -4.267;    0.000;1283.06672
 500.17; 1300.933;  -41.800;    0.000;1342.73335
 500.45; 1405.133;  -25.400;    0.000;1430.53330
 500.74; 1447.467;  -10.133;    0.000;1457.60001
 501.02; 1505.533;  -39.933;    0.000;1545.46666
 501.31; 1591.467;  -54.867;    0.000;1646.33334
 501.59; 1633.067;  -21.000;    0.000;1654.06665
 501.88; 1792.333;  -40.667;    0.000;1833.00004
 502.16; 1797.467;  -30.400;    0.000;1827.86667
 502.45; 1853.067;  -35.400;    0.000;1888.46665
 502.73; 1939.600;  -27.067;    0.000;1966.66664
 503.01; 2027.600;  -29.133;    0.000;2056.73331
 503.30; 2095.200;  -24.000;    0.000;2119.19995
 503.58; 2193.467;  -41.333;    0.000;2234.79988
 503.87; 2279.667;  -26.600;    0.000;2306.26675
 504.15; 2345.667;  -50.067;    0.000;2395.73341
 504.44; 2426.800;  -17.267;    0.000;2444.06672
 504.72; 2568.400;  -13.600;    0.000;2581.99990
 505.00; 2584.600;  -13.800;    0.000;2598.40010
 505.29; 2697.667;  -11.600;    0.000;2709.26675
 505.57; 2735.000;   -9.867;    0.000;2744.86667
 505.86; 2823.467;  -41.533;    0.000;2864.99989
 506.14; 2965.733;  -44.800;    0.000;3010.53340
 506.43; 3036.467;  -21.267;    0.000;3057.73322
 506.71; 3113.667;  -54.400;    0.000;3168.06675
 506.99; 3210.533;  -38.133;    0.000;3248.66678
 507.28; 3289.733;  -29.667;    0.000;3319.40006
 507.56; 3320.600;  -60.133;    0.000;3380.73343
 507.85; 3469.267;  -35.067;    0.000;3504.33327
 508.13; 3574.400;  -49.667;    0.000;3624.06657
 508.41; 3740.067;    8.133;    0.000;3731.93332
 508.70; 3700.667;  -51.733;    0.000;3752.40008
 508.98; 3825.600;  -44.333;    0.000;3869.93343
 509.27; 3966.533;  -22.600;    0.000;3989.13345
 509.55; 4078.867;  -29.467;    0.000;4108.33337
 509.83; 4173.600;  -49.867;    0.000;4223.46676
 510.12; 4237.200;  -51.267;    0.000;4288.46686
 510.40; 4311.400;  -24.867;    0.000;4336.26657
 510.69; 4421.400;  -34.133;    0.000;4455.53324
 510.97; 4500.333;  -31.800;    0.000;4532.13350
 511.25; 4615.533;  -23.400;    0.000;4638.93320
 511.54; 4722.867;  -37.933;    0.000;4760.80003
 511.82; 4738.667;  -34.067;    0.000;4772.73317
 512.11; 4907.133;  -59.467;    0.000;4966.59997
 512.39; 4961.333;  -46.467;    0.000;5007.80016
 512.67; 5034.133;  -50.600;    0.000;5084.73330
 512.96; 5098.933;  -34.533;    0.000;5133.46644
 513.24; 5227.600;  -33.200;    0.000;5260.80010
 513.52; 5296.933;  -25.933;    0.000;5322.86644
 513.81; 5389.467;  -26.267;    0.000;5415.73346
 514.09; 5416.133;  -41.533;    0.000;5457.66663
 514.37; 5476.133;  -47.200;    0.000;5523.33330
 514.66; 5628.200;  -16.733;    0.000;5644.93353
 514.94; 5678.867;  -24.667;    0.000;5703.53337
 515.22; 5726.867;  -39.133;    0.000;5766.00003
 515.51; 5779.800;  -47.133;    0.000;5826.93314
 515.79; 5908.800;  -46.467;    0.000;5955.26647
 516.07; 6064.800;  -38.200;    0.000;6102.99981
 516.36; 6013.267;  -33.133;    0.000;6046.39994
 516.64; 6146.533;  -40.867;    0.000;6187.39987
 516.92; 6279.067;  -45.533;    0.000;6324.60023
 517.21; 6382.867;  -66.133;    0.000;6449.00003
 517.49; 6467.933;  -37.800;    0.000;6505.73310
 517.77; 6603.067;  -41.933;    0.000;6645.00023
 518.06; 6620.800;  -37.667;    0.000;6658.46647
 518.34; 6649.867;  -19.533;    0.000;6669.40003
 518.62; 6749.467;  -19.933;    0.000;6769.40013
 518.91; 7063.467;  143.200;    0.000;6920.26680
 519.19; 6987.200;  -42.733;    0.000;7029.93353
 519.47; 6994.267;  -29.533;    0.000;7023.79993
 519.76; 7132.200;  -29.133;    0.000;7161.33353
 520.04; 7113.867;  -37.467;    0.000;7151.33337
 520.32; 7291.667;    4.267;    0.000;7287.39984
 520.61; 7280.667;  -10.333;    0.000;7290.99984
 520.89; 7280.267;  -35.467;    0.000;7315.73327
 521.17; 7405.667;  -45.800;    0.000;7451.46650
 521.45; 7492.933;  -30.800;    0.000;7523.73310
 521.74; 7511.333;  -43.467;    0.000;7554.80016
 522.02; 7612.800;  -10.000;    0.000;7622.79980
 522.30; 7689.133;  -40.667;    0.000;7729.79997
 522.59; 7811.667;  -12.467;    0.000;7824.13317
 522.87; 7842.000;  -34.000;    0.000;7876.00000
 523.15; 7936.067;  -25.667;    0.000;7961.73356
 523.43; 7994.400;  -52.067;    0.000;8046.46657
 523.72; 8001.200;  -17.933;    0.000;8019.13353
 524.00; 8033.467;  -49.067;    0.000;8082.53346
 524.28; 8140.800;  -19.733;    0.000;8160.53314
 524.57; 8096.467;  -24.000;    0.000;8120.46680
 524.85; 8194.467;  -39.667;    0.000;8234.13346
 525.13; 8242.000;  -37.800;    0.000;8279.80000
 525.41; 8349.400;  -15.933;    0.000;8365.33372
 525.70; 8356.000;  -39.200;    0.000;8395.20000
 525.98; 8384.667;  -40.000;    0.000;8424.66699
 526.26; 8461.200;  -38.467;    0.000;8499.66686
 526.54; 8575.600;   -6.133;    0.000;8581.73294
 526.83; 8655.667;  -41.067;    0.000;8696.73366
 527.11; 8703.134;  -10.600;    0.000;8713.73379
 527.39; 8690.934;  -42.867;    0.000;8733.80026
 527.67; 8819.800;  -26.533;    0.000;8846.33314
 527.96; 8799.866;  -44.800;    0.000;8844.66621
 528.24; 8920.134;  -36.800;    0.000;8956.93379
 528.52; 8990.467;  -45.200;    0.000;9035.66680
 528.80; 9064.667;  -20.667;    0.000;9085.33366
 529.08; 9032.934;  -61.067;    0.000;9094.00026
 529.37; 9109.533;  -22.000;    0.000;9131.53320
 529.65; 9118.333;  -42.133;    0.000;9160.46634
 529.93; 9167.267;  -33.733;    0.000;9200.99994
 530.21; 9219.533;  -60.200;    0.000;9279.73320
 530.50; 9309.533;   -5.600;    0.000;9315.13320
 530.78; 9338.333;  -45.933;    0.000;9384.26634
 531.06; 9396.134;  -44.533;    0.000;9440.66712
 531.34; 9410.800;  -43.400;    0.000;9454.19981
 531.62; 9436.333;  -60.400;    0.000;9496.73301
 531.91; 9566.333;  -48.733;    0.000;9615.06634
 532.19; 9446.066;  -35.600;    0.000;9481.66640
 532.47; 9561.267;  -39.333;    0.000;9600.59993
 532.75; 9673.134;  -25.400;    0.000;9698.53379
 533.03; 9652.600;  -13.067;    0.000;9665.66628
 533.32; 9822.533;  -30.467;    0.000;9852.99987
 533.60; 9811.066;  -42.733;    0.000;9853.79974
 533.88; 9801.533;  -23.133;    0.000;9824.66654
 534.16; 9816.066;  -39.933;    0.000;9855.99974
 534.44; 9849.533;  -14.400;    0.000;9863.93320
 534.72; 9861.066;  -56.267;    0.000;9917.33307
 535.01; 9859.934;  -38.467;    0.000;9898.40026
 535.29; 9991.200;  -60.267;    0.000;10051.46686
 535.57;10044.467;  -51.667;    0.000;10096.13346
 535.85;10041.000;  -37.467;    0.000;10078.46667
 536.13;10178.934;  -35.267;    0.000;10214.20026
 536.42;10113.200;  -50.600;    0.000;10163.80019
 536.70;10251.934;  -37.933;    0.000;10289.86693
 536.98;10185.600;  -29.933;    0.000;10215.53294
 537.26;10266.000;  -47.867;    0.000;10313.86666
 537.54;10230.066;  -68.200;    0.000;10298.26640
 537.82;10351.000;  -30.533;    0.000;10381.53333
 538.10;10346.200;  -36.067;    0.000;10382.26686
 538.39;10346.533;  -26.133;    0.000;10372.66654
 538.67;10399.333;  -35.733;    0.000;10435.06634
 538.95;10525.000;  -55.667;    0.000;10580.66667
 539.23;10494.400;  -45.333;    0.000;10539.73372
 539.51;10430.134;  -18.133;    0.000;10448.26712
 539.79;10533.934;  -36.133;    0.000;10570.06693
 540.07;10485.267;  -44.267;    0.000;10529.53327
 540.36;10465.267;  -52.133;    0.000;10517.39994
 540.64;10661.467;  -50.933;    0.000;10712.40013
 540.92;10614.333;  -51.133;    0.000;10665.46634
 541.20;10704.200;  -29.667;    0.000;10733.86686
 541.48;10727.934;   -2.533;    0.000;10730.46693
 541.76;10623.200;  -34.000;    0.000;10657.20020
 542.04;10639.200;  -58.333;    0.000;10697.53353
 542.32;10665.934;  -50.533;    0.000;10716.46693
 542.61;10846.733;  -35.467;    0.000;10882.20007
 542.89;10918.733;  -21.867;    0.000;10940.60007
 543.17;10878.000;  -37.333;    0.000;10915.33333
 543.45;10898.200;  -43.733;    0.000;10941.93353
 543.73;10830.667;  -50.933;    0.000;10881.60033
 544.01;10966.000;  -29.200;    0.000;10995.20000
 544.29;10947.134;  -28.600;    0.000;10975.73379
 544.57;10958.267;  -43.333;    0.000;11001.59993
 544.85;10992.733;  -50.400;    0.000;11043.13340
 545.13;11007.533;  -24.733;    0.000;11032.26654
 545.42;11102.533;  -45.733;    0.000;11148.26654
 545.70;11028.066;  -25.267;    0.000;11053.33307
 545.98;11099.866;  -58.867;    0.000;11158.73288
 546.26;11040.800;  -45.400;    0.000;11086.19981
 546.54;11187.667;  -54.400;    0.000;11242.06699
 546.82;11174.800;  -27.000;    0.000;11201.79980
 547.10;11243.467;  -21.800;    0.000;11265.26680
 547.38;11141.667;  -47.733;    0.000;11189.40033
 547.66;11094.333;  -34.933;    0.000;11129.26634
 547.94;11170.134;  -39.333;    0.000;11209.46712
 548.22;11213.000;  -43.200;    0.000;11256.20000
 548.50;11174.333;  -43.800;    0.000;11218.13301
 548.78;11207.533;  -38.667;    0.000;11246.19987
 549.06;11131.733;  -30.533;    0.000;11162.26673
 549.34;11237.267;  -50.667;    0.000;11287.93327
 549.63;11129.667;  -27.533;    0.000;11157.20033
 549.91;11197.800;  -40.800;    0.000;11238.59980
 550.19;11261.800;  -15.933;    0.000;11277.73314
 550.47;11242.800;  -53.400;    0.000;11296.19981
 550.75;11211.667;  -66.600;    0.000;11278.26699
 551.03;11226.066;  -61.600;    0.000;11287.66640
 551.31;11238.467;  -33.000;    0.000;11271.46680
 551.59;11222.000;  -65.733;    0.000;11287.73333
 551.87;11393.000;  -17.733;    0.000;11410.73333
 552.15;11185.533;  -62.133;    0.000;11247.66654
 552.43;11280.467;  -23.733;    0.000;11304.20013
 552.71;11308.934;  -52.067;    0.000;11361.00026
 552.99;11248.467;  -41.533;    0.000;11290.00013
 553.27;11344.800;  -51.067;    0.000;11395.86647
 553.55;11223.667;  -47.400;    0.000;11271.06699
 553.83;11233.667;  -50.333;    0.000;11284.00032
 554.11;11295.533;  -27.467;    0.000;11322.99987
 554.39;11283.066;  -29.467;    0.000;11312.53307
 554.67;11309.934;  -38.667;    0.000;11348.60026
 554.95;11302.066;  -32.133;    0.000;11334.19974
 555.23;11414.800;  -29.133;    0.000;11443.93314
 555.51;11338.400;  -56.467;    0.000;11394.86706
 555.79;11383.533;  -30.933;    0.000;11414.46654
 556.07;11325.134;  -48.267;    0.000;11373.40046
 556.35;11281.934;  -44.000;    0.000;11325.93359
 556.63;11371.934;  -51.200;    0.000;11423.13359
 556.91;11218.600;  -14.133;    0.000;11232.73294
 557.19;11245.733;  -57.133;    0.000;11302.86673
 557.47;11273.333;  -29.533;    0.000;11302.86634
 557.75;11177.667;  -55.667;    0.000;11233.33366
 558.03;11238.733;  -43.400;    0.000;11282.13340
 558.31;11180.934;  -55.267;    0.000;11236.20026
 558.59;11283.866;  -40.467;    0.000;11324.33288
 558.87;11236.066;  -44.467;    0.000;11280.53307
 559.15;11209.533;  -37.600;    0.000;11247.13320
 559.43;11181.134;  -44.400;    0.000;11225.53379
 559.71;11124.667;  -25.267;    0.000;11149.93366
 559.99;11208.934;  -46.133;    0.000;11255.06693
 560.27;11303.066;  -17.800;    0.000;11320.86641
 560.55;11310.866;  -41.533;    0.000;11352.39954
 560.82;11280.066;  -48.000;    0.000;11328.06641
 561.10;11112.667;  -60.000;    0.000;11172.66699
 561.38;11140.600;  -54.533;    0.000;11195.13294
 561.66;11180.600;  -33.133;    0.000;11213.73294
 561.94;11192.866;  -42.200;    0.000;11235.06621
 562.22;11109.400;  -47.267;    0.000;11156.66706
 562.50;11101.066;  -27.333;    0.000;11128.39974
 562.78;11143.066;  -32.267;    0.000;11175.33307
 563.06;11027.000;  -44.600;    0.000;11071.60000
 563.34;11084.866;  -42.067;    0.000;11126.93288
 563.62;11130.934;  -45.200;    0.000;11176.13359
 563.90;11026.400;  -55.533;    0.000;11081.93372
 564.18;11110.134;  -32.867;    0.000;11143.00045
 564.46;10980.667;  -42.267;    0.000;11022.93366
 564.74;10952.934;  -34.067;    0.000;10987.00026
 565.01;11002.533;  -41.467;    0.000;11043.99987
 565.29;10982.533;  -33.333;    0.000;11015.86654
 565.57;10879.533;  -52.200;    0.000;10931.73320
 565.85;10922.533;  -26.467;    0.000;10948.99987
 566.13;10958.200;  -61.067;    0.000;11019.26686
 566.41;10939.066;  -17.067;    0.000;10956.13307
 566.69;10855.667;  -44.133;    0.000;10899.80033
 566.97;10740.400;  -41.267;    0.000;10781.66706
 567.25;10728.800;  -57.933;    0.000;10786.73314
 567.53;10824.066;  -48.267;    0.000;10872.33307
 567.80;10782.667;  -41.000;    0.000;10823.66699
 568.08;10736.800;  -31.333;    0.000;10768.13314
 568.36;10716.134;  -40.867;    0.000;10757.00045
 568.64;10603.467;  -38.933;    0.000;10642.40013
 568.92;10617.000;  -20.733;    0.000;10637.73333
 569.20;10666.600;  -49.400;    0.000;10715.99961
 569.48;10572.066;  -63.267;    0.000;10635.33307
 569.76;10597.800;  -44.600;    0.000;10642.39980
 570.03;10404.866;  -34.933;    0.000;10439.79955
 570.31;10459.866;  -19.800;    0.000;10479.66621
 570.59;10467.866;  -51.333;    0.000;10519.19954
 570.87;10393.667;  -29.933;    0.000;10423.60032
 571.15;10527.467;  -77.933;    0.000;10605.40013
 571.43;10422.866;  -28.867;    0.000;10451.73288
 571.71;10436.467;  -53.333;    0.000;10489.80013
 571.98;10360.600;  -39.733;    0.000;10400.33294
 572.26;10323.134;  -46.533;    0.000;10369.66712
 572.54;10335.333;  -47.733;    0.000;10383.06634
 572.82;10271.934;  -45.267;    0.000;10317.20026
 573.10;10204.400;  -42.667;    0.000;10247.06706
 573.38;10157.333;  -47.267;    0.000;10204.59967
 573.66;10166.733;  -47.000;    0.000;10213.73340
 573.93;10071.333;  -58.800;    0.000;10130.13301
 574.21;10119.267;  -51.600;    0.000;10170.86660
 574.49;10074.600;  -62.467;    0.000;10137.06628
 574.77;10000.866;  -44.533;    0.000;10045.39954
 575.05;10033.134;  -34.733;    0.000;10067.86712
 575.33; 9881.733;  -58.333;    0.000;9940.06673
 575.60; 9981.400;  -44.867;    0.000;10026.26706
 575.88; 9932.467;  -36.333;    0.000;9968.80013
 576.16; 9922.934;  -35.267;    0.000;9958.20026
 576.44; 9870.667;  -30.733;    0.000;9901.40033
 576.72; 9819.934;  -62.067;    0.000;9882.00026
 576.99; 9721.000;  -55.067;    0.000;9776.06667
 577.27; 9741.200;  -45.600;    0.000;9786.80019
 577.55; 9639.066;   -8.667;    0.000;9647.73307
 577.83; 9663.866;  -47.533;    0.000;9711.39954
 578.11; 9598.000;  -63.867;    0.000;9661.86666
 578.38; 9557.467;  -41.533;    0.000;9599.00013
 578.66; 9481.066;  -65.267;    0.000;9546.33308
 578.94; 9473.333;  -43.400;    0.000;9516.73301
 579.22; 9464.800;  -52.733;    0.000;9517.53314
 579.50; 9454.134;  -21.133;    0.000;9475.26712
 579.77; 9394.600;  -47.400;    0.000;9441.99961
 580.05; 9375.333;  -49.467;    0.000;9424.79967
 580.33; 9305.866;  -45.600;    0.000;9351.46621
 580.61; 9303.066;  -56.000;    0.000;9359.06641
 580.88; 9241.467;  -35.933;    0.000;9277.40013
 581.16; 9160.134;  -50.200;    0.000;9210.33379
 581.44; 9170.000;  -24.467;    0.000;9194.46667
 581.72; 9073.066;  -71.133;    0.000;9144.19974
 581.99; 9082.866;  -30.200;    0.000;9113.06621
 582.27; 8894.000;  -58.133;    0.000;8952.13334
 582.55; 8952.400;  -51.400;    0.000;9003.80039
 582.83; 8834.533;  -30.533;    0.000;8865.06654
 583.10; 8886.134;  -26.133;    0.000;8912.26712
 583.38; 8870.134;  -70.733;    0.000;8940.86712
 583.66; 8759.600;  -32.533;    0.000;8792.13294
 583.94; 8814.866;  -46.333;    0.000;8861.19954
 584.21; 8649.134;  -53.400;    0.000;8702.53379
 584.49; 8575.733;  -62.467;    0.000;8638.20007
 584.77; 8630.600;  -44.600;    0.000;8675.19961
 585.05; 8576.267;  -70.867;    0.000;8647.13327
 585.32; 8588.200;  -40.067;    0.000;8628.26686
 585.60; 8490.533;  -53.067;    0.000;8543.59987
 585.88; 8420.800;  -39.267;    0.000;8460.06647
 586.16; 8408.934;  -42.067;    0.000;8451.00026
 586.43; 8343.533;   -5.200;    0.000;8348.73320
 586.71; 8324.467;  -29.000;    0.000;8353.46680
 586.99; 8262.200;  -64.400;    0.000;8326.60020
 587.26; 8297.866;  -57.400;    0.000;8355.26621
 587.54; 8139.267;  -38.000;    0.000;8177.26660
 587.82; 8090.267;  -54.400;    0.000;8144.66660
 588.10; 8110.667;  -23.133;    0.000;8133.79984
 588.37; 8033.600;  -46.867;    0.000;8080.46676
 588.65; 7985.267;  -44.600;    0.000;8029.86660
 588.93; 7879.400;  -50.600;    0.000;7929.99990
 589.20; 7915.667;  -41.000;    0.000;7956.66650
 589.48; 7772.933;  -30.800;    0.000;7803.73310
 589.76; 7747.533;   -9.667;    0.000;7757.19987
 590.03; 7701.533;  -39.800;    0.000;7741.33320
 590.31; 7649.733;  -41.400;    0.000;7691.13340
 590.59; 7675.333;  -38.467;    0.000;7713.80016
 590.86; 7624.867;  -34.067;    0.000;7658.93336
 591.14; 7530.200;  -62.400;    0.000;7592.60020
 591.42; 7440.533;  -60.200;    0.000;7500.73320
 591.70; 7441.133;  -55.400;    0.000;7496.53330
 591.97; 7424.867;  -46.600;    0.000;7471.46670
 592.25; 7429.400;  -38.400;    0.000;7467.79990
 592.53; 7307.067;  -30.467;    0.000;7337.53356
 592.80; 7288.867;  -42.533;    0.000;7331.40003
 593.08; 7228.267;  -36.933;    0.000;7265.19994
 593.36; 7217.667;   -5.267;    0.000;7222.93317
 593.63; 7113.400;  -32.933;    0.000;7146.33324
 593.91; 7103.267;  -47.467;    0.000;7150.73327
 594.18; 7126.600;  -29.667;    0.000;7156.26676
 594.46; 7001.400;  -50.333;    0.000;7051.73323
 594.74; 6848.400;  -54.667;    0.000;6903.06657
 595.01; 6960.067;  -70.800;    0.000;7030.86690
 595.29; 6835.333;  -78.067;    0.000;6913.40016
 595.57; 6893.667;  -29.000;    0.000;6922.66650
 595.84; 6737.800;  -48.867;    0.000;6786.66647
 596.12; 6679.333;  -46.267;    0.000;6725.60016
 596.40; 6707.933;  -65.200;    0.000;6773.13310
 596.67; 6668.467;  -68.267;    0.000;6736.73347
 596.95; 6557.267;  -41.667;    0.000;6598.93327
 597.22; 6551.267;  -55.267;    0.000;6606.53327
 597.50; 6474.200;  -26.067;    0.000;6500.26686
 597.78; 6429.467;  -53.067;    0.000;6482.53346
 598.05; 6352.467;  -44.933;    0.000;6397.40013
 598.33; 6311.933;  -52.867;    0.000;6364.79977
 598.61; 6277.733;  -48.333;    0.000;6326.06673
 598.88; 6203.733;  -42.200;    0.000;6245.93340
 599.16; 6153.067;  -51.133;    0.000;6204.20023
 599.43; 6069.400;  -70.800;    0.000;6140.19991
 599.71; 6083.800;  -55.933;    0.000;6139.73314
 599.99; 6031.533;  -58.400;    0.000;6089.93320
 600.26; 5970.600;  -53.400;    0.000;6024.00010
 600.54; 5964.000;  -34.467;    0.000;5998.46667
 600.81; 5961.200;  -35.000;    0.000;5996.20020
 601.09; 5873.333;  -41.400;    0.000;5914.73350
 601.36; 5870.533;  -49.267;    0.000;5919.79987
 601.64; 5869.933;  -43.800;    0.000;5913.73310
 601.92; 5727.533;  -37.467;    0.000;5764.99987
 602.19; 5692.000;  -64.600;    0.000;5756.60000
 602.47; 5660.200;  -65.467;    0.000;5725.66686
 602.74; 5592.267;  -45.667;    0.000;5637.93327
 603.02; 5557.733;  -29.200;    0.000;5586.93340
 603.29; 5592.400;  -35.800;    0.000;5628.19990
 603.57; 5532.200;  -62.533;    0.000;5594.73353
 603.85; 5445.133;  -53.267;    0.000;5498.39997
 604.12; 5491.933;  -18.000;    0.000;5509.93311
 604.40; 5372.667;  -52.800;    0.000;5425.46650
 604.67; 5344.200;  -37.600;    0.000;5381.80019
 604.95; 5305.267;  -59.400;    0.000;5364.66660
 605.22; 5295.333;  -48.333;    0.000;5343.66683
 605.50; 5233.800;  -40.467;    0.000;5274.26647
 605.77; 5182.133;  -26.200;    0.000;5208.33330
 606.05; 5165.933;  -56.600;    0.000;5222.53310
 606.33; 5154.333;  -41.333;    0.000;5195.66683
 606.60; 5147.800;  -52.533;    0.000;5200.33314
 606.88; 5153.067;  -26.400;    0.000;5179.46689
 607.15; 5014.200;  -44.933;    0.000;5059.13353
 607.43; 5035.267;  -33.267;    0.000;5068.53327
 607.70; 5001.533;  -34.133;    0.000;5035.66654
 607.98; 4852.267;  -55.200;    0.000;4907.46660
 608.25; 4894.400;  -67.333;    0.000;4961.73324
 608.53; 4844.600;  -55.200;    0.000;4899.80010
 608.80; 4800.600;  -67.400;    0.000;4868.00010
 609.08; 4833.667;  -55.600;    0.000;4889.26650
 609.35; 4721.267;  -59.400;    0.000;4780.66660
 609.63; 4791.733;  -62.667;    0.000;4854.40007
 609.90; 4728.867;  -63.133;    0.000;4792.00003
 610.18; 4689.333;  -27.600;    0.000;4716.93350
 610.45; 4658.200;  -59.733;    0.000;4717.93353
 610.73; 4654.600;  -53.200;    0.000;4707.80010
 611.00; 4690.400;  -17.533;    0.000;4707.93324
 611.28; 4545.533;  -49.733;    0.000;4595.26654
 611.55; 4471.067;  -72.867;    0.000;4543.93356
 611.83; 4479.600;  -50.467;    0.000;4530.06676
 612.10; 4457.933;  -58.000;    0.000;4515.93311
 612.38; 4499.667;  -39.333;    0.000;4538.99984
 612.65; 4458.333;  -44.467;    0.000;4502.80016
 612.93; 4423.867;  -65.867;    0.000;4489.73337
 613.20; 4386.267;  -41.600;    0.000;4427.86660
 613.48; 4374.733;  -60.267;    0.000;4435.00006
 613.75; 4365.933;  -78.933;    0.000;4444.86644
 614.03; 4341.733;  -53.400;    0.000;4395.13340
 614.30; 4283.933;  -75.000;    0.000;4358.93311
 614.57; 4233.133;  -69.800;    0.000;4302.93330
 614.85; 4202.200;  -60.333;    0.000;4262.53353
 615.12; 4194.267;  -51.133;    0.000;4245.39994
 615.40; 4207.067;  -61.267;    0.000;4268.33356
 615.67; 4161.733;  -51.467;    0.000;4213.20007
 615.95; 4158.000;  -53.800;    0.000;4211.80000
 616.22; 4114.133;  -55.467;    0.000;4169.59997
 616.50; 4117.400;  -45.333;    0.000;4162.73323
 616.77; 4093.800;  -50.933;    0.000;4144.73338
 617.05; 4023.733;  -51.133;    0.000;4074.86673
 617.32; 4026.067;  -51.400;    0.000;4077.46665
 617.59; 3996.467;  -59.800;    0.000;4056.26655
 617.87; 3945.400;  -62.333;    0.000;4007.73323
 618.14; 3959.200;  -73.733;    0.000;4032.93328
 618.42; 3860.267;  -44.267;    0.000;3904.53327
 618.69; 3847.133;  -71.333;    0.000;3918.46664
 618.97; 3802.400;  -62.467;    0.000;3864.86657
 619.24; 3786.867;  -49.600;    0.000;3836.46670
 619.51; 3641.533;  -49.867;    0.000;3691.40011
 619.79; 3621.267;  -53.333;    0.000;3674.59993
 620.06; 3554.467;  -56.000;    0.000;3610.46655
 620.34; 3519.333;  -87.400;    0.000;3606.73325
 620.61; 3498.600;  -41.733;    0.000;3540.33343
 620.88; 3452.333;  -47.200;    0.000;3499.53325
 621.16; 3552.800;  -43.000;    0.000;3595.80005
 621.43; 3548.333;  -65.333;    0.000;3613.66659
 621.71; 3566.933;  -59.200;    0.000;3626.13335
 621.98; 3548.800;  -37.333;    0.000;3586.13338
 622.25; 3496.733;  -50.533;    0.000;3547.26673
 622.53; 3440.733;  -53.733;    0.000;3494.46673
 622.80; 3401.733;  -47.733;    0.000;3449.46673
 623.08; 3400.667;  -65.533;    0.000;3466.20008
 623.35; 3386.733;  -57.600;    0.000;3444.33340
 623.62; 3369.600;  -59.933;    0.000;3429.53343
 623.90; 3308.933;  -60.600;    0.000;3369.53335
 624.17; 3329.133;  -44.600;    0.000;3373.73330
 624.44; 3298.533;  -54.533;    0.000;3353.06678
 624.72; 3219.733;  -41.267;    0.000;3261.00006
 624.99; 3277.400;  -62.933;    0.000;3340.33324
 625.26; 3241.000;  -68.533;    0.000;3309.53333
 625.54; 3291.133;  -41.400;    0.000;3332.53330
 625.81; 3258.600;  -68.467;    0.000;3327.06676
 626.09; 3274.200;  -37.267;    0.000;3311.46662
 626.36; 3220.467;  -57.667;    0.000;3278.13322
 626.63; 3201.267;  -36.733;    0.000;3237.99994
 626.91; 3189.467;  -73.333;    0.000;3262.79989
 627.18; 3201.400;  -41.133;    0.000;3242.53324
 627.45; 3135.867;  -64.800;    0.000;3200.66670
 627.73; 3138.533;  -59.400;    0.000;3197.93345
 628.00; 3138.267;  -82.733;    0.000;3220.99993
 628.27; 3149.667;  -17.933;    0.000;3167.60008
 628.55; 3128.067;  -58.533;    0.000;3186.59998
 628.82; 3090.733;  -66.200;    0.000;3156.93340
 629.09; 3097.267;  -32.067;    0.000;3129.33327
 629.37; 3027.800;  -47.133;    0.000;3074.93338
 629.64; 3043.333;  -55.800;    0.000;3099.13325
 629.91; 3012.467;  -51.533;    0.000;3063.99989
 630.18; 3021.333;  -85.400;    0.000;3106.73325
 630.46; 3060.067;  -34.267;    0.000;3094.33332
 630.73; 3017.867;  -46.133;    0.000;3064.00003
 631.00; 3005.533;  -42.933;    0.000;3048.46678
 631.28; 2924.733;  -81.200;    0.000;3005.93340
 631.55; 2959.067;  -47.667;    0.000;3006.73332
 631.82; 2961.600;  -54.600;    0.000;3016.20010
 632.10; 2959.933;  -33.067;    0.000;2993.00002
 632.37; 2912.800;  -52.667;    0.000;2965.46672
 632.64; 2865.400;  -46.600;    0.000;2911.99990
 632.91; 2900.333;  -65.267;    0.000;2965.59992
 633.19; 2836.733;  -54.867;    0.000;2891.60006
 633.46; 2872.333;  -73.000;    0.000;2945.33325
 633.73; 2911.133;  -27.467;    0.000;2938.59997
 634.01; 2835.133;  -50.000;    0.000;2885.13330
 634.28; 2907.333;  -46.267;    0.000;2953.59992
 634.55; 2908.733;  -34.067;    0.000;2942.80006
 634.82; 2883.867;  -53.400;    0.000;2937.26670
 635.10; 2865.067;  -46.400;    0.000;2911.46665
 635.37; 2889.800;  -51.600;    0.000;2941.40005
 635.64; 2847.533;  -63.600;    0.000;2911.13345
 635.91; 2849.000;  -58.600;    0.000;2907.60000
 636.19; 2864.067;  -65.733;    0.000;2929.79998
 636.46; 2897.733;  -37.867;    0.000;2935.60006
 636.73; 2901.667;  -40.067;    0.000;2941.73341
 637.00; 2911.600;  -34.800;    0.000;2946.40010
 637.28; 2876.133;  -66.933;    0.000;2943.06664
 637.55; 2962.067;  -12.933;    0.000;2974.99998
 637.82; 2897.133;  -57.800;    0.000;2954.93330
 638.09; 2774.733;  -28.600;    0.000;2803.33340
 638.37; 2744.267;  -76.200;    0.000;2820.46660
 638.64; 2750.267;  -55.933;    0.000;2806.19994
 638.91; 2759.067;  -70.200;    0.000;2829.26665
 639.18; 2747.867;  -43.867;    0.000;2791.73336
 639.46; 2719.600;  -80.267;    0.000;2799.86677
 639.73; 2720.467;  -35.467;    0.000;2755.93322
 640.00; 2600.667;  -69.667;    0.000;2670.33341
 640.27; 2706.667;  -72.933;    0.000;2779.60008
 640.54; 2679.733;  -59.533;    0.000;2739.26673
 640.82; 2568.000;  -46.400;    0.000;2614.40000
 641.09; 2572.267;  -62.400;    0.000;2634.66660
 641.36; 2538.067;  -54.133;    0.000;2592.19999
 641.63; 2603.133;  -54.733;    0.000;2657.86663
 641.91; 2497.733;  -58.000;    0.000;2555.73340
 642.18; 2495.867;  -68.533;    0.000;2564.40003
 642.45; 2450.400;  -47.267;    0.000;2497.66657
 642.72; 2417.467;  -74.133;    0.000;2491.59988
 642.99; 2424.400;  -27.000;    0.000;2451.39990
 643.26; 2373.067;  -45.067;    0.000;2418.13332
 643.54; 2362.600;  -34.133;    0.000;2396.73343
 643.81; 2395.133;  -69.267;    0.000;2464.39997
 644.08; 2350.000;  -46.133;    0.000;2396.13334
 644.35; 2327.800;  -49.400;    0.000;2377.20005
 644.62; 2312.400;  -53.400;    0.000;2365.79990
 644.90; 2254.467;  -52.400;    0.000;2306.86655
 645.17; 2293.267;  -53.867;    0.000;2347.13327
 645.44; 2262.933;  -70.333;    0.000;2333.26669
 645.71; 2245.200;  -62.133;    0.000;2307.33329
 645.98; 2191.600;  -74.600;    0.000;2266.20010
 646.25; 2192.733;  -54.867;    0.000;2247.60006
 646.53; 2169.933;  -59.667;    0.000;2229.60002
 646.80; 2180.067;  -51.867;    0.000;2231.93332
 647.07; 2171.200;  -77.333;    0.000;2248.53329
 647.34; 2165.333;  -48.533;    0.000;2213.86658
 647.61; 2164.600;  -62.600;    0.000;2227.20010
 647.88; 2120.067;  -28.600;    0.000;2148.66665
 648.15; 2140.333;  -51.867;    0.000;2192.19992
 648.43; 2131.200;  -46.600;    0.000;2177.79995
 648.70; 2075.600;  -62.933;    0.000;2138.53343
 648.97; 2069.933;  -59.867;    0.000;2129.80001
 649.24; 2080.800;  -50.333;    0.000;2131.13338
 649.51; 2025.200;  -58.600;    0.000;2083.79995
 649.78; 2010.733;  -79.467;    0.000;2090.19994
 650.05; 2010.867;  -45.667;    0.000;2056.53337
 650.32; 2075.333;   32.333;    0.000;2042.99992
 650.60; 1975.867;  -51.000;    0.000;2026.86670
 650.87; 1982.333;  -53.600;    0.000;2035.93337
 651.14; 1945.800;  -50.267;    0.000;1996.06672
 651.41; 1945.867;  -72.133;    0.000;2018.00003
 651.68; 1934.267;  -51.533;    0.000;1985.80006
 651.95; 1980.333;  -41.667;    0.000;2022.00004
 652.22; 1913.733;  -63.267;    0.000;1976.99994
 652.49; 1846.867;  -82.200;    0.000;1929.06670
 652.76; 1857.067;  -69.467;    0.000;1926.53332
 653.03; 1843.267;  -47.533;    0.000;1890.80006
 653.31; 1848.667;  -66.000;    0.000;1914.66663
 653.58; 1850.400;  -66.867;    0.000;1917.26669
 653.85; 1812.000;  -45.467;    0.000;1857.46667
 654.12; 1814.067;  -53.867;    0.000;1867.93332
 654.39; 1826.933;  -11.267;    0.000;1838.20002
 654.66; 1882.867;  -27.933;    0.000;1910.80003
 654.93; 1795.667;  -35.000;    0.000;1830.66663
 655.20; 1779.867;  -72.133;    0.000;1852.00003
 655.47; 1737.133;  -56.400;    0.000;1793.53330
 655.74; 1750.933;  -55.067;    0.000;1806.00002
 656.01; 1713.333;  -63.400;    0.000;1776.73338
 656.28; 1711.333;  -65.600;    0.000;1776.93337
 656.55; 1722.133;  -38.400;    0.000;1760.53330
 656.83; 1677.067;  -59.667;    0.000;1736.73332
 657.10; 1666.000;  -66.400;    0.000;1732.40000
 657.37; 1674.800;  -63.667;    0.000;1738.46672
 657.64; 1650.400;  -59.200;    0.000;1709.60003
 657.91; 1668.000;  -67.267;    0.000;1735.26667
 658.18; 1632.867;  -39.333;    0.000;1672.20003
 658.45; 1632.467;  -72.267;    0.000;1704.73335
 658.72; 1605.467;  -56.667;    0.000;1662.13334
 658.99; 1611.800;  -68.667;    0.000;1680.46671
 659.26; 1621.733;  -30.667;    0.000;1652.39994
 659.53; 1573.867;  -77.000;    0.000;1650.86670
 659.80; 1575.067;  -52.933;    0.000;1627.99998
 660.07; 1549.933;  -41.200;    0.000;1591.13335
 660.34; 1522.733;  -61.800;    0.000;1584.53328
 660.61; 1555.267;  -98.733;    0.000;1654.00005
 660.88; 1513.267;  -64.933;    0.000;1578.20006
 661.15; 1502.933;  -51.267;    0.000;1554.20002
 661.42; 1542.067;  -49.867;    0.000;1591.93332
 661.69; 1513.400;  -61.667;    0.000;1575.06669
 661.96; 1484.333;  -83.733;    0.000;1568.06670
 662.23; 1447.400;  -59.333;    0.000;1506.73336
 662.50; 1454.867;  -62.067;    0.000;1516.93336
 662.77; 1452.133;  -59.867;    0.000;1511.99997
 663.04; 1426.733;  -50.867;    0.000;1477.59994
 663.31; 1417.733;  -58.733;    0.000;1476.46661
 663.58; 1454.467;  -42.933;    0.000;1497.40001
 663.85; 1411.733;  -64.067;    0.000;1475.79994
 664.12; 1391.733;  -64.533;    0.000;1456.26661
 664.39; 1374.867;  -67.467;    0.000;1442.33337
 664.66; 1400.733;  -67.067;    0.000;1467.79994
 664.93; 1374.133;  -71.200;    0.000;1445.33330
 665.20; 1361.067;  -63.000;    0.000;1424.06665
 665.47; 1373.333;  -63.267;    0.000;1436.60004
 665.74; 1340.800;  -74.467;    0.000;1415.26672
 666.01; 1353.533;  -48.400;    0.000;1401.93333
 666.28; 1316.800;  -75.400;    0.000;1392.20005
 666.55; 1341.133;  -57.533;    0.000;1398.66663
 666.82; 1301.800;  -60.733;    0.000;1362.53338
 667.09; 1301.400;  -50.533;    0.000;1351.93336
 667.36; 1297.933;  -58.133;    0.000;1356.06668
 667.63; 1291.600;  -61.800;    0.000;1353.39997
 667.90; 1276.267;  -67.200;    0.000;1343.46672
 668.16; 1215.600;  -66.933;    0.000;1282.53331
 668.43; 1259.933;  -79.267;    0.000;1339.20002
 668.70; 1274.733;  -54.533;    0.000;1329.26661
 668.97; 1227.133;  -59.200;    0.000;1286.33330
 669.24; 1198.867;  -54.533;    0.000;1253.40003
 669.51; 1202.933;  -63.000;    0.000;1265.93335
 669.78; 1207.133;  -76.667;    0.000;1283.79996
 670.05; 1187.000;  -59.867;    0.000;1246.86666
 670.32; 1194.000;  -57.600;    0.000;1251.60000
 670.59; 1186.000;  -57.467;    0.000;1243.46667
 670.86; 1149.467;  -66.800;    0.000;1216.26668
 671.13; 1192.533;  -42.667;    0.000;1235.19999
 671.40; 1163.933;  -58.600;    0.000;1222.53335
 671.67; 1179.667;  -40.933;    0.000;1220.59996
 671.93; 1139.400;  -73.267;    0.000;1212.66669
 672.20; 1103.667;  -68.333;    0.000;1171.99996
 672.47; 1099.400;  -77.467;    0.000;1176.86669
 672.74; 1100.333;  -54.000;    0.000;1154.33337
 673.01; 1104.067;  -70.733;    0.000;1174.79998
 673.28; 1084.867;  -42.267;    0.000;1127.13337
 673.55; 1105.267;  -73.333;    0.000;1178.60006
 673.82; 1071.067;  -56.333;    0.000;1127.39998
 674.09; 1057.533;  -72.267;    0.000;1129.80000
 674.35; 1028.933;  -69.267;    0.000;1098.20002
 674.62; 1023.267;  -61.733;    0.000;1085.00000
 674.89; 1040.533;  -61.667;    0.000;1102.19999
 675.16; 1019.200;  -70.200;    0.000;1089.40001
 675.43; 1032.800;  -56.000;    0.000;1088.80005
 675.70; 1050.800;  -36.533;    0.000;1087.33338
 675.97; 1022.600;  -46.333;    0.000;1068.93331
 676.24;  985.333;  -55.400;    0.000;1040.73331
 676.50;  978.800;  -56.333;    0.000;1035.13332
 676.77;  967.133;  -72.533;    0.000;1039.66669
 677.04;  955.933;  -54.600;    0.000;1010.53335
 677.31;  959.800;  -70.200;    0.000;1029.99998
 677.58; 1002.667;  -58.200;    0.000;1060.86669
 677.85;  980.600;  -39.133;    0.000;1019.73331
 678.12;  961.933;  -53.667;    0.000;1015.60002
 678.38;  947.467;  -52.000;    0.000;999.46667
 678.65;  894.067;  -69.867;    0.000;963.93332
 678.92;  932.133;  -71.733;    0.000;1003.86669
 679.19;  974.600;  -30.733;    0.000;1005.33331
 679.46;  902.133;  -61.733;    0.000;963.86670
 679.73;  904.000;  -60.200;    0.000;964.20000
 679.99;  898.133;  -86.000;    0.000;984.13336
 680.26;  927.067;  -83.867;    0.000;1010.93332
 680.53;  874.733;  -75.933;    0.000;950.66667
 680.80;  883.600;  -65.733;    0.000;949.33331
 681.07;  852.533;  -67.733;    0.000;920.26665
 681.33;  899.600;  -55.133;    0.000;954.73331
 681.60;  839.333;  -77.933;    0.000;917.26665
 681.87;  830.533;  -65.800;    0.000;896.33333
 682.14;  837.333;  -46.067;    0.000;883.39998
 682.41;  825.667;  -70.933;    0.000;896.60002
 682.67;  864.933;  -45.667;    0.000;910.60002
 682.94;  807.600;  -70.467;    0.000;878.06664
 683.21;  788.867;  -76.133;    0.000;864.99997
 683.48;  823.467;  -50.933;    0.000;874.40001
 683.75;  822.533;  -58.000;    0.000;880.53333
 684.01;  786.067;  -51.933;    0.000;837.99998
 684.28;  796.533;  -66.333;    0.000;862.86666
 684.55;  771.267;  -56.933;    0.000;828.20000
 684.82;  799.933;  -82.467;    0.000;882.40002
 685.09;  801.600;  -49.467;    0.000;851.06664
 685.35;  779.933;  -43.467;    0.000;823.40002
 685.62;  761.133;  -42.400;    0.000;803.53336
 685.89;  760.467;  -37.800;    0.000;798.26667
 686.16;  707.133;  -66.600;    0.000;773.73336
 686.42;  725.400;  -71.600;    0.000;797.00002
 686.69;  773.667;  -41.267;    0.000;814.93335
 686.96;  698.400;  -73.200;    0.000;771.60002
 687.23;  742.000;  -39.400;    0.000;781.40000
 687.49;  744.667;  -25.133;    0.000;769.80002
 687.76;  716.467;  -63.333;    0.000;779.80001
 688.03;  671.733;  -57.067;    0.000;728.80000
 688.30;  650.267;  -74.933;    0.000;725.20000
 688.56;  683.200;  -71.733;    0.000;754.93334
 688.83;  643.933;  -87.133;    0.000;731.06668
 689.10;  658.400;  -55.733;    0.000;714.13336
 689.37;  640.067;  -77.600;    0.000;717.66665
 689.63;  658.133;  -54.467;    0.000;712.60003
 689.90;  654.867;  -52.933;    0.000;707.79997
 690.17;  638.400;  -75.000;    0.000;713.40002
 690.44;  624.800;  -54.600;    0.000;679.39999
 690.70;  619.733;  -74.000;    0.000;693.73334
 690.97;  646.600;  -50.933;    0.000;697.53331
 691.24;  637.200;  -40.400;    0.000;677.60001
 691.50;  603.667;  -78.133;    0.000;681.80002
 691.77;  578.600;  -73.533;    0.000;652.13331
 692.04;  603.000;  -61.467;    0.000;664.46667
 692.30;  593.467;  -73.067;    0.000;666.53334
 692.57;  579.267;  -51.267;    0.000;630.53333
 692.84;  553.000;  -84.467;    0.000;637.46667
 693.11;  585.733;  -51.333;    0.000;637.06667
 693.37;  542.867;  -71.600;    0.000;614.46664
 693.64;  569.200;  -66.067;    0.000;635.26668
 693.91;  564.533;  -65.400;    0.000;629.93333
 694.17;  571.400;  -65.733;    0.000;637.13335
 694.44;  556.333;  -82.000;    0.000;638.33331
 694.71;  533.867;  -52.800;    0.000;586.66664
 694.97;  520.533;  -62.800;    0.000;583.33332
 695.24;  494.933;  -71.267;    0.000;566.19999
 695.51;  516.200;  -92.533;    0.000;608.73335
 695.77;  515.867;  -50.733;    0.000;566.59997
 696.04;  496.733;  -73.267;    0.000;570.00001
 696.31;  511.133;  -64.733;    0.000;575.86666
 696.57;  510.467;  -50.000;    0.000;560.46667
 696.84;  492.933;  -58.133;    0.000;551.06665
 697.11;  465.600;  -55.267;    0.000;520.86667
 697.37;  477.867;  -35.533;    0.000;513.40000
 697.64;  469.333;  -76.600;    0.000;545.93334
 697.91;  462.667;  -59.133;    0.000;521.79999
 698.17;  450.333;  -75.200;    0.000;525.53334
 698.44;  461.000;  -48.733;    0.000;509.73333
 698.71;  448.667;  -63.933;    0.000;512.59999
 698.97;  444.867;  -57.000;    0.000;501.86667
 699.24;  431.600;  -51.667;    0.000;483.26667
 699.50;  423.333;  -52.467;    0.000;475.80001
 699.77;  452.800;  -41.133;    0.000;493.93332
 700.04;  431.000;  -64.333;    0.000;495.33334
 700.30;  390.733;  -73.133;    0.000;463.86667
 700.57;  365.800;  -63.333;    0.000;429.13332
 700.84;  402.467;  -63.467;    0.000;465.93334
 701.10;  382.400;  -65.867;    0.000;448.26666
 701.37;  366.200;  -75.867;    0.000;442.06668
 701.63;  396.600;  -76.933;    0.000;473.53334
 701.90;  374.867;  -58.667;    0.000;433.53334
 702.17;  383.667;  -34.933;    0.000;418.59999
 702.43;  341.933;  -70.067;    0.000;411.99998
 702.70;  386.000;  -16.800;    0.000;402.80000
 702.96;  358.067;  -62.267;    0.000;420.33335
 703.23;  331.333;  -67.867;    0.000;399.20001
 703.50;  331.867;  -74.200;    0.000;406.06667
 703.76;  336.333;  -68.333;    0.000;404.66668
 704.03;  314.600;  -57.267;    0.000;371.86667
 704.29;  338.533;  -51.267;    0.000;389.79999
 704.56;  310.800;  -65.867;    0.000;376.66666
 704.82;  311.400;  -56.267;    0.000;367.66666
 705.09;  325.533;  -57.733;    0.000;383.26666
 705.36;  270.467;  -86.867;    0.000;357.33334
 705.62;  316.867;  -30.000;    0.000;346.86667
 705.89;  288.800;  -58.600;    0.000;347.39999
 706.15;  252.333;  -80.667;    0.000;332.99999
 706.42;  294.000;  -44.000;    0.000;338.00000
 706.68;  262.267;  -79.667;    0.000;341.93333
 706.95;  256.133;  -40.800;    0.000;296.93333
 707.21;  237.200;  -89.600;    0.000;326.80000
 707.48;  239.133;  -62.333;    0.000;301.46666
 707.75;  271.667;  -64.267;    0.000;335.93333
 708.01;  239.933;  -70.867;    0.000;310.80000
 708.28;  234.133;  -63.800;    0.000;297.93333
 708.54;  214.667;  -54.600;    0.000;269.26667
 708.81;  254.000;  -42.000;    0.000;296.00000
 709.07;  238.667;  -64.000;    0.000;302.66667
 709.34;  223.733;  -80.467;    0.000;304.20000
 709.60;  206.733;  -74.000;    0.000;280.73334
 709.87;  213.933;  -42.733;    0.000;256.66667
 710.13;  209.267;  -78.600;    0.000;287.86666
 710.40;  187.133;  -88.600;    0.000;275.73333
 710.66;  199.267;  -68.533;    0.000;267.80000
 710.93;  192.867;  -68.467;    0.000;261.33334
 711.19;  184.400;  -68.667;    0.000;253.06666
 711.46;  193.867;  -57.333;    0.000;251.20000
 711.72;  199.467;  -60.533;    0.000;259.99999
 711.99;  186.267;  -64.333;    0.000;250.60000
 712.25;  207.867;  -40.867;    0.000;248.73333
 712.52;  187.867;  -65.467;    0.000;253.33334
 712.78;  200.133;  -58.067;    0.000;258.20000
 713.05;  163.200;  -70.400;    0.000;233.60000
 713.31;  185.600;  -74.867;    0.000;260.46667
 713.58;  171.800;  -63.200;    0.000;235.00000
 713.84;  180.400;  -56.933;    0.000;237.33333
 714.11;  191.933;  -61.600;    0.000;253.53333
 714.37;  194.000;  -37.200;    0.000;231.20000
 714.64;  171.533;  -62.467;    0.000;234.00001
 714.90;  168.867;  -48.000;    0.000;216.86667
 715.17;  145.467;  -73.333;    0.000;218.80000
 715.43;  147.867;  -57.000;    0.000;204.86667
 715.70;  161.800;  -75.133;    0.000;236.93333
 715.96;  162.267;  -66.733;    0.000;228.99999
 716.22;  152.133;  -68.733;    0.000;220.86666
 716.49;  168.600;  -86.533;    0.000;255.13334
 716.75;  150.267;  -93.600;    0.000;243.86666
 717.02;  146.667;  -68.267;    0.000;214.93334
 717.28;  132.733;  -84.933;    0.000;217.66667
 717.55;  137.867;  -80.267;    0.000;218.13334
 717.81;  159.867;  -59.400;    0.000;219.26667
 718.08;  133.667;  -56.133;    0.000;189.80001
 718.34;  167.200;  -85.333;    0.000;252.53333
 718.60;  145.133;  -55.400;    0.000;200.53333
 718.87;  154.933;  -56.600;    0.000;211.53333
 719.13;  162.733;  -68.400;    0.000;231.13334
 719.40;  141.933;  -73.933;    0.000;215.86667
 719.66;  140.333;  -79.400;    0.000;219.73333
 719.93;  154.733;  -54.600;    0.000;209.33334
 720.19;  145.733;  -66.733;    0.000;212.46667
 720.45;  137.400;  -73.800;    0.000;211.20000
 720.72;  135.000;  -67.933;    0.000;202.93333
 720.98;  149.867;  -63.600;    0.000;213.46667
 721.25;  124.133;  -65.133;    0.000;189.26666
 721.51;  133.733;  -76.600;    0.000;210.33334
 721.77;  134.333;  -57.200;    0.000;191.53333
 722.04;  185.733;  -63.600;    0.000;249.33334
 722.30;  138.867;  -46.667;    0.000;185.53334
 722.57;  131.733;  -76.467;    0.000;208.20000
 722.83;  134.333;  -56.667;    0.000;191.00000
 723.09;  120.400;  -77.467;    0.000;197.86667
 723.36;  104.867;  -70.600;    0.000;175.46667
 723.62;  126.400;  -57.267;    0.000;183.66667
 723.88;  139.933;  -44.467;    0.000;184.40000
 724.15;  153.333;  -60.667;    0.000;214.00000
 724.41;  141.067;  -84.067;    0.000;225.13333
 724.68;  125.000;  -74.867;    0.000;199.86667
 724.94;  140.667;  -63.133;    0.000;203.80001
 725.20;  131.600;  -84.933;    0.000;216.53334
 725.47;  134.933;  -66.867;    0.000;201.80000
 725.73;  106.800;  -87.800;    0.000;194.60001
 725.99;  133.467;  -77.667;    0.000;211.13332
 726.26;  132.533;  -81.333;    0.000;213.86668
 726.52;  129.267;  -58.867;    0.000;188.13333
 726.78;  111.067;  -64.600;    0.000;175.66666
 727.05;  119.733;  -32.600;    0.000;152.33333
 727.31;  111.133;  -79.600;    0.000;190.73333
 727.57;  115.067;  -67.267;    0.000;182.33334
 727.84;  120.533;  -56.733;    0.000;177.26667
 728.10;  128.800;  -64.267;    0.000;193.06667
 728.36;  127.667;  -57.667;    0.000;185.33333
 728.63;  136.133;  -59.533;    0.000;195.66666
 728.89;  108.600;  -82.267;    0.000;190.86667
 729.15;  114.133;  -65.000;    0.000;179.13333
 729.42;   98.333;  -74.333;    0.000;172.66667
 729.68;  130.667;  -58.800;    0.000;189.46667
 729.94;   96.067;  -90.333;    0.000;186.40000
 730.21;  106.200;  -77.133;    0.000;183.33333
 730.47;  121.600;  -73.333;    0.000;194.93333
 730.73;  124.333;  -62.533;    0.000;186.86667
 731.00;  112.400;  -55.533;    0.000;167.93333
 731.26;   91.067;  -72.600;    0.000;163.66666
 731.52;   89.333;  -72.400;    0.000;161.73334
 731.78;  108.333;  -66.267;    0.000;174.60001
 732.05;   93.333;  -89.533;    0.000;182.86667
 732.31;  122.667;  -55.267;    0.000;177.93333
 732.57;  102.533;  -71.867;    0.000;174.40000
 732.84;  101.000;  -67.067;    0.000;168.06667
 733.10;   98.267;  -81.133;    0.000;179.40000
 733.36;   80.733;  -69.667;    0.000;150.39999
 733.62;  100.800;  -72.267;    0.000;173.06667
 733.89;   94.933;  -79.000;    0.000;173.93333
 734.15;   96.333;  -77.333;    0.000;173.66667
 734.41;   93.667;  -49.667;    0.000;143.33333
 734.67;   78.200;  -76.000;    0.000;154.20000
 734.94;  100.667;  -69.667;    0.000;170.33333
 735.20;   87.667;  -68.133;    0.000;155.80000
 735.46;  111.333;  -52.467;    0.000;163.80000
 735.73;   81.000;  -63.200;    0.000;144.20000
 735.99;   77.133;  -72.733;    0.000;149.86666
 736.25;   97.600;  -84.267;    0.000;181.86667
 736.51;   89.133;  -50.800;    0.000;139.93333
 736.77;   92.333;  -74.133;    0.000;166.46667
 737.04;   73.533;  -60.667;    0.000;134.20000
 737.30;   86.600;  -76.933;    0.000;163.53333
 737.56;   97.600;  -34.267;    0.000;131.86666
 737.82;   74.800;  -91.600;    0.000;166.40000
 738.09;   79.667;  -65.733;    0.000;145.39999
 738.35;   78.600;  -81.067;    0.000;159.66666
 738.61;   90.933;  -51.333;    0.000;142.26667
 738.87;   92.667;  -72.667;    0.000;165.33333
 739.14;   82.933;  -60.533;    0.000;143.46667
 739.40;   75.667; -110.533;    0.000;186.20000
 739.66;   83.400;  -47.267;    0.000;130.66667
 739.92;   60.267;  -73.267;    0.000;133.53334
 740.18;   73.067;  -62.000;    0.000;135.06667
 740.45;   48.333;  -93.133;    0.000;141.46666
 740.71;   60.000;  -51.200;    0.000;111.20000
 740.97;   87.467;  -59.667;    0.000;147.13334
 741.23;   73.200;  -66.533;    0.000;139.73333
 741.49;   56.200;  -82.600;    0.000;138.80000
 741.76;   40.467;  -60.000;    0.000;100.46667
 742.02;   63.467;  -94.333;    0.000;157.80000
 742.28;   65.533;  -60.733;    0.000;126.26667
 742.54;   76.800;  -77.400;    0.000;154.20000
 742.80;   60.267;  -62.600;    0.000;122.86666
 743.06;   71.867;  -66.800;    0.000;138.66667
 743.33;   70.400;  -54.600;    0.000;125.00000
 743.59;   51.000;  -94.400;    0.000;145.40000
 743.85;   38.467;  -65.000;    0.000;103.46667
 744.11;   41.667;  -79.333;    0.000;121.00000
 744.37;   59.000;  -56.600;    0.000;115.60000
 744.63;   41.667;  -84.267;    0.000;125.93334
 744.90;   32.800;  -70.467;    0.000;103.26667
 745.16;   52.867;  -77.467;    0.000;130.33333
 745.42;   46.800;  -53.200;    0.000;100.00000
 745.68;   38.667;  -69.667;    0.000;108.33333
 745.94;   82.533;  -41.400;    0.000;123.93333
 746.20;   42.667;  -76.933;    0.000;119.60000
 746.46;   69.533;  -45.467;    0.000;115.00000
 746.72;   48.800;  -64.067;    0.000;112.86666
 746.99;   43.467;  -60.933;    0.000;104.40000
 747.25;   51.800;  -51.133;    0.000;102.93333
 747.51;   34.533;  -68.667;    0.000;103.20000
 747.77;   40.533;  -70.333;    0.000;110.86667
 748.03;   17.933;  -82.333;    0.000;100.26667
 748.29;   37.000;  -76.867;    0.000;113.86667
 748.55;   33.267;  -69.800;    0.000;103.06667
 748.81;   35.667;  -76.733;    0.000;112.40000
 749.08;   16.200;  -46.333;    0.000;62.53333
 749.34;   58.333;  -55.800;    0.000;114.13333
 749.60;   27.200;  -54.667;    0.000;81.86667
 749.86;   32.600;  -66.467;    0.000;99.06667
 750.12;   27.000;  -68.533;    0.000;95.53333
 750.38;   33.067;  -82.333;    0.000;115.40000
 750.64;   19.067;  -60.133;    0.000;79.20000
 750.90;   51.200;  -52.200;    0.000;103.40000
 751.16;   31.333;  -79.933;    0.000;111.26667
 751.42;   20.400;  -69.600;    0.000;90.00000
 751.68;   30.267;  -41.467;    0.000;71.73333
 751.95;   -4.667;  -81.733;    0.000;77.06666
 752.21;   28.533;  -71.067;    0.000;99.60000
 752.47;   20.000;  -90.800;    0.000;110.80000
 752.73;    9.533;  -78.067;    0.000;87.60000
 752.99;   16.267;  -93.933;    0.000;110.20000
 753.25;   13.933;  -72.800;    0.000;86.73334
 753.51;    5.733;  -77.000;    0.000;82.73333
 753.77;   33.400;  -66.867;    0.000;100.26667
 754.03;    8.200;  -86.733;    0.000;94.93333
 754.29;   30.000;  -59.267;    0.000;89.26667
 754.55;   12.133;  -74.800;    0.000;86.93334
 754.81;   12.067;  -73.800;    0.000;85.86667
 755.07;    2.533;  -87.067;    0.000;89.60000
 755.33;   17.600;  -65.867;    0.000;83.46667
 755.59;   -4.533;  -81.733;    0.000;77.20000
 755.85;    9.400;  -77.600;    0.000;87.00000
 756.11;   -2.133;  -76.600;    0.000;74.46667
 756.37;    9.200;  -82.800;    0.000;92.00000
 756.63;   24.867;  -52.067;    0.000;76.93333
 756.89;   -8.067;  -85.400;    0.000;77.33333
 757.15;    3.200;  -86.000;    0.000;89.20000
 757.41;   27.267;  -37.733;    0.000;65.00000
 757.68;   10.533;  -83.133;    0.000;93.66667
 757.94;   25.267;  -53.400;    0.000;78.66667
 758.20;   -5.067;  -70.533;    0.000;65.46667
 758.46;  -16.400;  -83.067;    0.000;66.66667
 758.72;  -12.800;  -82.467;    0.000;69.66667
 758.98;    2.933;  -65.000;    0.000;67.93333
 759.24;   -4.467;  -78.800;    0.000;74.33334
 759.50;   -1.333;  -66.200;    0.000;64.86666
 759.76;   26.667;  -70.333;    0.000;97.00000
 760.02;  -11.400;  -45.267;    0.000;33.86667
 760.27;    5.667;  -79.133;    0.000;84.80000
 760.53;   28.867;  -48.867;    0.000;77.73333
 760.79;  -10.000;  -77.933;    0.000;67.93333
 761.05;  -15.933;  -63.133;    0.000;47.20000
 761.31;    6.200;  -72.867;    0.000;79.06667
 761.57;    8.800;  -54.200;    0.000;63.00000
 761.83;  -20.000;  -68.733;    0.000;48.73333
 762.09;  -24.600;  -72.733;    0.000;48.13333
 762.35;  -18.133;  -79.400;    0.000;61.26667
 762.61;  -26.933;  -60.333;    0.000;33.40000
 762.87;   -7.333;  -69.067;    0.000;61.73333
 763.13;  -16.867;  -82.000;    0.000;65.13333
 763.39;    5.267;  -57.600;    0.000;62.86667
 763.65;  -18.000;  -73.600;    0.000;55.60000
 763.91;  -15.533;  -69.867;    0.000;54.33333
 764.17;    6.600;  -52.133;    0.000;58.73334
 764.43;   -0.867;  -65.733;    0.000;64.86666
 764.69;  -11.000;  -61.600;    0.000;50.60000
 764.95;   -3.667;  -72.800;    0.000;69.13334
 765.21;   -1.800;  -61.533;    0.000;59.73333
 765.47;   -4.400;  -82.400;    0.000;78.00000
 765.73;  -32.867;  -62.667;    0.000;29.80000
 765.98;    2.467;  -67.200;    0.000;69.66666
 766.24;  -41.200;  -77.000;    0.000;35.80000
 766.50;  -18.067;  -80.533;    0.000;62.46667
 766.76;   -7.133;  -48.867;    0.000;41.73333
 767.02;  -15.200;  -68.400;    0.000;53.20000
 767.28;  -14.600;  -68.867;    0.000;54.26667
 767.54;  -21.133;  -85.067;    0.000;63.93333
 767.80;  -19.133;  -66.867;    0.000;47.73334
 768.06;  -10.133;  -53.867;    0.000;43.73333
 768.32;    1.533;  -62.467;    0.000;64.00000
 768.58;  -15.933;  -71.133;    0.000;55.20000
 768.83;  -14.667;  -71.333;    0.000;56.66667
 769.09;  -20.067;  -73.667;    0.000;53.60000
 769.35;  -14.600;  -61.800;    0.000;47.20000
 769.61;    3.733;  -80.400;    0.000;84.13333
 769.87;  -27.400;  -55.667;    0.000;28.26667
 770.13;  -15.933;  -60.267;    0.000;44.33333
 770.39;  -29.267;  -82.733;    0.000;53.46666
 770.65;   -6.533;  -64.000;    0.000;57.46667
 770.90;  -37.133;  -73.333;    0.000;36.20000
 771.16;  -38.333;  -82.933;    0.000;44.60000
 771.42;  -21.667;  -68.467;    0.000;46.80000
 771.68;  -38.533;  -81.400;    0.000;42.86667
 771.94;   -3.133;  -61.867;    0.000;58.73333
 772.20;  -29.733;  -79.067;    0.000;49.33333
 772.46;  -31.533;  -71.200;    0.000;39.66666
 772.71;  -21.600;  -85.267;    0.000;63.66667
 772.97;  -19.800;  -52.267;    0.000;32.46667
 773.23;  -32.267;  -78.200;    0.000;45.93333
 773.49;  -18.133;  -40.667;    0.000;22.53333
 773.75;  -43.400;  -82.200;    0.000;38.80000
 774.01;  -31.000;  -85.067;    0.000;54.06667
 774.26;  -27.200;  -92.400;    0.000;65.20000
 774.52;   -7.800;  -54.600;    0.000;46.80000
 774.78;  -27.733;  -89.600;    0.000;61.86666
 775.04;    0.200;  -26.200;    0.000;26.40000
 775.30;   -0.133;  -52.400;    0.000;52.26667
 775.56;  -36.467;  -71.533;    0.000;35.06667
 775.81;  -29.467;  -73.000;    0.000;43.53333
 776.07;  -45.067;  -78.400;    0.000;33.33334
 776.33;  -37.000;  -79.933;    0.000;42.93333
 776.59;  -39.933;  -73.400;    0.000;33.46667
 776.85;  -45.600;  -83.533;    0.000;37.93333
 777.10;  -28.400;  -55.200;    0.000;26.80000
 777.36;  -51.667;  -73.533;    0.000;21.86666
 777.62;   -5.000;  -49.400;    0.000;44.40000
 777.88;  -22.200;  -79.800;    0.000;57.60000
 778.14;  -34.933;  -60.133;    0.000;25.20000
 778.39;  -44.067;  -73.800;    0.000;29.73334
 778.65;  -40.667;  -68.733;    0.000;28.06666
 778.91;  -43.400;  -95.267;    0.000;51.86667
 779.17;  -37.400;  -56.000;    0.000;18.60000
 779.42;  -46.800; -105.133;    0.000;58.33333
 779.68;  -41.867;  -72.267;    0.000;30.40001
 779.94;  -33.867;  -92.533;    0.000;58.66667
 780.20;  -55.000;  -56.867;    0.000; 1.86666
 780.46;  -56.733;  -87.333;    0.000;30.60000
 780.71;  -39.467;  -53.600;    0.000;14.13333
 780.97;  -37.800;  -80.600;    0.000;42.80000
 781.23;  -63.733;  -69.333;    0.000; 5.60000
 781.49;  -36.200;  -68.667;    0.000;32.46666
 781.74;  -37.400;  -85.533;    0.000;48.13333
 782.00;  -60.400;  -98.000;    0.000;37.60000
 782.26;  -29.733;  -69.267;    0.000;39.53334
 782.52;  -26.800;  -85.400;    0.000;58.60000
 782.77;  -20.667;  -42.000;    0.000;21.33333
 783.03;  -51.600;  -83.867;    0.000;32.26667
 783.29;  -20.133;  -82.600;    0.000;62.46667
 783.54;  -46.867;  -81.533;    0.000;34.66667
 783.80;  -34.133;  -27.200;    0.000;-6.93333
 784.06;  -45.333;  -72.267;    0.000;26.93334
 784.32;  -53.333;  -72.733;    0.000;19.40000
 784.57;   -0.200;  -67.533;    0.000;67.33333
 784.83;  -57.400;  -89.200;    0.000;31.80000
 785.09;  -51.467;  -84.400;    0.000;32.93333
 785.34;  -46.400;  -53.600;    0.000; 7.20000
 785.60;  -27.133;  -69.467;    0.000;42.33333
 785.86;  -41.333;  -65.533;    0.000;24.20000
 786.12;  -26.067;  -62.667;    0.000;36.60000
 786.37;  -10.467;  -52.600;    0.000;42.13333
 786.63;  -46.000; -109.867;    0.000;63.86667
 786.89;  -24.533;  -70.467;    0.000;45.93333
 787.14;  -31.267;  -62.133;    0.000;30.86667
 787.40;  -45.133;  -63.667;    0.000;18.53333
 787.66;  -57.867;  -64.133;    0.000; 6.26667
 787.91;  -15.067;  -46.000;    0.000;30.93333
 788.17;  -60.600;  -84.400;    0.000;23.80000
 788.43;  -36.067;  -78.600;    0.000;42.53333
 788.68;  -39.867;  -83.133;    0.000;43.26667
 788.94;  -48.467;  -69.267;    0.000;20.80000
 789.20;  -30.733;  -73.400;    0.000;42.66667
 789.45;  -51.533;  -81.267;    0.000;29.73334
 789.71;  -51.200;  -82.200;    0.000;31.00000
 789.97;  -21.867;  -40.333;    0.000;18.46667
 790.22;  -55.000;  -61.133;    0.000; 6.13334
 790.48;  -44.400;  -83.133;    0.000;38.73333
 790.74;  -58.533;  -71.933;    0.000;13.40000
 790.99;  -34.800;  -58.533;    0.000;23.73333
 791.25;  -63.200;  -93.200;    0.000;30.00000
 791.51;  -45.267;  -91.200;    0.000;45.93333
 791.76;  -40.600;  -59.600;    0.000;19.00000
 792.02;  -55.400;  -65.600;    0.000;10.20000
 792.27;  -35.333;  -68.733;    0.000;33.40000
 792.53;  -59.067;  -62.800;    0.000; 3.73333
 792.79;  -40.667;  -82.467;    0.000;41.80000
 793.04;  -40.400;  -72.667;    0.000;32.26666
 793.30;  -71.067;  -64.867;    0.000;-6.20000
 793.56;  -62.133;  -61.800;    0.000;-0.33334
 793.81;  -29.600;  -45.000;    0.000;15.40000
 794.07;  -54.000;  -63.600;    0.000; 9.60000
 794.32;  -42.933;  -87.267;    0.000;44.33334
 794.58;  -50.733;  -83.333;    0.000;32.60000
 794.84;  -45.200;  -83.867;    0.000;38.66667
 795.09;  -24.400;  -54.067;    0.000;29.66667
 795.35;  -10.200;  -65.200;    0.000;55.00000
 795.60;  -32.000;  -45.800;    0.000;13.80000
 795.86;  -21.067;  -51.867;    0.000;30.80000
 796.12;  -56.600;  -69.933;    0.000;13.33334
 796.37;  -54.400;  -81.333;    0.000;26.93333
 796.63;  -50.800;  -57.200;    0.000; 6.40000
 796.88;  -29.467;  -75.533;    0.000;46.06667
 797.14;  -46.667;  -53.333;    0.000; 6.66666
 797.39;  -42.867;  -58.000;    0.000;15.13334
 797.65;  -45.467;  -73.800;    0.000;28.33334
 797.91;  -51.800;  -82.200;    0.000;30.40000
 798.16;  -57.333;  -60.333;    0.000; 3.00000
 798.42;  -70.600;  -91.933;    0.000;21.33334
 798.67;  -48.600;  -67.600;    0.000;19.00000
 798.93;  -58.533;  -91.800;    0.000;33.26667
 799.18;  -51.133;  -74.067;    0.000;22.93333
 799.44;  -65.733;  -92.067;    0.000;26.33334
 799.69;  -51.533;  -89.600;    0.000;38.06667
 799.95;  -61.067; -108.133;    0.000;47.06667
 800.21;  -75.333;  -75.200;    0.000;-0.13334
 800.46;  -24.533;  -50.800;    0.000;26.26667
 800.72;  -58.867;  -78.867;    0.000;20.00000
 800.97;  -56.800;  -79.067;    0.000;22.26667
 801.23;  -40.200;  -74.400;    0.000;34.20000
 801.48;  -77.067;  -82.867;    0.000; 5.80000
 801.74;  -55.133;  -74.533;    0.000;19.40000
 801.99;  -47.467;  -63.267;    0.000;15.80000
 802.25;  -63.133;  -68.733;    0.000; 5.59999
 802.50;  -50.467;  -75.600;    0.000;25.13333
 802.76;  -41.533;  -57.533;    0.000;16.00000
 803.01;  -61.133; -105.867;    0.000;44.73333
 803.27;  -59.667;  -72.467;    0.000;12.80000
 803.52;  -30.067;  -69.800;    0.000;39.73334
 803.78;  -60.933;  -55.733;    0.000;-5.20000
 804.03;  -39.267;  -80.533;    0.000;41.26667
 804.29;  -74.333;  -73.467;    0.000;-0.86667
 804.54;  -58.667;  -78.533;    0.000;19.86666
 804.80;  -67.400;  -87.267;    0.000;19.86667
 805.05;  -49.933;  -67.267;    0.000;17.33334
 805.31;  -31.333;  -44.667;    0.000;13.33333
 805.56;  -47.533;  -64.600;    0.000;17.06667
 805.82;  -55.933;  -74.800;    0.000;18.86667
 806.07;  -48.600;  -66.800;    0.000;18.20000
 806.33;  -59.467;  -85.867;    0.000;26.40000
 806.58;  -59.867;  -93.200;    0.000;33.33333
 806.84;  -59.467;  -62.467;    0.000; 3.00000
 807.09;  -50.333;  -68.800;    0.000;18.46667
 807.34;  -69.600;  -56.067;    0.000;-13.53333
 807.60;  -54.200;  -78.733;    0.000;24.53333
 807.85;  -42.000;  -49.667;    0.000; 7.66667
 808.11;  -44.133;  -83.200;    0.000;39.06666
 808.36;  -50.667;  -59.400;    0.000; 8.73333
 808.62;  -61.333;  -84.200;    0.000;22.86666
 808.87;  -32.200;  -86.000;    0.000;53.80000
 809.13;  -42.933;  -85.467;    0.000;42.53333
 809.38;  -23.867;  -52.467;    0.000;28.60000
 809.63;  -50.000;  -79.133;    0.000;29.13333
 809.89;  -42.333;  -48.667;    0.000; 6.33334
 810.14;  -49.467;  -63.067;    0.000;13.60000
 810.40;  -64.600;  -59.067;    0.000;-5.53333
 810.65;  -55.600;  -84.333;    0.000;28.73334
 810.91;  -68.733;  -83.000;    0.000;14.26667
 811.16;  -76.267;  -76.533;    0.000; 0.26666
 811.41;  -47.533;  -57.733;    0.000;10.20000
 811.67;  -40.200;  -75.333;    0.000;35.13334
 811.92;  -48.000;  -51.600;    0.000; 3.60000
 812.18;  -68.200;  -85.200;    0.000;17.00000
 812.43;  -65.467;  -66.667;    0.000; 1.20000
 812.68;  -62.333;  -71.733;    0.000; 9.40000
 812.94;  -67.933;  -59.467;    0.000;-8.46667
 813.19;  -56.067;  -67.200;    0.000;11.13333
 813.45;  -32.267;  -29.333;    0.000;-2.93333
 813.70;  -53.333;  -71.533;    0.000;18.20000
 813.95;  -50.400;  -63.267;    0.000;12.86666
 814.21;  -52.267;  -66.400;    0.000;14.13334
 814.46;  -61.467;  -80.600;    0.000;19.13333
 814.71;  -53.467;  -86.200;    0.000;32.73333
 814.97;  -55.267;  -57.667;    0.000; 2.40000
 815.22;  -74.867;  -90.867;    0.000;16.00000
 815.48;  -57.733;  -83.133;    0.000;25.40000
 815.73;    5.333;  -27.667;    0.000;33.00000
 815.98;  -69.600;  -61.067;    0.000;-8.53333
 816.24;  -65.800;  -78.867;    0.000;13.06667
 816.49;  -40.133;  -68.400;    0.000;28.26667
 816.74;  -59.800;  -65.600;    0.000; 5.80000
 817.00;  -38.800;  -44.933;    0.000; 6.13334
 817.25;  -56.133;  -72.333;    0.000;16.20000
 817.50;  -57.400;  -74.067;    0.000;16.66666
 817.76;  -66.267;  -80.933;    0.000;14.66666
 818.01;  -65.467;  -69.133;    0.000; 3.66666
 818.26;  -65.933;  -76.800;    0.000;10.86667
 818.52;  -63.000;  -82.333;    0.000;19.33334
 818.77;  -61.267;  -76.400;    0.000;15.13334
 819.02;  141.333;  140.600;    0.000; 0.73332
 819.28;  -69.533;  -80.067;    0.000;10.53333
 819.53;  -59.200;  -79.733;    0.000;20.53333
 819.78;  -49.733;  -61.733;    0.000;12.00000
 820.04;  -40.333;  -59.000;    0.000;18.66667
 820.29;  -59.200;  -65.067;    0.000; 5.86666
 820.54;  -24.533;  -57.733;    0.000;33.20000
 820.79;  -53.800;  -50.133;    0.000;-3.66666
 821.05;  -67.267;  -91.400;    0.000;24.13333
 821.30;  -13.267;  -40.000;    0.000;26.73333
 821.55;  -54.133;  -22.267;    0.000;-31.86667
 821.81;  -52.867;  -69.733;    0.000;16.86666
 822.06;  -56.200;  -66.800;    0.000;10.60000
 822.31;  -34.467;  -48.267;    0.000;13.80000
 822.56;  -72.000;  -76.933;    0.000; 4.93333
 822.82;  -58.933;  -83.933;    0.000;25.00000
 823.07;  -43.133;  -34.133;    0.000;-9.00000
 823.32;  -96.400;  -96.267;    0.000;-0.13333
 823.58;  -63.533;  -77.533;    0.000;14.00000
 823.83;  -90.400;  -77.533;    0.000;-12.86667
 824.08;  -63.333;  -81.067;    0.000;17.73333
 824.33;  -91.133;  -91.267;    0.000; 0.13334
 824.59;  -63.200;  -70.400;    0.000; 7.20000
 824.84;  -71.333;  -85.067;    0.000;13.73333
 825.09;  -67.867;  -80.733;    0.000;12.86666
 825.34;  -62.667;  -72.200;    0.000; 9.53333
 825.60;  -56.200;  -68.733;    0.000;12.53333
 825.85;  -57.467; -110.267;    0.000;52.80000
 826.10;  -88.600;  -92.200;    0.000; 3.60000
 826.35;  -58.000;  -91.667;    0.000;33.66666
 826.61;  -76.533;  -85.333;    0.000; 8.80000
 826.86;  -79.800;  -84.667;    0.000; 4.86666
 827.11;  -70.533;  -68.733;    0.000;-1.80000
 827.36;  -63.867;  -88.600;    0.000;24.73333
 827.61;  -74.467;  -86.867;    0.000;12.40000
 827.87;  -68.733;  -77.333;    0.000; 8.60001
 828.12;  -78.400;  -67.400;    0.000;-11.00000
 828.37;  -68.867;  -66.867;    0.000;-2.00000
 828.62;  -71.267;  -75.533;    0.000; 4.26666
 828.88;  -53.067;  -58.533;    0.000; 5.46667
 829.13;  -46.133;  -41.800;    0.000;-4.33334
 829.38;  -81.133;  -80.333;    0.000;-0.80000
 829.63;  -65.133;  -57.267;    0.000;-7.86666
 829.88;  -85.333; -112.000;    0.000;26.66666
 830.14;  -74.333;  -67.600;    0.000;-6.73334
 830.39;  -45.600;  -56.400;    0.000;10.80000
 830.64;  -62.533;  -77.533;    0.000;15.00000
 830.89;  -40.667;  -71.667;    0.000;31.00000
 831.14;  -76.267;  -64.933;    0.000;-11.33334
 831.39;  -78.933;  -86.733;    0.000; 7.80000
 831.65;  -77.200;  -91.933;    0.000;14.73334
 831.90;  -75.533;  -68.667;    0.000;-6.86667
 832.15;  -68.867;  -58.733;    0.000;-10.13334
 832.40;  -67.067;  -59.267;    0.000;-7.80000
 832.65;  -62.333;  -72.600;    0.000;10.26667
 832.90;  -76.933;  -90.467;    0.000;13.53333
 833.16;  -69.133;  -64.933;    0.000;-4.20000
 833.41;  -66.467;  -81.667;    0.000;15.20000
 833.66;  -56.600;  -62.867;    0.000; 6.26667
 833.91;  -77.867;  -79.067;    0.000; 1.20000
 834.16;  -69.667;  -91.467;    0.000;21.80000
 834.41;  -60.400;  -73.800;    0.000;13.40000
 834.66;  -60.933;  -46.333;    0.000;-14.60000
 834.92;  -45.867;  -85.067;    0.000;39.20000
 835.17;  -72.933;  -77.200;    0.000; 4.26666
 835.42;  -82.667;  -74.200;    0.000;-8.46667
 835.67;  -57.933;  -67.200;    0.000; 9.26666
 835.92;  -72.867;  -78.867;    0.000; 6.00000
 836.17;  -79.800;  -69.867;    0.000;-9.93333
 836.42;  -72.467;  -79.133;    0.000; 6.66666
 836.67;  -77.800;  -82.733;    0.000; 4.93333
 836.93;  -68.933;  -74.667;    0.000; 5.73333
 837.18;  -67.133;  -59.000;    0.000;-8.13333
 837.43;  -73.133;  -81.600;    0.000; 8.46667
 837.68;  -58.133;  -70.600;    0.000;12.46666
 837.93;  -72.400;  -93.733;    0.000;21.33333
 838.18;  -70.333;  -70.133;    0.000;-0.20000
 838.43;  -79.000;  -93.333;    0.000;14.33334
 838.68;  -70.133;  -70.400;    0.000; 0.26667
 838.93;  -61.467;  -70.933;    0.000; 9.46667
 839.18;  -55.200;  -49.933;    0.000;-5.26667
 839.43;  -47.533;  -80.400;    0.000;32.86667
 839.69;  -79.533;  -82.800;    0.000; 3.26667
 839.94;  -82.600;  -89.200;    0.000; 6.60000
 840.19;  -68.200;  -71.333;    0.000; 3.13334
 840.44;  -57.933;  -72.267;    0.000;14.33334
 840.69;  -52.733;  -50.400;    0.000;-2.33333
 840.94;  -58.133;  -76.667;    0.000;18.53333
 841.19;  -60.800;  -47.000;    0.000;-13.80000
 841.44;  -69.133;  -69.533;    0.000; 0.40000
 841.69;  -32.400;  -45.067;    0.000;12.66666
 841.94;  -54.800;  -73.533;    0.000;18.73333
 842.19;  -64.600;  -87.133;    0.000;22.53333
 842.44;  -85.400;  -76.800;    0.000;-8.60000
 842.69;  -58.733;  -71.000;    0.000;12.26667
 842.94;  -82.400;  -69.667;    0.000;-12.73334
 843.19;  -67.800;  -76.267;    0.000; 8.46667
 843.44;  -50.333;  -73.267;    0.000;22.93334
 843.69;  -56.867;  -91.933;    0.000;35.06667
 843.94;  -19.400;   -9.400;    0.000;-10.00000
 844.19;  -68.067;  -76.733;    0.000; 8.66666
 844.44;  -49.933;  -87.733;    0.000;37.80000
 844.69;  -76.267;  -49.867;    0.000;-26.40001
 844.95;  -73.400;  -73.467;    0.000; 0.06667
 845.20;  -81.600;  -86.600;    0.000; 5.00000
 845.45;  -53.667;  -63.000;    0.000; 9.33333
 845.70;  -56.867;  -68.333;    0.000;11.46667
 845.95;  -86.133;  -78.533;    0.000;-7.60000
 846.20;  -55.667;  -77.267;    0.000;21.60000
 846.45;  -67.800;  -72.000;    0.000; 4.20000
 846.70;  -62.667;  -49.333;    0.000;-13.33334
 846.95;  -72.133;  -74.467;    0.000; 2.33334
 847.20;  -66.067;  -81.267;    0.000;15.20000
 847.44;  -42.400;  -34.000;    0.000;-8.40000
 847.69;  -75.133;  -72.200;    0.000;-2.93333
 847.94;  -73.667;  -80.400;    0.000; 6.73334
 848.19;  -59.067;  -73.933;    0.000;14.86667
 848.44;  -61.267;  -64.267;    0.000; 3.00000
 848.69;  -86.200;  -59.267;    0.000;-26.93333
 848.94;  -62.933;  -56.800;    0.000;-6.13334
 849.19;  -62.933;  -94.733;    0.000;31.80000
 849.44;  -68.933;  -71.267;    0.000; 2.33334
 849.69;  -58.467;  -77.800;    0.000;19.33334
 849.94;  -75.600;  -92.733;    0.000;17.13333
 850.19;  -59.333;  -46.533;    0.000;-12.80000
 850.44;  -67.467;  -67.267;    0.000;-0.20000
 850.69;  -58.933;  -62.400;    0.000; 3.46667
 850.94;  -79.667;  -74.600;    0.000;-5.06667
 851.19;  -52.067;  -62.000;    0.000; 9.93333
 851.44;  -79.467;  -79.133;    0.000;-0.33334
 851.69;  -82.067;  -85.800;    0.000; 3.73334
 851.94;  -62.267;  -75.933;    0.000;13.66667
 852.19;  -56.467;  -64.867;    0.000; 8.40000
 852.44;  -62.867;  -87.333;    0.000;24.46667
 852.68;  -61.400;  -76.933;    0.000;15.53333
 852.93;  -60.267;  -60.000;    0.000;-0.26667
 853.18;  -60.800;  -71.000;    0.000;10.20000
 853.43;  -87.733;  -77.933;    0.000;-9.80000
 853.68;  -58.867;  -71.200;    0.000;12.33333
 853.93;  -62.800;  -65.267;    0.000; 2.46667
 854.18;  -54.467;  -54.400;    0.000;-0.06667
 854.43;  -58.000;  -76.600;    0.000;18.60000
 854.68;  -67.600;  -82.267;    0.000;14.66667
 854.93;  -46.333;  -89.333;    0.000;43.00000
 855.18;  -59.200;  -74.933;    0.000;15.73333
 855.42;  -65.733;  -50.933;    0.000;-14.80000
 855.67;  -77.000;  -72.400;    0.000;-4.60000
 855.92;  -92.067;  -73.067;    0.000;-19.00000
 856.17;  -44.067;  -41.333;    0.000;-2.73333
 856.42;  -57.800;  -73.933;    0.000;16.13334
 856.67;  -70.133;  -52.667;    0.000;-17.46666
 856.92;  -54.533;  -86.333;    0.000;31.80000
 857.17;  -99.667;  -84.333;    0.000;-15.33333
 857.41;  -81.800;  -87.267;    0.000; 5.46667
 857.66;  -59.467;  -63.667;    0.000; 4.20000
 857.91;  -70.667;  -77.533;    0.000; 6.86667
 858.16;  -67.200;  -55.067;    0.000;-12.13333
 858.41;  -54.867;  -76.467;    0.000;21.60000
 858.66;  -52.000;  -69.600;    0.000;17.60000
 858.91;  -49.267;  -74.600;    0.000;25.33333
 859.15;  -62.800;  -85.133;    0.000;22.33333
 859.40;  -48.933;  -64.800;    0.000;15.86667
 859.65;  -71.333;  -75.600;    0.000; 4.26666
 859.90;  -73.533;  -83.400;    0.000; 9.86667
 860.15;  -43.533;  -65.200;    0.000;21.66666
 860.40;  -72.800;  -68.267;    0.000;-4.53333
 860.64;  -42.733;  -54.267;    0.000;11.53333
 860.89;  -70.267;  -86.133;    0.000;15.86666
 861.14;  -64.067;  -84.600;    0.000;20.53333
 861.39;  -64.467;  -72.800;    0.000; 8.33334
 861.64;  -66.133;  -63.533;    0.000;-2.60000
 861.88;  -61.467;  -73.667;    0.000;12.20000
 862.13;  -63.867;  -68.200;    0.000; 4.33333
 862.38;  -72.867;  -80.333;    0.000; 7.46667
 862.63;  -83.800;  -79.000;    0.000;-4.80000
 862.88;  -50.600;  -79.933;    0.000;29.33334
 863.12;  -51.533;  -57.667;    0.000; 6.13334
 863.37;  -76.067;  -85.867;    0.000; 9.80000
 863.62;  -75.333;  -62.000;    0.000;-13.33334
 863.87;  -77.800; -100.800;    0.000;23.00000
 864.12;  -61.667;  -66.533;    0.000; 4.86666
 864.36;  -64.333;  -84.733;    0.000;20.39999
 864.61;  -66.267;  -68.600;    0.000; 2.33333
 864.86;  -72.800;  -85.867;    0.000;13.06667
 865.11;  -34.133;  -48.933;    0.000;14.80000
 865.35;  -70.733;  -52.400;    0.000;-18.33333
 865.60;  -56.400;  -72.733;    0.000;16.33333
 865.85;  -46.133;  -51.867;    0.000; 5.73333
 866.10;  -67.800;  -70.000;    0.000; 2.20000
 866.34;  -63.800;  -82.533;    0.000;18.73333
 866.59;  -46.267;  -60.933;    0.000;14.66667
 866.84;  -65.867;  -87.067;    0.000;21.20000
 867.09;  -75.533;  -72.667;    0.000;-2.86667
 867.33;  -67.267;  -73.067;    0.000; 5.80000
 867.58;  -55.067;  -67.467;    0.000;12.40000
 867.83;  -83.800;  -86.267;    0.000; 2.46667
 868.08;  -60.800;  -43.400;    0.000;-17.40000
 868.32;  -65.933;  -66.267;    0.000; 0.33334
 868.57;  -58.333;  -78.867;    0.000;20.53334
 868.82;  -48.400;  -74.467;    0.000;26.06667
 869.07;  -82.400;  -83.067;    0.000; 0.66666
 869.31;  -58.000;  -82.067;    0.000;24.06667
 869.56;  -61.000;  -75.533;    0.000;14.53333
 869.81;  -52.200;  -56.200;    0.000; 4.00000
 870.05;  -69.867;  -68.667;    0.000;-1.20000
 870.30;  -37.400;  -77.200;    0.000;39.80000
 870.55;  -49.067;  -62.667;    0.000;13.60000
 870.80;  -63.267;  -65.133;    0.000; 1.86666
 871.04;  -68.733;  -44.933;    0.000;-23.80000
 871.29;  -62.267;  -78.933;    0.000;16.66667
 871.54;  -54.467;  -56.600;    0.000; 2.13333
 871.78;  -81.933;  -85.667;    0.000; 3.73333
 872.03;  -60.600;  -51.133;    0.000;-9.46666
 872.28;  -48.867;  -61.733;    0.000;12.86667
 872.52;  -61.000;  -63.800;    0.000; 2.80000
 872.77;  -57.933;  -73.600;    0.000;15.66666
 873.02;  -82.200;  -81.000;    0.000;-1.20000
 873.26;  -71.067;  -70.000;    0.000;-1.06667
 873.51;  -61.067;  -55.733;    0.000;-5.33333
 873.76;  -50.467;  -63.733;    0.000;13.26667
 874.00;  -42.600;  -44.533;    0.000; 1.93333
 874.25;  -84.133;  -76.000;    0.000;-8.13333
 874.50;  -58.400;  -73.400;    0.000;15.00000
 874.74;  -71.667;  -79.200;    0.000; 7.53333
 874.99;  -76.267;  -63.400;    0.000;-12.86667
 875.24;  -24.867;  -45.267;    0.000;20.40000
 875.48;  -66.067;  -61.733;    0.000;-4.33333
 875.73;  -54.133;  -85.133;    0.000;31.00000
 875.98;  -50.800;  -58.400;    0.000; 7.60000
 876.22;  -61.667;  -78.067;    0.000;16.40000
 876.47;  -45.133;  -55.400;    0.000;10.26667
 876.71;  -46.533;  -61.067;    0.000;14.53333
 876.96;  -41.533;  -61.800;    0.000;20.26667
 877.21;  -67.333;  -85.800;    0.000;18.46667
 877.45;  -71.200;  -80.533;    0.000; 9.33334
 877.70;  -50.800;  -51.933;    0.000; 1.13334
 877.95;  -36.333;  -69.667;    0.000;33.33333
 878.19;  -26.400;  -34.067;    0.000; 7.66667
 878.44;  -75.000;  -62.667;    0.000;-12.33333
 878.68;  -18.067;  -39.000;    0.000;20.93333
 878.93;  -45.867;  -65.533;    0.000;19.66667
 879.18;  -60.400;  -50.333;    0.000;-10.06667
 879.42;  -54.267;  -42.467;    0.000;-11.80000
 879.67;  -70.933;  -65.467;    0.000;-5.46667
 879.91;  -29.200;  -41.467;    0.000;12.26667
 880.16;  -37.867;  -46.133;    0.000; 8.26667
 880.40;  -54.200;  -51.733;    0.000;-2.46667
 880.65;  -63.800;  -49.867;    0.000;-13.93333
 880.90;  -22.333;  -41.800;    0.000;19.46667
 881.14;  -52.400;  -64.400;    0.000;12.00000
 881.39;  -63.200;  -48.933;    0.000;-14.26667
 881.63;  -61.333;  -65.667;    0.000; 4.33333
 881.88;  -50.800;  -52.333;    0.000; 1.53333
 882.12;  -62.267;  -58.267;    0.000;-4.00000
 882.37;  -36.600;  -62.600;    0.000;26.00000
 882.62;  -60.467;  -52.800;    0.000;-7.66667
 882.86;  -47.000;  -59.133;    0.000;12.13334
 883.11;  -48.733;  -76.267;    0.000;27.53334
 883.35;  -47.067;  -29.533;    0.000;-17.53333
 883.60;  -52.667;  -30.467;    0.000;-22.20000
 883.84;  -48.267;  -52.133;    0.000; 3.86667
 884.09;  -46.400;  -64.400;    0.000;18.00000
 884.33;  -42.600;  -53.000;    0.000;10.40000
 884.58;  -51.133;  -64.333;    0.000;13.20000
 884.82;  -53.333;  -66.467;    0.000;13.13334
 885.07;  -49.733;  -59.933;    0.000;10.20000
 885.31;  -49.267;  -51.600;    0.000; 2.33333
 885.56;  -36.400;  -34.467;    0.000;-1.93333
 885.80;  -47.333;  -52.467;    0.000; 5.13334
 886.05;  -64.600;  -80.000;    0.000;15.40000
 886.29;  -30.800;  -37.600;    0.000; 6.80000
 886.54;  -63.000;  -75.867;    0.000;12.86667
 886.78;  -32.400;  -33.133;    0.000; 0.73333
 887.03;  -38.600;  -46.933;    0.000; 8.33334
 887.27;  -17.133;  -21.733;    0.000; 4.60000
 887.52;  -68.133;  -62.133;    0.000;-6.00000
 887.76;  -37.067;  -51.533;    0.000;14.46667
 888.01;  -41.133;  -52.067;    0.000;10.93333
 888.25;  -39.733;  -59.067;    0.000;19.33333
 888.50;  -20.267;  -36.600;    0.000;16.33333
 888.74;  -31.867;  -46.933;    0.000;15.06667
 888.99;  -49.933;  -45.200;    0.000;-4.73333
 889.23;  -46.267;  -51.000;    0.000; 4.73333
 889.48;  -32.667;  -59.000;    0.000;26.33333
 889.72;  -38.000;  -42.867;    0.000; 4.86666
 889.97;  -19.000;  -38.067;    0.000;19.06667
 890.21;  -18.333;  -35.067;    0.000;16.73333
 890.46;  -13.400;  -33.600;    0.000;20.20000
 890.70;  -35.533;  -33.867;    0.000;-1.66667
 890.94;  -29.333;  -39.600;    0.000;10.26666
 891.19;  -32.600;  -24.467;    0.000;-8.13333
 891.43;  -29.600;  -41.200;    0.000;11.60000
 891.68;  -26.333;  -16.933;    0.000;-9.40000
 891.92;  -38.067;  -48.067;    0.000;10.00000
 892.17;  -37.600;  -12.533;    0.000;-25.06666
 892.41;  -25.267;  -39.600;    0.000;14.33333
 892.66;  -44.733;  -44.467;    0.000;-0.26667
 892.90;   14.533;   -5.000;    0.000;19.53333
 893.14;  -40.267;  -18.267;    0.000;-22.00000
 893.39;  -16.800;  -43.533;    0.000;26.73333
 893.63;  -29.533;  -32.467;    0.000; 2.93333
 893.88;  -24.533;  -49.733;    0.000;25.20000
 894.12;  -23.867;  -30.533;    0.000; 6.66667
 894.36;  -13.533;  -19.067;    0.000; 5.53333
 894.61;  -19.400;  -13.933;    0.000;-5.46667
 894.85;  -11.067;  -23.000;    0.000;11.93333
 895.10;  -21.200;  -14.133;    0.000;-7.06667
 895.34;  -27.533;  -31.733;    0.000; 4.20000
 895.58;  -18.000;   -7.333;    0.000;-10.66667
 895.83;  -15.000;  -21.667;    0.000; 6.66667
 896.07;   -9.800;   -5.867;    0.000;-3.93333
 896.32;  -24.467;  -19.867;    0.000;-4.60000
 896.56;  -26.733;  -25.333;    0.000;-1.40000
 896.80;  -15.267;  -21.333;    0.000; 6.06667
 897.05;   -6.133;  -26.600;    0.000;20.46667
 897.29;    1.600;   -7.867;    0.000; 9.46667
 897.53;    5.933;  -10.200;    0.000;16.13333
 897.78;    1.467;  -28.667;    0.000;30.13333
 898.02;   30.200;    6.600;    0.000;23.60000
 898.26;  -28.133;  -19.933;    0.000;-8.20000
 898.51;   -7.067;    5.400;    0.000;-12.46667
 898.75;    8.600;  -27.200;    0.000;35.80000
 898.99;    9.733;   -5.400;    0.000;15.13333
 899.24;   -3.600;  -17.067;    0.000;13.46667
 899.48;   12.733;   14.400;    0.000;-1.66667
 899.73;   12.133;    1.533;    0.000;10.60000
 899.97;   18.667;   24.667;    0.000;-6.00000
 900.21;   43.733;   26.333;    0.000;17.40000
 900.46;   37.333;   14.467;    0.000;22.86667
 900.70;   52.933;   37.000;    0.000;15.93333
 900.94;   34.200;   18.667;    0.000;15.53333
 901.18;   43.133;   38.867;    0.000; 4.26667
 901.43;   60.067;   46.467;    0.000;13.60000
 901.67;   42.467;   44.400;    0.000;-1.93333
 901.91;   81.400;   66.667;    0.000;14.73334
 902.16;   58.000;   46.133;    0.000;11.86666
 902.40;   86.000;   68.800;    0.000;17.20000
 902.64;   70.867;   80.800;    0.000;-9.93333
 902.89;   96.067;   81.733;    0.000;14.33334
 903.13;  116.533;   86.733;    0.000;29.80000
 903.37;  139.733;  132.800;    0.000; 6.93333
 903.61;  168.067;  135.867;    0.000;32.20000
 903.86;  138.600;  140.667;    0.000;-2.06667
 904.10;  164.400;  146.200;    0.000;18.20000
 904.34;  175.400;  171.133;    0.000; 4.26666
 904.59;  193.600;  189.400;    0.000; 4.20001
 904.83;  233.667;  214.067;    0.000;19.60001
 905.07;  273.867;  252.800;    0.000;21.06667
 905.31;  295.933;  319.667;    0.000;-23.73334
 905.56;  326.867;  313.533;    0.000;13.33334
 905.80;  403.133;  365.800;    0.000;37.33334

