point3
Integration time [ms]:  15.000
Averaging Nr. [scans]: 15
Smoothing Nr. [pixels]: 0
Data measured with spectrometer [name]: 1307078U2
Wave   ;Sample   ;Dark     ;Reference;Scope Corrected for Dark
[nm]   ;[counts] ;[counts] ;[counts] 

 351.07;   -1.267;   -0.467;    0.000;-0.80000
 351.37;   13.600;   -9.733;    0.000;23.33333
 351.66;   21.867;  -16.933;    0.000;38.80000
 351.95;    7.333;   -3.067;    0.000;10.40000
 352.24;  -12.200;  -14.000;    0.000; 1.80000
 352.54;    5.400;  -15.800;    0.000;21.20000
 352.83;  -20.267;    7.667;    0.000;-27.93333
 353.12;    4.533;   -4.400;    0.000; 8.93333
 353.42;   -3.533;    3.400;    0.000;-6.93333
 353.71;   -2.200;  -13.600;    0.000;11.40000
 354.00;   15.733;   -0.867;    0.000;16.60000
 354.30;   10.400;   -8.800;    0.000;19.20000
 354.59;    2.600;   -0.533;    0.000; 3.13333
 354.88;    6.733;  -15.800;    0.000;22.53333
 355.17;   -1.533;   -0.267;    0.000;-1.26667
 355.47;   -6.933;  -26.933;    0.000;20.00000
 355.76;   23.333;    3.600;    0.000;19.73333
 356.05;    3.533;  -14.467;    0.000;18.00000
 356.35;   17.000;    5.400;    0.000;11.60000
 356.64;   21.267;   14.200;    0.000; 7.06667
 356.93;   24.533;   -3.267;    0.000;27.80000
 357.22;   24.400;   -2.333;    0.000;26.73333
 357.52;    3.067;    5.400;    0.000;-2.33333
 357.81;    2.333;    4.200;    0.000;-1.86667
 358.10;   13.067;   -9.200;    0.000;22.26667
 358.39;  -12.467;    9.067;    0.000;-21.53333
 358.69;   16.133;    7.200;    0.000; 8.93333
 358.98;    2.333;  -28.000;    0.000;30.33333
 359.27;   10.600;   -1.800;    0.000;12.40000
 359.57;   13.400;    3.533;    0.000; 9.86667
 359.86;    1.133;    1.733;    0.000;-0.60000
 360.15;   27.533;    1.733;    0.000;25.80000
 360.44;  -24.600;   -6.867;    0.000;-17.73333
 360.74;    0.333;   -0.400;    0.000; 0.73333
 361.03;    1.800;  -13.867;    0.000;15.66667
 361.32;    8.333;   10.467;    0.000;-2.13333
 361.61;   -0.400;  -21.600;    0.000;21.20000
 361.91;   13.000;    2.200;    0.000;10.80000
 362.20;   -0.533;  -12.333;    0.000;11.80000
 362.49;    5.467;  -14.800;    0.000;20.26667
 362.78;   22.000;  -15.800;    0.000;37.80000
 363.08;    7.667;   -4.133;    0.000;11.80000
 363.37;   17.467;   -9.200;    0.000;26.66667
 363.66;   24.600;   -3.667;    0.000;28.26667
 363.95;   -6.933;  -16.000;    0.000; 9.06667
 364.24;   11.000;   -0.733;    0.000;11.73333
 364.54;  -11.400;   -6.733;    0.000;-4.66667
 364.83;   -7.000;  -21.067;    0.000;14.06667
 365.12;  -11.600;  -13.800;    0.000; 2.20000
 365.41;   19.933;    0.733;    0.000;19.20000
 365.71;    4.333;    0.200;    0.000; 4.13333
 366.00;    2.200;   -7.733;    0.000; 9.93333
 366.29;   -2.867;  -12.667;    0.000; 9.80000
 366.58;    3.600;   -6.533;    0.000;10.13333
 366.87;   21.400;    7.333;    0.000;14.06667
 367.17;   20.667;   -2.200;    0.000;22.86667
 367.46;   -7.133;   -6.133;    0.000;-1.00000
 367.75;    5.067;  -22.333;    0.000;27.40000
 368.04;    5.333;  -11.333;    0.000;16.66667
 368.34;    9.733;   -2.667;    0.000;12.40000
 368.63;    1.067;  -12.933;    0.000;14.00000
 368.92;    5.600;   18.867;    0.000;-13.26667
 369.21;   12.933;    6.933;    0.000; 6.00000
 369.50;   19.933;   -3.733;    0.000;23.66667
 369.80;    4.600;  -16.533;    0.000;21.13333
 370.09;    9.933;  -12.067;    0.000;22.00000
 370.38;   -6.667;   -0.533;    0.000;-6.13333
 370.67;    6.600;  -23.467;    0.000;30.06667
 370.96;  -14.467;  -26.133;    0.000;11.66667
 371.26;    0.333;   -4.600;    0.000; 4.93333
 371.55;    3.333;  -20.400;    0.000;23.73333
 371.84;    5.067;  -17.800;    0.000;22.86667
 372.13;  -10.867;  -35.800;    0.000;24.93333
 372.42;   13.933;   13.867;    0.000; 0.06667
 372.71;    8.867;   10.067;    0.000;-1.20000
 373.01;    6.200;    4.267;    0.000; 1.93333
 373.30;  -13.667;  -13.733;    0.000; 0.06667
 373.59;    8.733;  -10.800;    0.000;19.53333
 373.88;   14.800;  -11.600;    0.000;26.40000
 374.17;   16.200;    7.467;    0.000; 8.73333
 374.46;   16.867;  -11.133;    0.000;28.00000
 374.76;    4.867;   -7.267;    0.000;12.13333
 375.05;   14.600;   11.267;    0.000; 3.33333
 375.34;    6.933;  -15.067;    0.000;22.00000
 375.63;   10.467;  -15.733;    0.000;26.20000
 375.92;   -8.600;  -15.800;    0.000; 7.20000
 376.21;   18.800;  -30.600;    0.000;49.40000
 376.51;    9.400;  -15.200;    0.000;24.60000
 376.80;   -0.667;  -17.733;    0.000;17.06667
 377.09;    3.067;   -1.133;    0.000; 4.20000
 377.38;    9.267;  -14.333;    0.000;23.60000
 377.67;   21.133;  -13.067;    0.000;34.20000
 377.96;   -8.667;   -8.800;    0.000; 0.13333
 378.25;    8.333;  -10.533;    0.000;18.86667
 378.55;  -14.333;  -15.867;    0.000; 1.53333
 378.84;   -4.333;   -0.067;    0.000;-4.26667
 379.13;   20.400;   -3.467;    0.000;23.86667
 379.42;    4.133;   -4.933;    0.000; 9.06667
 379.71;    5.533;  -16.933;    0.000;22.46667
 380.00;   31.467;   -2.933;    0.000;34.40000
 380.29;  -24.400;  -10.800;    0.000;-13.60000
 380.59;   18.267;   -2.733;    0.000;21.00000
 380.88;   -0.733;   -9.000;    0.000; 8.26667
 381.17;  -13.133;   -4.000;    0.000;-9.13333
 381.46;    4.200;  -18.867;    0.000;23.06667
 381.75;   -1.533;  -16.800;    0.000;15.26667
 382.04;    2.333;   10.200;    0.000;-7.86667
 382.33;   -3.200;   -2.733;    0.000;-0.46667
 382.62;  -13.400;  -15.933;    0.000; 2.53333
 382.91;    8.533;  -22.333;    0.000;30.86667
 383.21;   -7.067;  -15.400;    0.000; 8.33333
 383.50;   -3.867;   -4.467;    0.000; 0.60000
 383.79;   -9.267;   -5.933;    0.000;-3.33333
 384.08;   -1.267;    9.000;    0.000;-10.26667
 384.37;   -7.667;  -16.467;    0.000; 8.80000
 384.66;   10.133;    6.267;    0.000; 3.86667
 384.95;  -17.800;  -19.067;    0.000; 1.26667
 385.24;   -2.067;  -10.133;    0.000; 8.06667
 385.53;  -11.333;   -4.267;    0.000;-7.06667
 385.83;   -9.933;  -32.200;    0.000;22.26667
 386.12;    6.200;    5.800;    0.000; 0.40000
 386.41;  -18.133;   -7.267;    0.000;-10.86667
 386.70;   -8.333;  -10.000;    0.000; 1.66667
 386.99;    9.933;    0.400;    0.000; 9.53333
 387.28;   10.933;   -0.333;    0.000;11.26667
 387.57;    5.667;  -10.600;    0.000;16.26667
 387.86;   10.000;  -19.333;    0.000;29.33333
 388.15;  -16.800;   -1.067;    0.000;-15.73333
 388.44;   13.667;    1.400;    0.000;12.26667
 388.73;   10.600;   -4.733;    0.000;15.33333
 389.02;   19.667;  -23.400;    0.000;43.06667
 389.31;   -4.200;  -23.800;    0.000;19.60000
 389.61;    6.600;  -12.933;    0.000;19.53333
 389.90;    9.000;  -10.067;    0.000;19.06667
 390.19;   14.667;   -9.600;    0.000;24.26667
 390.48;  -15.000;   -7.000;    0.000;-8.00000
 390.77;   -9.333;  -10.933;    0.000; 1.60000
 391.06;    1.800;    6.667;    0.000;-4.86667
 391.35;  -11.133;  -39.400;    0.000;28.26667
 391.64;    9.333;    7.867;    0.000; 1.46667
 391.93;  -16.200;  -11.467;    0.000;-4.73333
 392.22;   -0.133;    0.000;    0.000;-0.13333
 392.51;   -1.800;   -3.133;    0.000; 1.33333
 392.80;    5.733;   -8.133;    0.000;13.86667
 393.09;   -6.200;  -13.400;    0.000; 7.20000
 393.38;   16.800;    1.867;    0.000;14.93333
 393.67;    1.267;  -21.467;    0.000;22.73333
 393.96;   23.467;   -9.333;    0.000;32.80000
 394.25;    6.667;  -34.267;    0.000;40.93333
 394.54;   10.400;    1.067;    0.000; 9.33333
 394.83;   -9.533;  -23.200;    0.000;13.66667
 395.13;    0.200;    1.867;    0.000;-1.66667
 395.42;    8.000;   -1.267;    0.000; 9.26667
 395.71;    8.133;  -13.000;    0.000;21.13333
 396.00;    4.333;   -7.000;    0.000;11.33333
 396.29;    5.333;  -23.400;    0.000;28.73333
 396.58;    8.533;  -29.000;    0.000;37.53333
 396.87;    0.267;  -20.267;    0.000;20.53333
 397.16;  -11.867;  -25.533;    0.000;13.66667
 397.45;    6.067;    1.667;    0.000; 4.40000
 397.74;    1.533;  -18.533;    0.000;20.06667
 398.03;   -8.667;  -25.133;    0.000;16.46667
 398.32;  -11.933;  -16.267;    0.000; 4.33333
 398.61;    2.733;   -0.533;    0.000; 3.26667
 398.90;   -1.733;  -15.000;    0.000;13.26667
 399.19;   -6.067;  -15.667;    0.000; 9.60000
 399.48;   13.333;  -10.067;    0.000;23.40000
 399.77;   -4.600;  -20.000;    0.000;15.40000
 400.06;    2.933;   -0.267;    0.000; 3.20000
 400.35;    6.200;   -5.867;    0.000;12.06667
 400.64;  -11.800;  -21.333;    0.000; 9.53333
 400.93;   21.800;   -9.267;    0.000;31.06667
 401.22;   -2.800;  -13.067;    0.000;10.26667
 401.51;   10.200;  -22.733;    0.000;32.93333
 401.80;   -7.267;    8.867;    0.000;-16.13333
 402.09;   -4.867;  -17.867;    0.000;13.00000
 402.38;   -4.600;   -2.067;    0.000;-2.53333
 402.67;   -6.667;   -2.733;    0.000;-3.93333
 402.96;   14.067;    0.267;    0.000;13.80000
 403.25;    4.867;   12.400;    0.000;-7.53333
 403.54;   -1.933;  -11.467;    0.000; 9.53333
 403.83;   -5.400;  -22.333;    0.000;16.93333
 404.12;   10.933;  -21.867;    0.000;32.80000
 404.41;    9.733;    0.333;    0.000; 9.40000
 404.70;    1.667;   -1.133;    0.000; 2.80000
 404.98;   10.533;   -6.333;    0.000;16.86667
 405.27;   -6.733;   -8.667;    0.000; 1.93333
 405.56;    1.867;   -7.467;    0.000; 9.33333
 405.85;  -10.267;  -17.133;    0.000; 6.86667
 406.14;  -11.267;   -3.467;    0.000;-7.80000
 406.43;   -8.133;  -24.733;    0.000;16.60000
 406.72;    6.867;   -3.200;    0.000;10.06667
 407.01;    1.133;   -6.267;    0.000; 7.40000
 407.30;   -2.067;  -20.533;    0.000;18.46667
 407.59;    0.400;  -19.600;    0.000;20.00000
 407.88;   -7.733;   -9.733;    0.000; 2.00000
 408.17;  -19.667;  -13.867;    0.000;-5.80000
 408.46;   -6.067;  -11.000;    0.000; 4.93333
 408.75;   -4.867;    9.067;    0.000;-13.93333
 409.04;   -4.733;  -18.600;    0.000;13.86667
 409.33;  -28.067;   -2.133;    0.000;-25.93333
 409.62;   13.467;    0.933;    0.000;12.53333
 409.91;  -17.200;  -35.533;    0.000;18.33333
 410.20;  -10.933;  -14.133;    0.000; 3.20000
 410.48;    4.400;   -4.667;    0.000; 9.06667
 410.77;   -3.133;   -4.533;    0.000; 1.40000
 411.06;   -2.867;    5.467;    0.000;-8.33333
 411.35;   29.067;    1.467;    0.000;27.60000
 411.64;   -5.733;   -7.800;    0.000; 2.06667
 411.93;    6.733;    8.267;    0.000;-1.53333
 412.22;    4.733;  -30.267;    0.000;35.00000
 412.51;  -20.267;  -32.467;    0.000;12.20000
 412.80;    1.933;   -4.600;    0.000; 6.53333
 413.09;   -7.533;  -12.400;    0.000; 4.86667
 413.38;    9.800;    4.267;    0.000; 5.53333
 413.67;   -0.333;   -4.667;    0.000; 4.33333
 413.96;  -11.867;  -24.400;    0.000;12.53333
 414.24;  -10.467;    0.333;    0.000;-10.80000
 414.53;    8.333;  -11.867;    0.000;20.20000
 414.82;   -0.733;   -2.267;    0.000; 1.53333
 415.11;    4.933;   -6.267;    0.000;11.20000
 415.40;  -10.400;    2.667;    0.000;-13.06667
 415.69;    0.067;  -13.667;    0.000;13.73333
 415.98;    0.600;  -21.000;    0.000;21.60000
 416.27;  -11.733;  -40.400;    0.000;28.66667
 416.56;  -20.467;  -27.133;    0.000; 6.66667
 416.84;  -16.867;  -10.667;    0.000;-6.20000
 417.13;  -22.867;  -13.467;    0.000;-9.40000
 417.42;   10.667;  -22.667;    0.000;33.33333
 417.71;    0.000;  -19.933;    0.000;19.93333
 418.00;    7.733;   -6.333;    0.000;14.06667
 418.29;   -1.600;  -17.133;    0.000;15.53333
 418.58;   -8.000;  -35.733;    0.000;27.73333
 418.87;    8.000;  -34.600;    0.000;42.60000
 419.15;   14.333;   -7.267;    0.000;21.60000
 419.44;  -10.400;  -17.667;    0.000; 7.26667
 419.73;    3.733;  -16.467;    0.000;20.20000
 420.02;  -26.000;  -15.600;    0.000;-10.40000
 420.31;  -31.467;  -11.733;    0.000;-19.73333
 420.60;   -1.600;  -10.133;    0.000; 8.53333
 420.89;  -13.800;  -22.133;    0.000; 8.33333
 421.18;    3.667;  -19.800;    0.000;23.46667
 421.46;  -15.333;   -4.467;    0.000;-10.86667
 421.75;  -17.533;   -2.600;    0.000;-14.93333
 422.04;   -8.200;  -18.467;    0.000;10.26667
 422.33;   15.400;    0.933;    0.000;14.46667
 422.62;   -9.400;   -9.600;    0.000; 0.20000
 422.91;   -8.400;  -23.533;    0.000;15.13333
 423.19;   -7.400;  -25.933;    0.000;18.53333
 423.48;    4.067;   -7.000;    0.000;11.06667
 423.77;  -30.667;  -23.133;    0.000;-7.53333
 424.06;  -16.067;  -17.733;    0.000; 1.66667
 424.35;  -14.267;  -27.667;    0.000;13.40000
 424.64;   15.067;    0.400;    0.000;14.66667
 424.93;  -23.133;  -33.933;    0.000;10.80000
 425.21;  -10.267;   -9.800;    0.000;-0.46667
 425.50;   12.800;  -25.600;    0.000;38.40000
 425.79;    4.133;  -22.933;    0.000;27.06667
 426.08;   -2.333;  -11.867;    0.000; 9.53333
 426.37;    2.733;  -11.733;    0.000;14.46667
 426.65;  -10.733;  -22.333;    0.000;11.60000
 426.94;   10.667;  -36.400;    0.000;47.06667
 427.23;    4.400;  -14.667;    0.000;19.06667
 427.52;    1.667;  -25.333;    0.000;27.00000
 427.81;   -8.467;  -38.733;    0.000;30.26667
 428.10;   16.267;   -7.200;    0.000;23.46667
 428.38;  -37.400;  -15.467;    0.000;-21.93334
 428.67;   -3.000;  -30.267;    0.000;27.26667
 428.96;  -23.133;  -36.200;    0.000;13.06667
 429.25;    7.133;   -2.200;    0.000; 9.33333
 429.54;  -10.867;  -27.000;    0.000;16.13333
 429.82;    8.800;   -9.733;    0.000;18.53333
 430.11;   12.733;  -17.067;    0.000;29.80000
 430.40;   -6.133;   -6.267;    0.000; 0.13333
 430.69;  -25.733;   21.733;    0.000;-47.46667
 430.98;   -5.733;  -23.333;    0.000;17.60000
 431.26;    2.067;   -4.733;    0.000; 6.80000
 431.55;   -2.533;   -1.933;    0.000;-0.60000
 431.84;   -0.067;   -8.800;    0.000; 8.73333
 432.13;   -9.667;   -1.600;    0.000;-8.06667
 432.41;   -2.133;  -37.667;    0.000;35.53333
 432.70;    0.200;  -14.733;    0.000;14.93333
 432.99;   -8.267;  -40.867;    0.000;32.60000
 433.28;    2.067;  -23.933;    0.000;26.00000
 433.57;   -5.600;  -26.133;    0.000;20.53333
 433.85;    6.533;   -1.867;    0.000; 8.40000
 434.14;    5.467;   -9.533;    0.000;15.00000
 434.43;   27.200;  -21.267;    0.000;48.46667
 434.72;  -20.467;   -8.533;    0.000;-11.93333
 435.00;  -10.667;  -34.933;    0.000;24.26667
 435.29;  -17.600;  -24.333;    0.000; 6.73333
 435.58;   29.467;    7.067;    0.000;22.40000
 435.87;   -1.267;  -18.067;    0.000;16.80000
 436.15;  -15.267;  -21.600;    0.000; 6.33333
 436.44;    6.733;   -7.000;    0.000;13.73333
 436.73;   -9.400;   -8.400;    0.000;-1.00000
 437.02;    5.933;  -20.667;    0.000;26.60000
 437.30;    9.267;   -1.800;    0.000;11.06667
 437.59;  -14.133;  -17.267;    0.000; 3.13333
 437.88;  -14.533;  -13.200;    0.000;-1.33333
 438.17;  -21.067;  -13.067;    0.000;-8.00000
 438.45;   -6.533;  -17.467;    0.000;10.93333
 438.74;   -4.200;  -15.200;    0.000;11.00000
 439.03;  -11.067;   -1.467;    0.000;-9.60000
 439.32;   -9.067;  -22.467;    0.000;13.40000
 439.60;    1.133;  -10.467;    0.000;11.60000
 439.89;   -7.333;  -21.933;    0.000;14.60000
 440.18;   -1.733;  -26.133;    0.000;24.40000
 440.46;  -26.133;  -26.400;    0.000; 0.26667
 440.75;    8.533;  -21.733;    0.000;30.26667
 441.04;  -10.667;  -30.133;    0.000;19.46667
 441.33;   -6.400;  -12.400;    0.000; 6.00000
 441.61;  -23.000;  -18.400;    0.000;-4.60000
 441.90;   16.600;   -4.333;    0.000;20.93333
 442.19;  -12.133;  -21.400;    0.000; 9.26667
 442.47;   -7.800;  -16.667;    0.000; 8.86667
 442.76;   -5.867;  -26.333;    0.000;20.46667
 443.05;   -3.600;   -8.800;    0.000; 5.20000
 443.34;   -6.867;  -14.267;    0.000; 7.40000
 443.62;  -12.133;   -3.933;    0.000;-8.20000
 443.91;    3.333;  -35.400;    0.000;38.73333
 444.20;    2.733;   -6.200;    0.000; 8.93333
 444.48;  -30.133;  -29.400;    0.000;-0.73333
 444.77;   32.133;   -0.267;    0.000;32.40000
 445.06;   -5.067;  -25.600;    0.000;20.53333
 445.34;    1.467;  -19.933;    0.000;21.40000
 445.63;  -20.200;   -5.267;    0.000;-14.93333
 445.92;    0.133;    2.267;    0.000;-2.13333
 446.21;   -4.600;  -33.667;    0.000;29.06667
 446.49;  -19.867;   -1.200;    0.000;-18.66667
 446.78;    3.067;   -1.933;    0.000; 5.00000
 447.07;   -2.533;  -34.000;    0.000;31.46667
 447.35;   -8.333;   -8.267;    0.000;-0.06667
 447.64;   -6.533;  -18.333;    0.000;11.80000
 447.93;  -21.333;  -24.267;    0.000; 2.93333
 448.21;   -4.200;  -21.467;    0.000;17.26667
 448.50;   -6.067;  -31.267;    0.000;25.20000
 448.79;  -30.533;  -20.333;    0.000;-10.20000
 449.07;    3.733;  -26.800;    0.000;30.53333
 449.36;  -12.133;  -23.333;    0.000;11.20000
 449.65;  -24.867;  -19.067;    0.000;-5.80000
 449.93;  -24.133;  -14.200;    0.000;-9.93333
 450.22;   -0.600;  -15.667;    0.000;15.06667
 450.51;  -17.600;  -39.067;    0.000;21.46667
 450.79;  -22.600;  -39.600;    0.000;17.00000
 451.08;    4.533;  -21.867;    0.000;26.40000
 451.36;  -22.267;  -35.400;    0.000;13.13334
 451.65;    4.267;  -14.733;    0.000;19.00000
 451.94;    3.733;  -35.933;    0.000;39.66667
 452.22;  -32.133;  -32.067;    0.000;-0.06667
 452.51;   -9.067;  -36.667;    0.000;27.60000
 452.80;  -22.867;  -37.067;    0.000;14.20000
 453.08;  -10.733;  -30.867;    0.000;20.13333
 453.37;    9.800;  -12.667;    0.000;22.46667
 453.66;   -8.267;  -23.067;    0.000;14.80000
 453.94;   -5.467;  -31.000;    0.000;25.53333
 454.23;   -9.400;  -27.733;    0.000;18.33333
 454.51;   13.467;   -9.933;    0.000;23.40000
 454.80;  -38.933;  -30.800;    0.000;-8.13334
 455.09;   10.800;  -28.933;    0.000;39.73333
 455.37;   -6.400;  -33.600;    0.000;27.20000
 455.66;  -13.400;  -28.133;    0.000;14.73333
 455.95;    0.133;  -21.400;    0.000;21.53333
 456.23;    5.067;  -20.933;    0.000;26.00000
 456.52;  -29.733;  -28.200;    0.000;-1.53333
 456.80;    9.533;  -29.933;    0.000;39.46667
 457.09;   -4.800;  -23.800;    0.000;19.00000
 457.38;   12.333;  -11.333;    0.000;23.66667
 457.66;  -10.067;  -13.667;    0.000; 3.60000
 457.95;    1.400;   -7.867;    0.000; 9.26667
 458.23;    3.133;  -37.000;    0.000;40.13333
 458.52;    6.400;  -15.000;    0.000;21.40000
 458.81;   -6.333;  -10.467;    0.000; 4.13333
 459.09;    1.400;  -26.133;    0.000;27.53333
 459.38;    1.733;  -22.667;    0.000;24.40000
 459.66;   -7.400;  -35.933;    0.000;28.53333
 459.95;   -5.333;  -48.267;    0.000;42.93333
 460.23;   -6.867;  -12.333;    0.000; 5.46667
 460.52;  -18.467;  -14.933;    0.000;-3.53333
 460.81;   -7.333;  -32.000;    0.000;24.66667
 461.09;   -6.067;  -39.133;    0.000;33.06667
 461.38;   -9.667;  -21.267;    0.000;11.60000
 461.66;  -26.733;  -33.133;    0.000; 6.40000
 461.95;  -30.467;  -34.067;    0.000; 3.60000
 462.23;  -28.200;  -17.800;    0.000;-10.40000
 462.52;   -4.667;  -24.600;    0.000;19.93333
 462.81;    5.867;  -17.533;    0.000;23.40000
 463.09;   -4.867;  -45.400;    0.000;40.53333
 463.38;   -7.400;  -31.133;    0.000;23.73333
 463.66;   -4.200;  -19.467;    0.000;15.26667
 463.95;   -8.067;   -5.333;    0.000;-2.73333
 464.23;  -13.533;  -27.333;    0.000;13.80000
 464.52;    1.000;  -23.267;    0.000;24.26667
 464.80;  -12.200;  -18.067;    0.000; 5.86667
 465.09;    2.200;  -18.333;    0.000;20.53333
 465.38;   -1.067;  -32.800;    0.000;31.73333
 465.66;   -8.600;  -11.667;    0.000; 3.06667
 465.95;   -2.533;  -19.267;    0.000;16.73333
 466.23;   -5.467;  -34.400;    0.000;28.93333
 466.52;  -20.467;  -22.000;    0.000; 1.53333
 466.80;   14.600;   -6.067;    0.000;20.66667
 467.09;   -4.133;  -29.267;    0.000;25.13333
 467.37;   -4.333;  -32.933;    0.000;28.60000
 467.66;    7.733;    8.000;    0.000;-0.26667
 467.94;   -2.133;  -34.733;    0.000;32.60000
 468.23;  -12.933;  -31.667;    0.000;18.73333
 468.51;   -4.733;  -12.267;    0.000; 7.53333
 468.80;  -16.200;  -25.133;    0.000; 8.93333
 469.08;    0.933;  -17.067;    0.000;18.00000
 469.37;  -12.400;  -38.200;    0.000;25.80000
 469.66;   -2.800;  -24.133;    0.000;21.33333
 469.94;   -3.667;  -17.200;    0.000;13.53333
 470.23;  -25.933;  -13.000;    0.000;-12.93333
 470.51;   -9.867;  -41.600;    0.000;31.73333
 470.80;    4.467;  -12.867;    0.000;17.33333
 471.08;   -3.200;  -20.667;    0.000;17.46667
 471.37;   -6.333;  -16.600;    0.000;10.26667
 471.65;   29.400;   -2.667;    0.000;32.06667
 471.94;   -7.000;  -30.267;    0.000;23.26667
 472.22;  -19.800;  -39.933;    0.000;20.13334
 472.51;   -8.600;  -15.600;    0.000; 7.00000
 472.79;    0.400;  -29.333;    0.000;29.73333
 473.08;   -3.200;  -23.333;    0.000;20.13333
 473.36;    0.533;  -19.333;    0.000;19.86667
 473.64;    2.067;  -26.667;    0.000;28.73333
 473.93;    7.000;  -20.267;    0.000;27.26667
 474.21;    1.933;  -26.667;    0.000;28.60000
 474.50;  -19.533;  -12.800;    0.000;-6.73333
 474.78;   22.000;    4.000;    0.000;18.00000
 475.07;    1.667;  -19.267;    0.000;20.93333
 475.35;   12.200;  -21.400;    0.000;33.60000
 475.64;   -3.267;  -14.000;    0.000;10.73333
 475.92;   -8.000;  -29.800;    0.000;21.80000
 476.21;    5.000;  -21.133;    0.000;26.13333
 476.49;   -1.600;  -30.800;    0.000;29.20000
 476.78;   -3.467;  -35.267;    0.000;31.80000
 477.06;  -18.200;  -28.333;    0.000;10.13333
 477.35;    3.533;   -7.867;    0.000;11.40000
 477.63;  -11.467;  -38.067;    0.000;26.60000
 477.91;  -22.533;  -37.067;    0.000;14.53333
 478.20;  -12.267;  -38.800;    0.000;26.53333
 478.48;   41.600;    8.600;    0.000;33.00000
 478.77;   -8.333;  -16.400;    0.000; 8.06667
 479.05;  -20.067;  -29.133;    0.000; 9.06667
 479.34;    8.267;    1.133;    0.000; 7.13333
 479.62;    5.800;  -15.133;    0.000;20.93333
 479.91;  -14.533;  -23.200;    0.000; 8.66667
 480.19;    2.600;  -14.733;    0.000;17.33333
 480.47;  -17.733;  -34.133;    0.000;16.40000
 480.76;   13.200;  -26.600;    0.000;39.80000
 481.04;  -17.867;  -34.000;    0.000;16.13333
 481.33;    2.267;  -16.533;    0.000;18.80000
 481.61;    4.333;  -28.467;    0.000;32.80000
 481.90;    4.867;  -34.067;    0.000;38.93333
 482.18;  -19.200;  -20.400;    0.000; 1.20000
 482.46;  -21.867;  -37.933;    0.000;16.06667
 482.75;  -16.667;  -35.200;    0.000;18.53333
 483.03;   -3.467;  -27.667;    0.000;24.20000
 483.32;    2.200;  -28.933;    0.000;31.13333
 483.60;   -4.333;  -21.400;    0.000;17.06667
 483.88;    1.133;  -22.000;    0.000;23.13333
 484.17;   10.067;  -16.133;    0.000;26.20000
 484.45;   -6.667;  -23.867;    0.000;17.20000
 484.74;    2.000;  -25.533;    0.000;27.53333
 485.02;    3.867;  -17.867;    0.000;21.73333
 485.30;   12.333;   -3.333;    0.000;15.66667
 485.59;   -7.667;   -9.733;    0.000; 2.06667
 485.87;   22.400;  -14.267;    0.000;36.66667
 486.16;   -3.467;  -27.000;    0.000;23.53333
 486.44;   10.067;  -30.867;    0.000;40.93333
 486.72;   11.867;  -25.267;    0.000;37.13333
 487.01;    4.933;  -30.533;    0.000;35.46667
 487.29;   19.867;  -37.400;    0.000;57.26667
 487.58;   41.867;  -25.133;    0.000;67.00000
 487.86;   17.200;  -24.667;    0.000;41.86667
 488.14;   22.067;  -38.800;    0.000;60.86667
 488.43;   28.467;  -19.467;    0.000;47.93333
 488.71;   44.467;  -35.133;    0.000;79.60000
 488.99;   30.267;  -16.200;    0.000;46.46667
 489.28;   67.733;  -36.933;    0.000;104.66666
 489.56;   67.867;  -24.467;    0.000;92.33334
 489.85;   68.200;  -30.000;    0.000;98.20000
 490.13;   74.533;  -22.200;    0.000;96.73333
 490.41;   87.333;  -36.867;    0.000;124.20000
 490.70;   93.733;  -52.467;    0.000;146.20000
 490.98;  112.467;  -46.933;    0.000;159.40000
 491.26;  116.267;  -48.400;    0.000;164.66667
 491.55;  141.400;  -30.067;    0.000;171.46666
 491.83;  157.067;   -7.133;    0.000;164.20000
 492.11;  166.000;  -23.000;    0.000;189.00000
 492.40;  182.267;  -27.533;    0.000;209.80000
 492.68;  208.133;  -22.400;    0.000;230.53333
 492.96;  231.667;  -35.000;    0.000;266.66667
 493.25;  247.467;  -33.867;    0.000;281.33332
 493.53;  248.267;  -26.267;    0.000;274.53333
 493.81;  304.533;  -37.267;    0.000;341.79999
 494.10;  309.400;  -29.200;    0.000;338.59999
 494.38;  349.133;  -29.067;    0.000;378.20000
 494.66;  375.067;  -19.800;    0.000;394.86668
 494.95;  424.467;  -24.533;    0.000;449.00001
 495.23;  451.333;  -19.800;    0.000;471.13334
 495.51;  470.467;  -18.867;    0.000;489.33334
 495.80;  498.667;  -26.533;    0.000;525.19999
 496.08;  561.800;  -15.867;    0.000;577.66665
 496.36;  593.667;  -11.000;    0.000;604.66669
 496.65;  635.333;  -30.600;    0.000;665.93331
 496.93;  661.600;  -43.533;    0.000;705.13331
 497.21;  697.000;  -20.533;    0.000;717.53333
 497.50;  753.133;   -9.400;    0.000;762.53336
 497.78;  803.533;  -36.733;    0.000;840.26666
 498.06;  868.000;  -22.733;    0.000;890.73333
 498.34;  886.400;  -20.400;    0.000;906.80002
 498.63;  944.533;  -34.667;    0.000;979.19999
 498.91; 1043.333;  -23.200;    0.000;1066.53337
 499.19; 1068.133;  -16.800;    0.000;1084.93330
 499.48; 1130.533;  -23.067;    0.000;1153.59999
 499.76; 1201.533;  -19.067;    0.000;1220.59999
 500.04; 1279.667;  -23.267;    0.000;1302.93329
 500.32; 1340.800;  -15.467;    0.000;1356.26672
 500.61; 1417.000;  -34.733;    0.000;1451.73333
 500.89; 1438.867;  -26.800;    0.000;1465.66670
 501.17; 1574.267;   -9.533;    0.000;1583.80006
 501.46; 1648.133;  -34.067;    0.000;1682.19997
 501.74; 1710.733;  -31.400;    0.000;1742.13328
 502.02; 1781.733;  -12.933;    0.000;1794.66661
 502.30; 1845.267;  -29.467;    0.000;1874.73339
 502.59; 1912.467;  -32.933;    0.000;1945.40001
 502.87; 1975.200;  -34.667;    0.000;2009.86662
 503.15; 2108.133;  -13.133;    0.000;2121.26663
 503.43; 2182.267;  -26.400;    0.000;2208.66660
 503.72; 2301.200;  -34.800;    0.000;2335.99995
 504.00; 2384.467;  -18.467;    0.000;2402.93322
 504.28; 2406.800;  -34.200;    0.000;2441.00005
 504.56; 2577.400;  -17.333;    0.000;2594.73324
 504.85; 2640.000;  -14.067;    0.000;2654.06667
 505.13; 2734.933;  -43.867;    0.000;2778.80001
 505.41; 2811.800;  -30.267;    0.000;2842.06672
 505.69; 2916.267;  -28.067;    0.000;2944.33327
 505.98; 3032.533;  -13.467;    0.000;3046.00011
 506.26; 3174.733;  -30.267;    0.000;3205.00006
 506.54; 3206.733;  -19.867;    0.000;3226.60007
 506.82; 3328.533;  -33.200;    0.000;3361.73345
 507.11; 3448.467;  -35.533;    0.000;3483.99989
 507.39; 3566.533;  -37.467;    0.000;3604.00011
 507.67; 3675.333;  -33.733;    0.000;3709.06659
 507.95; 3812.267;  -27.067;    0.000;3839.33327
 508.23; 3965.133;  -27.133;    0.000;3992.26663
 508.52; 3973.400;  -32.267;    0.000;4005.66657
 508.80; 4110.067;  -48.467;    0.000;4158.53356
 509.08; 4258.133;  -35.400;    0.000;4293.53330
 509.36; 4340.267;  -38.467;    0.000;4378.73327
 509.65; 4408.200;  -23.800;    0.000;4432.00019
 509.93; 4487.533;  -40.000;    0.000;4527.53320
 510.21; 4661.667;  -36.067;    0.000;4697.73317
 510.49; 4817.800;  -33.800;    0.000;4851.59980
 510.77; 4916.867;  -31.400;    0.000;4948.26670
 511.06; 5004.933;  -34.000;    0.000;5038.93311
 511.34; 5120.800;  -28.533;    0.000;5149.33314
 511.62; 5263.667;  -52.267;    0.000;5315.93317
 511.90; 5341.733;  -44.600;    0.000;5386.33340
 512.18; 5411.400;  -43.467;    0.000;5454.86657
 512.47; 5570.933;  -27.267;    0.000;5598.19977
 512.75; 5677.600;  -54.200;    0.000;5731.80010
 513.03; 5689.333;  -20.333;    0.000;5709.66683
 513.31; 5879.933;  -32.733;    0.000;5912.66644
 513.59; 6000.333;  -34.333;    0.000;6034.66683
 513.87; 6123.000;  -46.933;    0.000;6169.93333
 514.16; 6222.467;  -11.600;    0.000;6234.06680
 514.44; 6376.933;  -20.733;    0.000;6397.66644
 514.72; 6372.200;  -35.533;    0.000;6407.73353
 515.00; 6518.533;  -20.200;    0.000;6538.73320
 515.28; 6641.267;  -15.800;    0.000;6657.06660
 515.56; 6736.933;  -37.400;    0.000;6774.33311
 515.85; 6857.600;  -21.933;    0.000;6879.53343
 516.13; 7032.800;  -42.733;    0.000;7075.53314
 516.41; 7108.733;  -30.333;    0.000;7139.06673
 516.69; 7226.867;  -45.200;    0.000;7272.06670
 516.97; 7326.400;  -20.933;    0.000;7347.33323
 517.25; 7388.400;  -22.733;    0.000;7411.13324
 517.54; 7491.533;  -27.200;    0.000;7518.73320
 517.82; 7561.133;  -27.933;    0.000;7589.06663
 518.10; 7700.933;  -14.000;    0.000;7714.93311
 518.38; 7812.400;  -51.467;    0.000;7863.86657
 518.66; 7897.933;  -46.000;    0.000;7943.93311
 518.94; 8002.867;  -28.267;    0.000;8031.13337
 519.22; 8093.000;  -20.533;    0.000;8113.53333
 519.51; 8155.733;  -38.133;    0.000;8193.86673
 519.79; 8331.934;  -30.867;    0.000;8362.80026
 520.07; 8426.800;  -18.600;    0.000;8445.39981
 520.35; 8406.134;  -26.667;    0.000;8432.80046
 520.63; 8491.066;  -30.667;    0.000;8521.73307
 520.91; 8605.467;  -44.400;    0.000;8649.86680
 521.19; 8648.533;  -37.133;    0.000;8685.66654
 521.47; 8720.600;  -30.200;    0.000;8750.79961
 521.75; 8891.066;  -18.400;    0.000;8909.46641
 522.04; 8934.934;  -42.867;    0.000;8977.80026
 522.32; 9029.066;  -40.667;    0.000;9069.73307
 522.60; 9176.733;  -16.067;    0.000;9192.80007
 522.88; 9200.267;  -38.467;    0.000;9238.73327
 523.16; 9256.667;  -42.933;    0.000;9299.60033
 523.44; 9342.134;  -17.333;    0.000;9359.46712
 523.72; 9433.200;  -19.133;    0.000;9452.33353
 524.00; 9513.066;  -14.200;    0.000;9527.26641
 524.28; 9595.733;  -41.333;    0.000;9637.06673
 524.57; 9639.200;  -28.533;    0.000;9667.73353
 524.85; 9763.333;  -20.933;    0.000;9784.26634
 525.13; 9830.134;  -20.267;    0.000;9850.40046
 525.41; 9913.267;  -13.533;    0.000;9926.79994
 525.69; 9952.267;  -30.933;    0.000;9983.19993
 525.97;10016.134;  -13.467;    0.000;10029.60046
 526.25;10018.934;  -41.400;    0.000;10060.33360
 526.53;10176.400;  -28.467;    0.000;10204.86706
 526.81;10238.667;  -34.467;    0.000;10273.13366
 527.09;10315.333;  -26.000;    0.000;10341.33301
 527.37;10371.667;  -40.600;    0.000;10412.26699
 527.65;10353.400;  -36.933;    0.000;10390.33372
 527.93;10401.134;  -39.733;    0.000;10440.86712
 528.22;10402.533;  -12.733;    0.000;10415.26654
 528.50;10538.000;  -39.533;    0.000;10577.53333
 528.78;10601.800;  -13.867;    0.000;10615.66647
 529.06;10789.934;  -21.333;    0.000;10811.26693
 529.34;10803.333;  -27.933;    0.000;10831.26634
 529.62;10776.000;  -48.467;    0.000;10824.46667
 529.90;10829.333;  -42.733;    0.000;10872.06634
 530.18;10991.400;  -26.867;    0.000;11018.26706
 530.46;11021.333;  -23.533;    0.000;11044.86634
 530.74;10967.000;  -23.000;    0.000;10990.00000
 531.02;11057.200;  -20.800;    0.000;11078.00019
 531.30;11185.800;  -22.533;    0.000;11208.33314
 531.58;11273.000;  -30.800;    0.000;11303.80000
 531.86;11293.800;  -42.000;    0.000;11335.79980
 532.14;11321.600;  -34.733;    0.000;11356.33294
 532.42;11400.667;  -42.133;    0.000;11442.80033
 532.70;11444.000;  -27.200;    0.000;11471.20000
 532.98;11391.934;  -31.400;    0.000;11423.33359
 533.26;11544.667;  -14.000;    0.000;11558.66699
 533.54;11500.400;  -46.133;    0.000;11546.53373
 533.82;11558.333;  -33.467;    0.000;11591.79967
 534.10;11611.600;  -40.667;    0.000;11652.26628
 534.38;11665.934;  -29.267;    0.000;11695.20026
 534.66;11764.934;  -50.067;    0.000;11815.00026
 534.94;11818.400;  -21.800;    0.000;11840.20039
 535.22;11779.600;  -50.733;    0.000;11830.33294
 535.50;11903.600;  -29.933;    0.000;11933.53294
 535.78;11967.066;  -57.267;    0.000;12024.33307
 536.06;11950.866;  -50.533;    0.000;12001.39954
 536.34;12007.866;  -55.067;    0.000;12062.93288
 536.62;11974.667;  -33.400;    0.000;12008.06699
 536.90;12061.600;  -44.533;    0.000;12106.13294
 537.18;12057.267;  -23.600;    0.000;12080.86660
 537.46;12134.934;  -53.933;    0.000;12188.86693
 537.74;12216.667;  -38.400;    0.000;12255.06699
 538.02;12286.667;  -15.733;    0.000;12302.40033
 538.30;12241.667;  -30.267;    0.000;12271.93366
 538.58;12307.200;  -46.400;    0.000;12353.60020
 538.86;12351.134;  -34.733;    0.000;12385.86712
 539.14;12347.733;  -25.333;    0.000;12373.06673
 539.42;12451.733;  -22.067;    0.000;12473.80007
 539.70;12430.866;  -54.133;    0.000;12484.99955
 539.98;12490.667;  -11.467;    0.000;12502.13366
 540.26;12518.066;  -16.667;    0.000;12534.73307
 540.54;12629.533;  -38.000;    0.000;12667.53320
 540.82;12521.600;  -36.067;    0.000;12557.66628
 541.10;12644.934;  -25.067;    0.000;12670.00026
 541.38;12749.467;  -34.667;    0.000;12784.13346
 541.66;12769.600;  -18.600;    0.000;12788.19961
 541.94;12638.467;  -29.467;    0.000;12667.93346
 542.22;12791.667;  -28.533;    0.000;12820.20033
 542.50;12784.467;  -51.800;    0.000;12836.26680
 542.78;12856.400;  -26.200;    0.000;12882.60039
 543.06;12849.866;  -43.733;    0.000;12893.59954
 543.34;12900.600;  -44.200;    0.000;12944.79961
 543.62;12937.800;  -22.133;    0.000;12959.93314
 543.90;12914.000;  -31.000;    0.000;12945.00000
 544.17;12954.800;  -27.200;    0.000;12981.99981
 544.45;13050.733;  -34.667;    0.000;13085.40007
 544.73;13151.000;  -29.867;    0.000;13180.86667
 545.01;13048.333;  -10.667;    0.000;13058.99967
 545.29;13237.467;  -42.667;    0.000;13280.13346
 545.57;13149.733;  -14.400;    0.000;13164.13340
 545.85;13166.866;  -28.467;    0.000;13195.33288
 546.13;13118.800;  -19.400;    0.000;13138.19980
 546.41;13200.267;  -18.867;    0.000;13219.13327
 546.69;13277.333;  -36.600;    0.000;13313.93301
 546.97;13281.134;  -46.333;    0.000;13327.46712
 547.25;13277.000;  -34.200;    0.000;13311.20000
 547.52;13350.667;  -22.667;    0.000;13373.33366
 547.80;13345.200;  -30.600;    0.000;13375.80020
 548.08;13356.934;  -48.133;    0.000;13405.06693
 548.36;13341.134;  -28.867;    0.000;13370.00046
 548.64;13401.866;  -30.267;    0.000;13432.13288
 548.92;13348.467;  -36.800;    0.000;13385.26680
 549.20;13501.200;  -38.533;    0.000;13539.73353
 549.48;13445.600;  -27.133;    0.000;13472.73294
 549.76;13449.467;  -38.333;    0.000;13487.80013
 550.04;13533.066;  -29.867;    0.000;13562.93307
 550.31;13504.134;  -33.267;    0.000;13537.40046
 550.59;13550.800;  -31.533;    0.000;13582.33314
 550.87;13479.866;  -45.400;    0.000;13525.26621
 551.15;13460.200;  -19.267;    0.000;13479.46686
 551.43;13533.200;  -39.067;    0.000;13572.26686
 551.71;13519.667;  -31.667;    0.000;13551.33366
 551.99;13557.934;  -37.000;    0.000;13594.93359
 552.27;13494.400;  -30.533;    0.000;13524.93372
 552.54;13501.267;  -25.933;    0.000;13527.19993
 552.82;13573.533;  -26.600;    0.000;13600.13320
 553.10;13538.533;  -22.800;    0.000;13561.33320
 553.38;13649.934;  -32.333;    0.000;13682.26693
 553.66;13500.600;  -23.133;    0.000;13523.73294
 553.94;13594.733;  -36.200;    0.000;13630.93340
 554.22;13591.866;  -26.200;    0.000;13618.06621
 554.49;13573.400;  -11.067;    0.000;13584.46706
 554.77;13643.267;  -34.200;    0.000;13677.46660
 555.05;13571.533;  -24.867;    0.000;13596.39987
 555.33;13632.667;  -40.333;    0.000;13673.00032
 555.61;13590.400;  -45.733;    0.000;13636.13372
 555.89;13541.467;  -39.667;    0.000;13581.13346
 556.16;13633.600;  -49.933;    0.000;13683.53294
 556.44;13573.934;  -57.333;    0.000;13631.26693
 556.72;13604.667;  -27.000;    0.000;13631.66699
 557.00;13634.333;  -41.933;    0.000;13676.26634
 557.28;13675.934;  -31.133;    0.000;13707.06693
 557.56;13570.333;  -48.067;    0.000;13618.39967
 557.83;13683.400;  -25.400;    0.000;13708.80039
 558.11;13570.066;  -26.533;    0.000;13596.59974
 558.39;13625.200;  -50.467;    0.000;13675.66686
 558.67;13661.400;  -48.133;    0.000;13709.53373
 558.95;13646.400;  -46.600;    0.000;13693.00039
 559.23;13554.200;  -47.200;    0.000;13601.40020
 559.50;13568.667;  -35.933;    0.000;13604.60033
 559.78;13572.866;  -30.400;    0.000;13603.26621
 560.06;13570.866;  -42.667;    0.000;13613.53288
 560.34;13606.800;  -24.667;    0.000;13631.46647
 560.62;13567.200;  -29.467;    0.000;13596.66686
 560.89;13559.134;  -18.000;    0.000;13577.13379
 561.17;13530.066;  -30.733;    0.000;13560.79974
 561.45;13474.533;  -35.133;    0.000;13509.66654
 561.73;13472.333;  -32.933;    0.000;13505.26634
 562.00;13472.134;  -37.067;    0.000;13509.20045
 562.28;13588.934;  -25.000;    0.000;13613.93359
 562.56;13505.467;  -45.333;    0.000;13550.80013
 562.84;13339.733;  -17.133;    0.000;13356.86673
 563.12;13424.134;  -39.200;    0.000;13463.33379
 563.39;13401.333;  -40.267;    0.000;13441.59967
 563.67;13331.600;  -37.333;    0.000;13368.93294
 563.95;13452.267;  -17.667;    0.000;13469.93327
 564.23;13350.467;  -26.733;    0.000;13377.20013
 564.50;13328.733;  -33.533;    0.000;13362.26673
 564.78;13342.866;   -7.933;    0.000;13350.79954
 565.06;13248.066;  -30.000;    0.000;13278.06641
 565.34;13334.800;  -36.600;    0.000;13371.39980
 565.61;13264.733;  -43.600;    0.000;13308.33340
 565.89;13348.533;  -19.933;    0.000;13368.46654
 566.17;13238.667;  -34.333;    0.000;13273.00032
 566.45;13215.400;  -42.333;    0.000;13257.73372
 566.73;13192.467;  -30.200;    0.000;13222.66680
 567.00;13191.267;  -49.067;    0.000;13240.33327
 567.28;13125.667;  -40.000;    0.000;13165.66699
 567.56;13152.866;  -22.867;    0.000;13175.73288
 567.83;13036.934;  -43.533;    0.000;13080.46693
 568.11;13111.467;  -37.000;    0.000;13148.46680
 568.39;12933.733;  -27.000;    0.000;12960.73340
 568.67;13058.400;  -23.733;    0.000;13082.13372
 568.94;12958.934;  -23.600;    0.000;12982.53359
 569.22;13023.533;  -24.600;    0.000;13048.13320
 569.50;13062.000;  -43.267;    0.000;13105.26667
 569.78;12819.533;  -11.400;    0.000;12830.93320
 570.05;12916.800;  -33.333;    0.000;12950.13314
 570.33;12904.533;  -29.133;    0.000;12933.66654
 570.61;12898.066;  -40.000;    0.000;12938.06641
 570.88;12802.934;  -44.800;    0.000;12847.73359
 571.16;12820.267;  -29.467;    0.000;12849.73327
 571.44;12740.934;  -47.600;    0.000;12788.53359
 571.72;12681.200;  -31.467;    0.000;12712.66686
 571.99;12548.400;  -30.600;    0.000;12579.00039
 572.27;12665.866;  -41.133;    0.000;12706.99955
 572.55;12577.934;  -39.667;    0.000;12617.60026
 572.82;12537.267;  -27.133;    0.000;12564.39993
 573.10;12466.934;  -41.933;    0.000;12508.86693
 573.38;12452.134;  -59.867;    0.000;12512.00045
 573.65;12449.134;  -22.667;    0.000;12471.80046
 573.93;12274.733;  -48.933;    0.000;12323.66673
 574.21;12294.800;  -54.333;    0.000;12349.13314
 574.48;12384.733;  -51.267;    0.000;12436.00006
 574.76;12246.600;  -44.333;    0.000;12290.93294
 575.04;12257.467;  -25.333;    0.000;12282.80013
 575.32;12179.866;  -18.400;    0.000;12198.26621
 575.59;12206.400;  -29.333;    0.000;12235.73372
 575.87;12155.333;  -40.733;    0.000;12196.06634
 576.15;12057.267;  -20.133;    0.000;12077.39993
 576.42;12040.600;  -36.267;    0.000;12076.86628
 576.70;11985.066;  -39.467;    0.000;12024.53307
 576.98;11863.800;  -23.333;    0.000;11887.13314
 577.25;11878.400;  -37.200;    0.000;11915.60039
 577.53;11768.934;  -52.800;    0.000;11821.73359
 577.80;11761.066;  -40.333;    0.000;11801.39974
 578.08;11605.400;  -32.867;    0.000;11638.26706
 578.36;11763.733;  -36.133;    0.000;11799.86673
 578.63;11610.134;  -55.000;    0.000;11665.13379
 578.91;11579.667;  -30.867;    0.000;11610.53366
 579.19;11561.533;  -42.000;    0.000;11603.53320
 579.46;11530.200;  -32.533;    0.000;11562.73353
 579.74;11497.800;  -26.733;    0.000;11524.53314
 580.02;11494.600;  -28.267;    0.000;11522.86628
 580.29;11388.866;  -41.933;    0.000;11430.79955
 580.57;11286.400;  -45.200;    0.000;11331.60039
 580.84;11271.000;  -45.000;    0.000;11316.00000
 581.12;11205.467;   -9.333;    0.000;11214.80013
 581.40;11125.200;  -37.533;    0.000;11162.73353
 581.67;11098.733;  -44.533;    0.000;11143.26673
 581.95;11147.800;  -39.933;    0.000;11187.73314
 582.23;10961.533;  -27.800;    0.000;10989.33320
 582.50;10925.733;  -44.133;    0.000;10969.86673
 582.78;10844.267;  -38.800;    0.000;10883.06660
 583.05;10861.800;  -24.000;    0.000;10885.79980
 583.33;10796.467;  -19.800;    0.000;10816.26680
 583.61;10784.866;  -30.000;    0.000;10814.86621
 583.88;10669.267;  -38.267;    0.000;10707.53327
 584.16;10714.000;  -40.600;    0.000;10754.60000
 584.43;10541.733;  -43.933;    0.000;10585.66673
 584.71;10472.200;  -44.000;    0.000;10516.20020
 584.99;10542.134;  -27.400;    0.000;10569.53379
 585.26;10356.400;  -42.667;    0.000;10399.06706
 585.54;10389.533;  -31.200;    0.000;10420.73320
 585.81;10384.866;  -12.800;    0.000;10397.66621
 586.09;10171.333;  -17.267;    0.000;10188.59967
 586.37;10341.267;  -35.400;    0.000;10376.66660
 586.64;10120.467;  -40.267;    0.000;10160.73346
 586.92;10145.267;  -45.533;    0.000;10190.79993
 587.19;10057.800;  -41.467;    0.000;10099.26647
 587.47; 9921.934;  -47.533;    0.000;9969.46693
 587.74; 9922.267;  -31.467;    0.000;9953.73327
 588.02; 9887.467;  -23.133;    0.000;9910.60013
 588.30; 9838.467;  -46.467;    0.000;9884.93346
 588.57; 9753.333;  -42.800;    0.000;9796.13301
 588.85; 9704.333;  -34.267;    0.000;9738.59967
 589.12; 9721.934;  -38.333;    0.000;9760.26693
 589.40; 9629.267;  -27.733;    0.000;9656.99994
 589.67; 9602.800;  -49.200;    0.000;9651.99981
 589.95; 9570.800;  -27.400;    0.000;9598.19980
 590.22; 9486.400;  -37.067;    0.000;9523.46706
 590.50; 9365.000;  -45.333;    0.000;9410.33333
 590.77; 9408.066;  -30.667;    0.000;9438.73307
 591.05; 9338.000;  -32.600;    0.000;9370.60000
 591.33; 9250.866;  -26.067;    0.000;9276.93288
 591.60; 9259.200;  -55.267;    0.000;9314.46686
 591.88; 9137.600;  -44.467;    0.000;9182.06628
 592.15; 9066.400;  -57.200;    0.000;9123.60039
 592.43; 9090.200;  -46.467;    0.000;9136.66686
 592.70; 8941.333;  -40.067;    0.000;8981.39967
 592.98; 8923.600;  -28.667;    0.000;8952.26628
 593.25; 8909.866;  -21.467;    0.000;8931.33288
 593.53; 8813.934;  -50.067;    0.000;8864.00026
 593.80; 8713.000;  -49.467;    0.000;8762.46667
 594.08; 8748.934;  -49.800;    0.000;8798.73359
 594.35; 8586.667;  -46.200;    0.000;8632.86699
 594.63; 8612.200;  -50.400;    0.000;8662.60020
 594.90; 8582.467;  -29.067;    0.000;8611.53346
 595.18; 8462.733;  -43.067;    0.000;8505.80006
 595.45; 8384.467;  -32.600;    0.000;8417.06680
 595.73; 8401.733;  -56.533;    0.000;8458.26673
 596.00; 8281.000;  -39.400;    0.000;8320.40000
 596.28; 8246.934;  -41.733;    0.000;8288.66693
 596.55; 8120.200;  -38.867;    0.000;8159.06686
 596.83; 8115.333;  -44.467;    0.000;8159.80016
 597.10; 8110.800;  -24.267;    0.000;8135.06647
 597.38; 8071.667;  -50.867;    0.000;8122.53317
 597.65; 8018.733;  -42.400;    0.000;8061.13340
 597.93; 7863.000;  -48.267;    0.000;7911.26667
 598.20; 7833.533;  -46.133;    0.000;7879.66654
 598.48; 7843.867;  -43.733;    0.000;7887.60003
 598.75; 7783.200;  -61.400;    0.000;7844.60020
 599.03; 7690.200;  -46.400;    0.000;7736.60020
 599.30; 7706.200;  -40.667;    0.000;7746.86686
 599.58; 7555.467;  -40.400;    0.000;7595.86680
 599.85; 7445.267;  -43.533;    0.000;7488.79993
 600.12; 7483.933;  -33.000;    0.000;7516.93311
 600.40; 7352.600;  -43.933;    0.000;7396.53343
 600.67; 7347.800;  -62.400;    0.000;7410.19981
 600.95; 7321.400;  -46.800;    0.000;7368.19990
 601.22; 7200.933;  -30.733;    0.000;7231.66644
 601.50; 7191.200;  -30.800;    0.000;7222.00019
 601.77; 7187.467;  -33.333;    0.000;7220.80013
 602.05; 7139.867;  -28.800;    0.000;7168.66670
 602.32; 7048.267;  -25.533;    0.000;7073.79993
 602.59; 7013.533;  -41.467;    0.000;7054.99987
 602.87; 7023.067;  -36.133;    0.000;7059.20023
 603.14; 6829.467;  -34.733;    0.000;6864.20013
 603.42; 6877.133;  -51.733;    0.000;6928.86663
 603.69; 6785.533;  -37.733;    0.000;6823.26654
 603.97; 6706.133;  -68.133;    0.000;6774.26663
 604.24; 6737.867;  -38.933;    0.000;6776.80003
 604.51; 6661.600;  -14.667;    0.000;6676.26676
 604.79; 6705.267;  -32.267;    0.000;6737.53327
 605.06; 6518.200;  -44.133;    0.000;6562.33353
 605.34; 6543.800;  -33.400;    0.000;6577.19981
 605.61; 6500.733;  -43.000;    0.000;6543.73340
 605.89; 6424.667;  -33.867;    0.000;6458.53317
 606.16; 6349.933;  -40.200;    0.000;6390.13311
 606.43; 6340.733;  -36.800;    0.000;6377.53340
 606.71; 6297.667;  -33.933;    0.000;6331.59984
 606.98; 6273.200;  -41.467;    0.000;6314.66686
 607.26; 6313.600;  -24.000;    0.000;6337.60010
 607.53; 6091.533;  -38.867;    0.000;6130.39987
 607.80; 6169.200;  -21.067;    0.000;6190.26686
 608.08; 6140.667;  -37.600;    0.000;6178.26650
 608.35; 6154.067;  -48.333;    0.000;6202.40023
 608.62; 5963.133;  -52.200;    0.000;6015.33330
 608.90; 5983.667;  -29.733;    0.000;6013.39984
 609.17; 5877.867;  -48.600;    0.000;5926.46670
 609.45; 5923.800;  -44.933;    0.000;5968.73314
 609.72; 5840.200;  -45.133;    0.000;5885.33353
 609.99; 5888.600;  -31.933;    0.000;5920.53343
 610.27; 5786.733;  -42.600;    0.000;5829.33340
 610.54; 5754.267;  -37.333;    0.000;5791.59993
 610.81; 5667.933;  -30.200;    0.000;5698.13311
 611.09; 5710.000;  -46.933;    0.000;5756.93333
 611.36; 5726.200;  -31.333;    0.000;5757.53353
 611.64; 5555.933;  -32.600;    0.000;5588.53310
 611.91; 5585.800;  -37.000;    0.000;5622.79980
 612.18; 5576.600;  -48.267;    0.000;5624.86676
 612.46; 5514.267;  -16.667;    0.000;5530.93327
 612.73; 5530.667;  -29.933;    0.000;5560.59984
 613.00; 5462.333;  -38.533;    0.000;5500.86683
 613.28; 5319.467;  -38.267;    0.000;5357.73346
 613.55; 5372.933;  -48.067;    0.000;5420.99977
 613.82; 5294.067;  -64.267;    0.000;5358.33356
 614.10; 5223.333;  -64.067;    0.000;5287.40016
 614.37; 5168.067;  -36.533;    0.000;5204.60023
 614.64; 5121.933;  -49.333;    0.000;5171.26644
 614.92; 5059.600;  -58.667;    0.000;5118.26677
 615.19; 5015.400;  -23.533;    0.000;5038.93324
 615.46; 4978.867;  -45.133;    0.000;5024.00003
 615.74; 4915.733;  -23.200;    0.000;4938.93340
 616.01; 4800.800;  -63.467;    0.000;4864.26647
 616.28; 4788.667;  -41.467;    0.000;4830.13317
 616.56; 4659.600;  -48.600;    0.000;4708.20010
 616.83; 4580.933;  -20.467;    0.000;4601.39977
 617.10; 4577.600;  -26.333;    0.000;4603.93343
 617.37; 4569.133;  -31.933;    0.000;4601.06663
 617.65; 4548.867;  -30.933;    0.000;4579.80003
 617.92; 4605.533;  -41.733;    0.000;4647.26654
 618.19; 4504.067;  -42.533;    0.000;4546.60023
 618.47; 4547.133;  -36.667;    0.000;4583.79997
 618.74; 4572.133;  -40.933;    0.000;4613.06664
 619.01; 4520.133;  -64.067;    0.000;4584.19997
 619.28; 4455.800;  -52.800;    0.000;4508.59980
 619.56; 4478.133;  -49.533;    0.000;4527.66663
 619.83; 4481.533;  -53.467;    0.000;4534.99987
 620.10; 4429.200;  -36.667;    0.000;4465.86686
 620.38; 4411.333;  -63.933;    0.000;4475.26683
 620.65; 4332.133;  -43.400;    0.000;4375.53330
 620.92; 4318.867;  -43.000;    0.000;4361.86670
 621.19; 4249.067;  -44.133;    0.000;4293.20023
 621.47; 4335.800;  -43.133;    0.000;4378.93314
 621.74; 4289.200;  -41.000;    0.000;4330.20020
 622.01; 4318.533;  -44.333;    0.000;4362.86654
 622.28; 4320.600;  -15.200;    0.000;4335.80010
 622.56; 4349.000;  -30.200;    0.000;4379.20000
 622.83; 4284.400;  -55.067;    0.000;4339.46657
 623.10; 4307.133;  -47.267;    0.000;4354.39997
 623.38; 4304.867;  -42.600;    0.000;4347.46670
 623.65; 4328.933;  -28.333;    0.000;4357.26644
 623.92; 4242.333;  -40.933;    0.000;4283.26683
 624.19; 4234.733;  -75.400;    0.000;4310.13340
 624.46; 4204.133;  -31.400;    0.000;4235.53330
 624.74; 4146.133;  -29.600;    0.000;4175.73330
 625.01; 4176.067;  -33.333;    0.000;4209.40023
 625.28; 4086.333;  -36.800;    0.000;4123.13325
 625.55; 4122.267;  -42.667;    0.000;4164.93327
 625.83; 4101.467;  -50.200;    0.000;4151.66680
 626.10; 4030.333;  -41.667;    0.000;4071.99992
 626.37; 4068.600;  -43.333;    0.000;4111.93343
 626.64; 4027.133;  -45.867;    0.000;4072.99997
 626.92; 4015.200;  -52.467;    0.000;4067.66662
 627.19; 4049.867;  -45.600;    0.000;4095.46670
 627.46; 4050.000;  -32.800;    0.000;4082.80000
 627.73; 3998.733;  -49.800;    0.000;4048.53340
 628.00; 3975.400;  -45.533;    0.000;4020.93324
 628.28; 3955.600;  -24.533;    0.000;3980.13343
 628.55; 3837.733;  -56.267;    0.000;3894.00006
 628.82; 3862.400;  -32.667;    0.000;3895.06657
 629.09; 3893.667;  -42.467;    0.000;3936.13342
 629.36; 3899.733;  -28.733;    0.000;3928.46673
 629.64; 3860.200;  -16.333;    0.000;3876.53329
 629.91; 3830.400;  -41.467;    0.000;3871.86657
 630.18; 3818.600;  -42.667;    0.000;3861.26677
 630.45; 3741.867;  -47.933;    0.000;3789.80003
 630.72; 3789.733;  -68.667;    0.000;3858.40006
 631.00; 3784.267;  -33.333;    0.000;3817.59993
 631.27; 3814.267;  -54.867;    0.000;3869.13327
 631.54; 3747.733;  -33.400;    0.000;3781.13340
 631.81; 3688.667;  -53.667;    0.000;3742.33342
 632.08; 3655.733;  -44.267;    0.000;3700.00006
 632.35; 3708.000;  -19.867;    0.000;3727.86667
 632.63; 3649.800;  -59.067;    0.000;3708.86671
 632.90; 3653.600;  -47.600;    0.000;3701.20010
 633.17; 3670.467;  -38.333;    0.000;3708.79988
 633.44; 3593.333;  -57.467;    0.000;3650.79992
 633.71; 3612.067;  -55.667;    0.000;3667.73332
 633.98; 3622.533;  -45.000;    0.000;3667.53345
 634.25; 3646.800;  -59.133;    0.000;3705.93338
 634.53; 3591.867;  -36.333;    0.000;3628.20003
 634.80; 3609.533;  -53.333;    0.000;3662.86678
 635.07; 3611.600;  -53.933;    0.000;3665.53343
 635.34; 3550.267;  -28.400;    0.000;3578.66660
 635.61; 3568.000;  -55.533;    0.000;3623.53333
 635.88; 3576.067;  -45.200;    0.000;3621.26665
 636.15; 3550.800;  -26.200;    0.000;3577.00005
 636.43; 3628.600;  -50.200;    0.000;3678.80010
 636.70; 3598.733;  -37.467;    0.000;3636.20007
 636.97; 3533.133;  -48.867;    0.000;3581.99997
 637.24; 3510.867;  -53.067;    0.000;3563.93336
 637.51; 3450.133;  -24.800;    0.000;3474.93330
 637.78; 3377.667;  -53.000;    0.000;3430.66675
 638.05; 3359.867;  -41.067;    0.000;3400.93336
 638.32; 3376.867;  -31.533;    0.000;3408.40003
 638.60; 3360.067;  -28.133;    0.000;3388.19998
 638.87; 3311.800;  -62.667;    0.000;3374.46672
 639.14; 3343.133;  -47.867;    0.000;3390.99997
 639.41; 3316.267;  -43.867;    0.000;3360.13327
 639.68; 3262.733;  -37.467;    0.000;3300.20007
 639.95; 3225.467;  -60.533;    0.000;3285.99989
 640.22; 3220.667;  -50.000;    0.000;3270.66675
 640.49; 3280.133;  -32.400;    0.000;3312.53330
 640.76; 3150.733;  -47.200;    0.000;3197.93340
 641.03; 3106.200;  -56.133;    0.000;3162.33329
 641.30; 3094.800;  -50.933;    0.000;3145.73338
 641.58; 3009.867;  -49.000;    0.000;3058.86670
 641.85; 3021.667;  -61.467;    0.000;3083.13342
 642.12; 2965.000;  -27.933;    0.000;2992.93333
 642.39; 3056.600;  -47.933;    0.000;3104.53343
 642.66; 2926.067;  -58.133;    0.000;2984.19999
 642.93; 2966.200;  -38.733;    0.000;3004.93328
 643.20; 2909.000;  -31.133;    0.000;2940.13333
 643.47; 2873.400;  -64.467;    0.000;2937.86657
 643.74; 2792.733;  -37.067;    0.000;2829.80006
 644.01; 2873.667;  -51.000;    0.000;2924.66675
 644.28; 2870.800;  -45.000;    0.000;2915.80005
 644.55; 2797.733;  -49.200;    0.000;2846.93340
 644.82; 2824.800;  -50.000;    0.000;2874.80005
 645.09; 2759.733;  -33.600;    0.000;2793.33340
 645.36; 2762.267;  -33.333;    0.000;2795.59993
 645.63; 2724.000;  -40.467;    0.000;2764.46667
 645.91; 2730.267;  -53.600;    0.000;2783.86660
 646.18; 2718.667;  -29.533;    0.000;2748.20008
 646.45; 2728.667;  -44.933;    0.000;2773.60008
 646.72; 2686.467;  -51.000;    0.000;2737.46655
 646.99; 2653.867;  -59.867;    0.000;2713.73336
 647.26; 2654.933;  -44.200;    0.000;2699.13335
 647.53; 2615.733;  -51.133;    0.000;2666.86673
 647.80; 2610.000;  -11.667;    0.000;2621.66667
 648.07; 2589.733;  -45.933;    0.000;2635.66673
 648.34; 2621.533;  -39.000;    0.000;2660.53345
 648.61; 2575.133;  -42.267;    0.000;2617.39997
 648.88; 2512.400;  -63.800;    0.000;2576.19990
 649.15; 2490.067;  -55.333;    0.000;2545.39998
 649.42; 2468.800;  -52.400;    0.000;2521.20005
 649.69; 2484.867;  -34.733;    0.000;2519.60003
 649.96; 2422.533;  -39.267;    0.000;2461.80011
 650.23; 2470.800;  -47.333;    0.000;2518.13338
 650.50; 2396.067;  -28.600;    0.000;2424.66665
 650.77; 2386.000;  -58.200;    0.000;2444.20000
 651.04; 2377.867;  -43.867;    0.000;2421.73336
 651.31; 2401.933;  -58.400;    0.000;2460.33335
 651.58; 2347.467;  -34.667;    0.000;2382.13322
 651.85; 2366.200;  -48.400;    0.000;2414.59995
 652.12; 2332.933;  -24.933;    0.000;2357.86668
 652.39; 2326.067;  -53.933;    0.000;2379.99998
 652.66; 2281.533;  -49.333;    0.000;2330.86678
 652.93; 2288.333;  -51.133;    0.000;2339.46659
 653.20; 2304.667;  -53.467;    0.000;2358.13342
 653.47; 2204.800;  -46.133;    0.000;2250.93338
 653.74; 2266.000;  -45.200;    0.000;2311.20000
 654.01; 2262.467;  -38.533;    0.000;2300.99989
 654.28; 2210.200;  -44.867;    0.000;2255.06662
 654.55; 2198.400;  -66.867;    0.000;2265.26657
 654.81; 2156.533;  -46.467;    0.000;2203.00011
 655.08; 2217.933;  -45.133;    0.000;2263.06668
 655.35; 2125.800;  -49.533;    0.000;2175.33338
 655.62; 2109.467;  -36.400;    0.000;2145.86655
 655.89; 2130.600;  -46.267;    0.000;2176.86676
 656.16; 2075.800;  -52.133;    0.000;2127.93338
 656.43; 2075.467;  -50.867;    0.000;2126.33322
 656.70; 2083.267;  -44.800;    0.000;2128.06660
 656.97; 2067.733;  -54.200;    0.000;2121.93340
 657.24; 2076.733;  -53.267;    0.000;2130.00006
 657.51; 2025.333;  -76.267;    0.000;2101.60004
 657.78; 2004.133;  -49.733;    0.000;2053.86663
 658.05; 2029.533;  -64.067;    0.000;2093.59999
 658.32; 2000.933;  -66.333;    0.000;2067.26669
 658.59; 1985.200;  -43.133;    0.000;2028.33329
 658.86; 1982.267;  -67.133;    0.000;2049.40005
 659.12; 1988.467;  -30.000;    0.000;2018.46667
 659.39; 1950.667;  -44.133;    0.000;1994.79996
 659.66; 1927.133;  -42.267;    0.000;1969.39997
 659.93; 1888.533;  -37.867;    0.000;1926.39999
 660.20; 1941.667;  -56.133;    0.000;1997.79996
 660.47; 1881.800;  -54.200;    0.000;1936.00005
 660.74; 1849.000;  -38.400;    0.000;1887.40000
 661.01; 1876.333;  -44.133;    0.000;1920.46671
 661.28; 1915.667;  -47.667;    0.000;1963.33329
 661.55; 1881.667;   -5.533;    0.000;1887.19996
 661.81; 1797.467;  -55.200;    0.000;1852.66668
 662.08; 1828.733;  -46.733;    0.000;1875.46661
 662.35; 1821.600;  -46.800;    0.000;1868.39997
 662.62; 1760.333;  -50.000;    0.000;1810.33337
 662.89; 1783.667;  -45.600;    0.000;1829.26662
 663.16; 1726.667;  -49.867;    0.000;1776.53329
 663.43; 1764.733;  -44.733;    0.000;1809.46661
 663.70; 1703.933;  -55.667;    0.000;1759.60002
 663.96; 1735.333;  -45.267;    0.000;1780.60004
 664.23; 1680.200;  -52.600;    0.000;1732.79995
 664.50; 1641.733;  -55.600;    0.000;1697.33327
 664.77; 1694.133;  -51.333;    0.000;1745.46663
 665.04; 1691.000;  -54.400;    0.000;1745.40000
 665.31; 1627.267;  -59.800;    0.000;1687.06672
 665.58; 1675.533;  -48.133;    0.000;1723.66666
 665.84; 1622.133;  -35.333;    0.000;1657.46663
 666.11; 1594.067;  -56.733;    0.000;1650.79998
 666.38; 1595.667;  -46.600;    0.000;1642.26662
 666.65; 1641.800;  -41.400;    0.000;1683.20005
 666.92; 1575.800;  -63.600;    0.000;1639.40005
 667.19; 1528.133;  -62.200;    0.000;1590.33330
 667.46; 1533.667;  -44.067;    0.000;1577.73329
 667.72; 1526.200;  -38.333;    0.000;1564.53328
 667.99; 1523.400;  -43.200;    0.000;1566.60003
 668.26; 1524.333;  -51.867;    0.000;1576.20004
 668.53; 1494.267;  -57.067;    0.000;1551.33339
 668.80; 1513.333;  -25.333;    0.000;1538.66671
 669.06; 1470.200;  -42.933;    0.000;1513.13329
 669.33; 1488.667;  -38.533;    0.000;1527.19996
 669.60; 1455.000;  -47.800;    0.000;1502.80000
 669.87; 1459.467;  -51.467;    0.000;1510.93334
 670.14; 1432.600;  -47.467;    0.000;1480.06664
 670.41; 1481.000;  -45.600;    0.000;1526.60000
 670.67; 1400.600;  -52.333;    0.000;1452.93331
 670.94; 1388.667;  -57.067;    0.000;1445.73329
 671.21; 1394.667;  -37.133;    0.000;1431.79996
 671.48; 1334.067;  -63.533;    0.000;1397.59998
 671.75; 1354.000;  -43.867;    0.000;1397.86666
 672.01; 1354.533;  -41.267;    0.000;1395.79999
 672.28; 1337.933;  -28.467;    0.000;1366.40002
 672.55; 1353.000;  -41.200;    0.000;1394.20000
 672.82; 1359.667;  -45.133;    0.000;1404.79996
 673.08; 1356.200;  -47.667;    0.000;1403.86662
 673.35; 1274.333;  -60.000;    0.000;1334.33337
 673.62; 1283.200;  -58.933;    0.000;1342.13329
 673.89; 1312.400;  -54.067;    0.000;1366.46669
 674.16; 1307.867;  -52.267;    0.000;1360.13337
 674.42; 1271.333;  -41.133;    0.000;1312.46671
 674.69; 1219.400;  -36.733;    0.000;1256.13336
 674.96; 1285.400;  -52.933;    0.000;1338.33336
 675.23; 1230.133;  -69.933;    0.000;1300.06664
 675.49; 1242.400;  -59.400;    0.000;1301.80003
 675.76; 1183.267;  -54.733;    0.000;1238.00006
 676.03; 1237.467;  -30.667;    0.000;1268.13334
 676.30; 1172.267;  -51.600;    0.000;1223.86672
 676.56; 1159.733;  -55.533;    0.000;1215.26661
 676.83; 1192.333;  -40.467;    0.000;1232.80004
 677.10; 1157.600;  -51.133;    0.000;1208.73331
 677.37; 1153.067;  -23.667;    0.000;1176.73332
 677.63; 1113.400;  -54.933;    0.000;1168.33336
 677.90; 1117.467;  -48.200;    0.000;1165.66668
 678.17; 1118.067;  -53.200;    0.000;1171.26665
 678.44; 1159.933;  -34.333;    0.000;1194.26668
 678.70; 1062.133;  -54.533;    0.000;1116.66663
 678.97; 1090.133;  -49.000;    0.000;1139.13330
 679.24; 1099.400;  -54.000;    0.000;1153.40002
 679.50; 1071.533;  -68.267;    0.000;1139.80000
 679.77; 1059.733;  -48.267;    0.000;1107.99994
 680.04; 1082.333;  -45.800;    0.000;1128.13337
 680.31; 1049.000;  -58.333;    0.000;1107.33333
 680.57; 1019.667;  -55.400;    0.000;1075.06669
 680.84; 1024.667;  -56.933;    0.000;1081.59996
 681.11; 1049.200;  -33.533;    0.000;1082.73328
 681.37;  992.000;  -52.000;    0.000;1044.00000
 681.64; 1041.867;  -49.067;    0.000;1090.93336
 681.91;  975.667;  -55.267;    0.000;1030.93335
 682.17; 1010.800;  -18.133;    0.000;1028.93332
 682.44;  956.533;  -63.867;    0.000;1020.39999
 682.71;  964.200;  -35.200;    0.000;999.40001
 682.98;  931.533;  -53.000;    0.000;984.53333
 683.24;  955.600;  -56.733;    0.000;1012.33331
 683.51;  904.333;  -48.467;    0.000;952.79998
 683.78;  915.067;  -38.467;    0.000;953.53332
 684.04;  912.000;  -53.400;    0.000;965.40000
 684.31;  905.200;  -62.267;    0.000;967.46668
 684.58;  901.800;  -55.800;    0.000;957.59999
 684.84;  894.067;  -54.133;    0.000;948.19999
 685.11;  905.133;  -64.200;    0.000;969.33336
 685.38;  907.000;  -37.000;    0.000;944.00000
 685.64;  885.800;  -45.133;    0.000;930.93332
 685.91;  839.600;  -56.400;    0.000;895.99998
 686.17;  872.867;  -60.733;    0.000;933.59997
 686.44;  854.467;  -49.867;    0.000;904.33334
 686.71;  826.400;  -52.733;    0.000;879.13336
 686.97;  837.133;  -58.733;    0.000;895.86670
 687.24;  806.800;  -56.467;    0.000;863.26665
 687.51;  857.733;  -67.800;    0.000;925.53334
 687.77;  812.800;  -47.467;    0.000;860.26665
 688.04;  838.267;  -31.133;    0.000;869.40000
 688.31;  794.333;  -49.200;    0.000;843.53331
 688.57;  796.533;  -37.867;    0.000;834.39999
 688.84;  800.667;  -41.667;    0.000;842.33335
 689.10;  818.533;  -61.867;    0.000;880.39999
 689.37;  780.733;  -52.600;    0.000;833.33334
 689.64;  778.067;  -71.533;    0.000;849.59998
 689.90;  781.133;  -48.667;    0.000;829.80003
 690.17;  727.000;  -66.267;    0.000;793.26667
 690.44;  752.133;  -61.733;    0.000;813.86670
 690.70;  775.267;  -34.267;    0.000;809.53333
 690.97;  725.333;  -62.067;    0.000;787.39998
 691.23;  704.667;  -58.867;    0.000;763.53335
 691.50;  702.200;  -52.333;    0.000;754.53334
 691.77;  688.200;  -51.867;    0.000;740.06668
 692.03;  712.600;  -49.600;    0.000;762.19997
 692.30;  681.733;  -52.667;    0.000;734.40001
 692.56;  692.467;  -55.267;    0.000;747.73334
 692.83;  701.333;  -61.933;    0.000;763.26665
 693.10;  676.533;  -51.400;    0.000;727.93333
 693.36;  671.200;  -35.400;    0.000;706.60001
 693.63;  670.133;  -73.533;    0.000;743.66669
 693.89;  625.867;  -53.000;    0.000;678.86664
 694.16;  663.333;  -44.333;    0.000;707.66665
 694.42;  624.933;  -67.667;    0.000;692.60001
 694.69;  628.200;  -24.933;    0.000;653.13334
 694.96;  653.267;  -21.933;    0.000;675.20000
 695.22;  605.733;  -57.800;    0.000;663.53334
 695.49;  632.867;  -55.133;    0.000;687.99997
 695.75;  568.533;  -61.333;    0.000;629.86666
 696.02;  623.067;  -55.600;    0.000;678.66665
 696.28;  601.200;  -58.733;    0.000;659.93335
 696.55;  569.867;  -68.467;    0.000;638.33331
 696.81;  550.000;  -47.000;    0.000;597.00000
 697.08;  572.400;  -50.133;    0.000;622.53336
 697.34;  534.733;  -48.733;    0.000;583.46667
 697.61;  562.067;  -57.200;    0.000;619.26665
 697.88;  531.200;  -43.800;    0.000;575.00001
 698.14;  553.933;  -59.733;    0.000;613.66668
 698.41;  497.533;  -36.067;    0.000;533.59999
 698.67;  498.600;  -59.600;    0.000;558.20000
 698.94;  524.333;  -46.333;    0.000;570.66665
 699.20;  496.067;  -56.600;    0.000;552.66668
 699.47;  503.000;  -58.933;    0.000;561.93333
 699.73;  514.800;  -47.800;    0.000;562.59999
 700.00;  497.133;  -60.667;    0.000;557.80000
 700.26;  458.933;  -64.867;    0.000;523.79999
 700.53;  488.400;  -46.867;    0.000;535.26666
 700.79;  464.333;  -57.933;    0.000;522.26668
 701.06;  451.533;  -79.733;    0.000;531.26665
 701.32;  439.467;  -52.533;    0.000;492.00001
 701.59;  439.733;  -54.867;    0.000;494.60000
 701.85;  428.000;  -48.667;    0.000;476.66667
 702.12;  418.667;  -71.467;    0.000;490.13332
 702.38;  419.333;  -49.867;    0.000;469.20001
 702.65;  414.600;  -45.133;    0.000;459.73334
 702.91;  447.733;  -34.000;    0.000;481.73334
 703.18;  389.200;  -56.933;    0.000;446.13335
 703.44;  416.333;  -57.600;    0.000;473.93334
 703.71;  396.067;  -60.733;    0.000;456.80001
 703.97;  375.067;  -45.867;    0.000;420.93335
 704.24;  377.400;  -37.933;    0.000;415.33333
 704.50;  378.600;  -78.533;    0.000;457.13334
 704.76;  355.133;  -47.000;    0.000;402.13333
 705.03;  373.200;  -23.400;    0.000;396.60001
 705.29;  343.133;  -56.667;    0.000;399.80000
 705.56;  350.200;  -41.933;    0.000;392.13335
 705.82;  347.533;  -58.200;    0.000;405.73333
 706.09;  372.200;  -40.667;    0.000;412.86668
 706.35;  323.267;  -62.533;    0.000;385.80000
 706.62;  349.200;  -46.667;    0.000;395.86668
 706.88;  311.467;  -50.067;    0.000;361.53334
 707.15;  301.067;  -38.533;    0.000;339.60001
 707.41;  315.467;  -55.600;    0.000;371.06667
 707.67;  293.267;  -58.200;    0.000;351.46666
 707.94;  281.800;  -41.067;    0.000;322.86665
 708.20;  288.933;  -72.667;    0.000;361.59998
 708.47;  283.600;  -53.133;    0.000;336.73334
 708.73;  269.733;  -51.400;    0.000;321.13334
 709.00;  288.467;  -61.867;    0.000;350.33334
 709.26;  253.867;  -45.467;    0.000;299.33334
 709.52;  246.933;  -56.467;    0.000;303.40000
 709.79;  271.733;  -58.467;    0.000;330.20000
 710.05;  249.000;  -70.067;    0.000;319.06667
 710.32;  258.267;  -35.200;    0.000;293.46666
 710.58;  241.733;  -74.333;    0.000;316.06667
 710.84;  237.667;  -55.133;    0.000;292.80001
 711.11;  221.533;  -68.800;    0.000;290.33334
 711.37;  251.067;  -59.533;    0.000;310.60000
 711.64;  231.333;  -56.000;    0.000;287.33333
 711.90;  250.000;  -67.533;    0.000;317.53333
 712.16;  228.333;  -49.267;    0.000;277.59999
 712.43;  236.333;  -50.933;    0.000;287.26666
 712.69;  203.200;  -50.067;    0.000;253.26666
 712.96;  213.400;  -51.800;    0.000;265.19999
 713.22;  227.933;  -63.200;    0.000;291.13334
 713.48;  195.533;  -63.533;    0.000;259.06667
 713.75;  204.267;  -38.133;    0.000;242.40000
 714.01;  186.000;  -67.667;    0.000;253.66666
 714.27;  211.067;  -35.467;    0.000;246.53333
 714.54;  195.800;  -57.333;    0.000;253.13334
 714.80;  175.867;  -70.800;    0.000;246.66667
 715.06;  184.533;  -38.533;    0.000;223.06667
 715.33;  179.800;  -53.600;    0.000;233.40000
 715.59;  170.867;  -53.733;    0.000;224.60000
 715.86;  175.067;  -56.733;    0.000;231.80000
 716.12;  186.400;  -54.933;    0.000;241.33333
 716.38;  187.133;  -57.067;    0.000;244.20000
 716.65;  173.067;  -31.267;    0.000;204.33333
 716.91;  172.933;  -58.800;    0.000;231.73333
 717.17;  176.133;  -36.200;    0.000;212.33333
 717.44;  176.933;  -48.867;    0.000;225.80000
 717.70;  196.867;  -66.933;    0.000;263.80000
 717.96;  151.067;  -48.133;    0.000;199.20000
 718.23;  152.200;  -45.800;    0.000;198.00000
 718.49;  150.600;  -53.467;    0.000;204.06667
 718.75;  166.267;  -55.133;    0.000;221.40000
 719.02;  146.600;  -50.267;    0.000;196.86667
 719.28;  153.533;  -61.000;    0.000;214.53334
 719.54;  142.533;  -65.800;    0.000;208.33334
 719.80;  173.133;  -53.467;    0.000;226.60000
 720.07;  136.933;  -59.800;    0.000;196.73333
 720.33;  150.333;  -62.600;    0.000;212.93333
 720.59;  159.267;  -62.733;    0.000;222.00000
 720.86;  121.200;  -65.933;    0.000;187.13333
 721.12;  164.200;  -55.867;    0.000;220.06666
 721.38;  145.533;  -54.200;    0.000;199.73334
 721.65;  148.467;  -69.667;    0.000;218.13332
 721.91;  152.600;  -32.600;    0.000;185.20000
 722.17;  143.533;  -58.000;    0.000;201.53334
 722.43;  155.200;  -38.733;    0.000;193.93333
 722.70;  140.733;  -70.533;    0.000;211.26667
 722.96;  158.600;  -50.933;    0.000;209.53334
 723.22;  158.333;  -62.267;    0.000;220.59999
 723.48;  154.200;  -67.667;    0.000;221.86666
 723.75;  118.200;  -54.333;    0.000;172.53333
 724.01;  150.333;  -39.933;    0.000;190.26666
 724.27;  147.800;  -56.933;    0.000;204.73334
 724.54;  143.200;  -45.867;    0.000;189.06666
 724.80;  144.867;  -68.200;    0.000;213.06667
 725.06;  148.400;  -66.267;    0.000;214.66666
 725.32;  150.200;  -60.400;    0.000;210.60000
 725.59;  166.800;  -68.467;    0.000;235.26667
 725.85;  129.200;  -67.067;    0.000;196.26666
 726.11;  132.467;  -63.133;    0.000;195.59999
 726.37;  126.200;  -52.333;    0.000;178.53333
 726.64;  140.667;  -35.000;    0.000;175.66667
 726.90;  158.467;  -57.400;    0.000;215.86666
 727.16;  155.867;  -63.400;    0.000;219.26667
 727.42;  149.600;  -73.467;    0.000;223.06667
 727.68;  144.933;  -83.733;    0.000;228.66666
 727.95;  119.000;  -76.867;    0.000;195.86667
 728.21;  146.867;  -50.200;    0.000;197.06667
 728.47;  135.267;  -52.600;    0.000;187.86666
 728.73;  145.867;  -20.467;    0.000;166.33334
 729.00;  125.467;  -45.000;    0.000;170.46667
 729.26;  169.467;  -46.400;    0.000;215.86666
 729.52;   96.467;  -76.467;    0.000;172.93333
 729.78;  130.133;  -80.933;    0.000;211.06667
 730.04;  113.400;  -49.000;    0.000;162.40000
 730.31;  136.200;  -60.800;    0.000;197.00000
 730.57;  118.733;  -68.133;    0.000;186.86666
 730.83;  137.933;  -71.267;    0.000;209.20000
 731.09;  129.467;  -51.733;    0.000;181.19999
 731.35;  129.800;  -61.933;    0.000;191.73334
 731.62;  115.267;  -74.267;    0.000;189.53334
 731.88;  100.000;  -64.133;    0.000;164.13333
 732.14;  120.133;  -70.533;    0.000;190.66666
 732.40;  130.933;  -56.533;    0.000;187.46667
 732.66;  117.800;  -58.267;    0.000;176.06667
 732.92;  107.667;  -53.133;    0.000;160.80000
 733.19;  107.800;  -58.467;    0.000;166.26667
 733.45;  123.533;  -57.200;    0.000;180.73333
 733.71;  108.133;  -70.667;    0.000;178.80000
 733.97;  155.000;  -33.867;    0.000;188.86666
 734.23;   80.800;  -62.600;    0.000;143.40000
 734.49;  124.067;  -77.800;    0.000;201.86667
 734.76;  118.533;  -70.667;    0.000;189.20000
 735.02;  104.867;  -78.800;    0.000;183.66667
 735.28;  114.000;  -48.400;    0.000;162.40000
 735.54;  114.933;  -57.867;    0.000;172.80000
 735.80;  108.133;  -54.200;    0.000;162.33333
 736.06;  103.067;  -31.733;    0.000;134.80000
 736.32;  117.867;  -73.200;    0.000;191.06667
 736.59;  102.133;  -63.933;    0.000;166.06667
 736.85;  131.467;  -61.067;    0.000;192.53333
 737.11;  117.333;  -62.533;    0.000;179.86667
 737.37;   89.933;  -63.400;    0.000;153.33334
 737.63;  110.400;  -73.667;    0.000;184.06667
 737.89;  122.000;  -50.733;    0.000;172.73333
 738.15;  121.800;  -45.533;    0.000;167.33334
 738.41;  109.867;  -66.000;    0.000;175.86667
 738.67;  102.733;  -60.533;    0.000;163.26666
 738.94;   78.400;  -71.133;    0.000;149.53333
 739.20;   86.000;  -52.867;    0.000;138.86666
 739.46;   92.133;  -52.067;    0.000;144.20000
 739.72;   62.933;  -60.133;    0.000;123.06667
 739.98;   95.467;  -55.933;    0.000;151.40000
 740.24;  100.733;  -63.867;    0.000;164.59999
 740.50;   86.133;  -62.133;    0.000;148.26667
 740.76;  106.067;  -58.400;    0.000;164.46667
 741.02;   88.800;  -57.667;    0.000;146.46667
 741.28;   80.933;  -65.667;    0.000;146.60000
 741.54;   71.867;  -48.733;    0.000;120.60000
 741.81;   96.000;  -46.200;    0.000;142.20000
 742.07;   60.067;  -58.133;    0.000;118.20000
 742.33;   79.600;  -46.067;    0.000;125.66666
 742.59;   73.533;  -50.667;    0.000;124.20000
 742.85;   75.467;  -48.600;    0.000;124.06667
 743.11;   47.733;  -88.667;    0.000;136.40000
 743.37;   74.933;  -60.000;    0.000;134.93333
 743.63;   64.200;  -64.733;    0.000;128.93333
 743.89;   84.667;  -64.600;    0.000;149.26666
 744.15;   68.867;  -51.400;    0.000;120.26667
 744.41;   72.200;  -70.933;    0.000;143.13333
 744.67;   87.600;  -56.000;    0.000;143.60000
 744.93;   62.800;  -47.333;    0.000;110.13333
 745.19;   32.667;  -38.867;    0.000;71.53333
 745.45;   55.733;  -42.000;    0.000;97.73333
 745.71;   62.467;  -71.067;    0.000;133.53333
 745.97;   65.133;  -42.933;    0.000;108.06667
 746.23;   45.667;  -75.733;    0.000;121.40000
 746.49;   38.333;  -81.333;    0.000;119.66667
 746.75;   64.533;  -49.400;    0.000;113.93333
 747.02;   57.600;  -60.400;    0.000;118.00000
 747.28;   25.867;  -66.067;    0.000;91.93333
 747.54;   45.333;  -69.533;    0.000;114.86666
 747.80;   50.800;  -69.267;    0.000;120.06667
 748.06;   54.933;  -59.400;    0.000;114.33334
 748.32;   47.733;  -79.533;    0.000;127.26667
 748.58;   56.200;  -50.533;    0.000;106.73333
 748.84;   45.133;  -68.333;    0.000;113.46667
 749.10;  129.667;   40.067;    0.000;89.60001
 749.36;   47.200;  -54.800;    0.000;102.00000
 749.62;   56.533;  -76.400;    0.000;132.93333
 749.88;   42.667;  -60.200;    0.000;102.86667
 750.14;   41.333;  -52.933;    0.000;94.26667
 750.40;   43.800;  -66.867;    0.000;110.66667
 750.66;   53.800;  -42.267;    0.000;96.06667
 750.91;   41.733;  -65.000;    0.000;106.73333
 751.17;   40.800;  -47.800;    0.000;88.60000
 751.43;   38.800;  -63.200;    0.000;102.00000
 751.69;   35.933;  -49.200;    0.000;85.13334
 751.95;   48.267;  -55.067;    0.000;103.33333
 752.21;   22.933;  -60.867;    0.000;83.80000
 752.47;   37.867;  -65.267;    0.000;103.13334
 752.73;   48.067;  -59.400;    0.000;107.46667
 752.99;   13.067;  -65.400;    0.000;78.46667
 753.25;   25.733;  -73.400;    0.000;99.13334
 753.51;   21.400;  -59.533;    0.000;80.93333
 753.77;   19.200;  -50.333;    0.000;69.53333
 754.03;   17.800;  -60.267;    0.000;78.06667
 754.29;   14.333;  -66.800;    0.000;81.13334
 754.55;   26.400;  -50.267;    0.000;76.66667
 754.81;    8.067;  -63.000;    0.000;71.06667
 755.07;   12.800;  -47.200;    0.000;60.00000
 755.33;   25.133;  -67.200;    0.000;92.33333
 755.59;   -8.800;  -77.200;    0.000;68.40000
 755.85;   18.267;  -57.800;    0.000;76.06667
 756.10;   19.067;  -52.867;    0.000;71.93333
 756.36;   38.867;  -75.333;    0.000;114.20000
 756.62;    9.133;  -74.600;    0.000;83.73333
 756.88;   16.333;  -34.600;    0.000;50.93333
 757.14;    6.267;  -54.800;    0.000;61.06667
 757.40;   13.267;  -46.000;    0.000;59.26667
 757.66;   29.667;  -63.133;    0.000;92.80000
 757.92;    6.000;  -58.133;    0.000;64.13334
 758.18;   11.733;  -64.200;    0.000;75.93333
 758.44;   14.600;  -61.867;    0.000;76.46667
 758.70;   -2.333;  -54.267;    0.000;51.93333
 758.95;   19.867;  -64.600;    0.000;84.46667
 759.21;  -11.133;  -65.467;    0.000;54.33333
 759.47;   -7.867;  -47.933;    0.000;40.06667
 759.73;  -17.600;  -52.200;    0.000;34.60000
 759.99;    5.867;  -67.200;    0.000;73.06666
 760.25;    8.467;  -85.533;    0.000;94.00000
 760.51;    2.933;  -56.267;    0.000;59.20000
 760.77;   -2.000;  -59.467;    0.000;57.46667
 761.02;    0.867;  -65.533;    0.000;66.40000
 761.28;   -6.667;  -75.000;    0.000;68.33333
 761.54;    2.400;  -67.067;    0.000;69.46667
 761.80;   -1.333;  -59.933;    0.000;58.60000
 762.06;   -1.533;  -33.267;    0.000;31.73333
 762.32;   -6.800;  -89.467;    0.000;82.66667
 762.58;   -2.200;  -63.533;    0.000;61.33333
 762.83;   19.200;  -54.533;    0.000;73.73333
 763.09;   15.200;  -56.533;    0.000;71.73333
 763.35;  -23.667;  -54.800;    0.000;31.13333
 763.61;   -1.333;  -50.467;    0.000;49.13333
 763.87;   11.467;  -61.667;    0.000;73.13333
 764.13;    0.400;  -69.067;    0.000;69.46667
 764.38;  -23.200;  -65.867;    0.000;42.66667
 764.64;  -14.400;  -72.200;    0.000;57.80000
 764.90;    0.067;  -88.533;    0.000;88.60000
 765.16;  -20.067;  -62.133;    0.000;42.06667
 765.42;   -4.333;  -46.000;    0.000;41.66667
 765.68;  -11.000;  -65.800;    0.000;54.80000
 765.93;  -20.800;  -66.800;    0.000;46.00000
 766.19;   -3.067;  -62.400;    0.000;59.33333
 766.45;  -11.000;  -74.533;    0.000;63.53333
 766.71;   -0.533;  -51.667;    0.000;51.13333
 766.97;   -2.067;  -63.400;    0.000;61.33333
 767.22;  -18.800;  -78.733;    0.000;59.93333
 767.48;  -26.800;  -63.733;    0.000;36.93333
 767.74;   -4.733;  -74.067;    0.000;69.33333
 768.00;   -8.467;  -57.333;    0.000;48.86667
 768.26;  -28.200;  -68.067;    0.000;39.86666
 768.51;  -29.867;  -64.333;    0.000;34.46667
 768.77;    2.533;  -49.533;    0.000;52.06667
 769.03;   -7.667;  -83.267;    0.000;75.60000
 769.29;  -12.800;  -65.467;    0.000;52.66667
 769.54;  -11.667;  -74.467;    0.000;62.80000
 769.80;  -15.533;  -68.867;    0.000;53.33333
 770.06;  -15.000;  -57.933;    0.000;42.93333
 770.32;  -12.133;  -61.267;    0.000;49.13333
 770.57;  -24.667;  -60.933;    0.000;36.26667
 770.83;   -7.800;  -63.000;    0.000;55.20000
 771.09;  -42.400;  -81.133;    0.000;38.73333
 771.35;  -30.933;  -61.333;    0.000;30.40000
 771.61;  -31.467;  -83.200;    0.000;51.73333
 771.86;  -26.333;  -65.400;    0.000;39.06667
 772.12;  -31.667;  -74.067;    0.000;42.40000
 772.38;   -5.733;  -61.333;    0.000;55.60000
 772.63;  -32.800;  -78.867;    0.000;46.06667
 772.89;  -26.867;  -62.933;    0.000;36.06667
 773.15;  -31.267;  -81.667;    0.000;50.40000
 773.41;  -23.067;  -64.867;    0.000;41.80000
 773.66;  -12.000;  -80.733;    0.000;68.73333
 773.92;  -16.867;  -68.000;    0.000;51.13333
 774.18;  -39.067;  -76.400;    0.000;37.33334
 774.44;  -23.267;  -71.467;    0.000;48.20000
 774.69;  -18.467;  -74.933;    0.000;56.46667
 774.95;   -8.533;  -64.933;    0.000;56.40000
 775.21;   -0.533;  -53.200;    0.000;52.66667
 775.46;  -33.867;  -74.600;    0.000;40.73333
 775.72;  -25.733;  -72.733;    0.000;47.00000
 775.98;  -15.000;  -45.933;    0.000;30.93333
 776.24;  -33.067;  -90.733;    0.000;57.66666
 776.49;   -6.133;  -83.400;    0.000;77.26667
 776.75;  -13.133;  -61.200;    0.000;48.06667
 777.01;  -14.933;  -78.733;    0.000;63.80000
 777.26;  -16.933;  -65.800;    0.000;48.86667
 777.52;   -2.067;  -63.133;    0.000;61.06667
 777.78;   -3.600;  -53.933;    0.000;50.33333
 778.03;  -14.933;  -60.200;    0.000;45.26667
 778.29;  -28.400;  -71.733;    0.000;43.33333
 778.55;  -36.667;  -67.733;    0.000;31.06666
 778.80;  -28.133;  -77.000;    0.000;48.86667
 779.06;  -30.533;  -71.400;    0.000;40.86667
 779.32;  -36.133;  -68.067;    0.000;31.93333
 779.57;  -42.933;  -83.600;    0.000;40.66666
 779.83;  -45.000;  -69.533;    0.000;24.53333
 780.09;  -28.333;  -68.267;    0.000;39.93334
 780.34;  -30.200;  -65.200;    0.000;35.00000
 780.60;    9.200;  -37.000;    0.000;46.20000
 780.86;  -31.600;  -63.200;    0.000;31.60000
 781.11;  -18.333;  -62.667;    0.000;44.33333
 781.37;  -41.267;  -65.133;    0.000;23.86666
 781.63;  -24.067;  -57.733;    0.000;33.66667
 781.88;  -43.400;  -61.333;    0.000;17.93333
 782.14;  -33.333;  -46.600;    0.000;13.26667
 782.39;  -31.800;  -60.067;    0.000;28.26667
 782.65;  -41.733;  -53.667;    0.000;11.93333
 782.91;  -19.400;  -52.267;    0.000;32.86667
 783.16;  -18.000;  -68.800;    0.000;50.80000
 783.42;  -53.267;  -69.600;    0.000;16.33333
 783.67;  -39.467;  -68.467;    0.000;29.00000
 783.93;  -46.800;  -86.867;    0.000;40.06667
 784.19;  -33.467;  -59.600;    0.000;26.13333
 784.44;  -27.400;  -56.933;    0.000;29.53333
 784.70;  -27.733;  -64.933;    0.000;37.20000
 784.96;  -38.467;  -66.867;    0.000;28.40000
 785.21;  -42.267;  -82.800;    0.000;40.53334
 785.47;  -28.800;  -64.800;    0.000;36.00000
 785.72;  -30.600;  -63.733;    0.000;33.13333
 785.98;  -43.867;  -62.400;    0.000;18.53334
 786.23;  -33.933;  -69.267;    0.000;35.33334
 786.49;  -44.000;  -81.600;    0.000;37.60000
 786.75;  -30.267;  -66.333;    0.000;36.06667
 787.00;  -49.867;  -48.533;    0.000;-1.33333
 787.26;  -37.400;  -73.800;    0.000;36.40000
 787.51;  -34.333;  -71.333;    0.000;37.00000
 787.77;  -25.533;  -50.067;    0.000;24.53333
 788.02;  -27.400;  -56.600;    0.000;29.20000
 788.28;  -41.133;  -69.733;    0.000;28.59999
 788.54;  -36.800;  -69.267;    0.000;32.46667
 788.79;  -19.533;  -42.400;    0.000;22.86667
 789.05;  -47.200;  -84.600;    0.000;37.40000
 789.30;  -46.733;  -57.467;    0.000;10.73333
 789.56;  -46.333;  -85.133;    0.000;38.80000
 789.81;  -37.267;  -69.400;    0.000;32.13334
 790.07;  -39.867;  -63.400;    0.000;23.53334
 790.32;  -24.000; -103.600;    0.000;79.60000
 790.58;  -32.667;  -69.133;    0.000;36.46666
 790.83;  -51.267;  -61.667;    0.000;10.40000
 791.09;  -52.200;  -83.333;    0.000;31.13334
 791.35;  -55.333;  -82.400;    0.000;27.06667
 791.60;  -39.400;  -63.867;    0.000;24.46666
 791.86;  -30.867;  -56.133;    0.000;25.26667
 792.11;  -39.067;  -50.400;    0.000;11.33334
 792.37;  -53.467;  -62.133;    0.000; 8.66667
 792.62;  -56.767;  -63.867;    0.000; 7.10000
 792.88;  -60.067;  -65.600;    0.000; 5.53333
 793.13;  -40.000;  -80.333;    0.000;40.33334
 793.39;  -64.200;  -62.533;    0.000;-1.66666
 793.64;  -31.000;  -81.467;    0.000;50.46667
 793.90;  -30.800;  -72.067;    0.000;41.26667
 794.15;  -45.867;  -72.133;    0.000;26.26667
 794.41;  -47.200;  -68.667;    0.000;21.46666
 794.66;  -50.800;  -76.733;    0.000;25.93333
 794.92;  -42.067;  -51.867;    0.000; 9.80000
 795.17;  -49.267;  -73.400;    0.000;24.13334
 795.43;  -65.400;  -77.667;    0.000;12.26666
 795.68;  -46.800;  -64.200;    0.000;17.40000
 795.94;  -29.267;  -68.400;    0.000;39.13334
 796.19;  -43.067;  -69.200;    0.000;26.13333
 796.44;  -43.000;  -60.600;    0.000;17.60000
 796.70;  -20.667;  -56.667;    0.000;36.00000
 796.95;  -31.867;  -67.467;    0.000;35.60000
 797.21;  -38.867;  -76.867;    0.000;38.00000
 797.46;  -44.400;  -64.733;    0.000;20.33333
 797.72;  -61.133;  -68.533;    0.000; 7.40000
 797.97;  -76.733;  -71.933;    0.000;-4.80000
 798.23;  -47.733;  -68.333;    0.000;20.60000
 798.48;  -46.067;  -74.600;    0.000;28.53333
 798.74;  -50.867;  -88.200;    0.000;37.33333
 798.99;  -61.267;  -81.733;    0.000;20.46666
 799.24;  -55.267;  -77.733;    0.000;22.46666
 799.50;  -43.600;  -74.600;    0.000;31.00000
 799.75;  -56.933;  -66.000;    0.000; 9.06667
 800.01;  -51.400;  -74.333;    0.000;22.93333
 800.26;  -58.867;  -78.000;    0.000;19.13334
 800.52;  -45.800;  -85.667;    0.000;39.86666
 800.77;  -52.267;  -75.933;    0.000;23.66667
 801.02;  -46.867;  -83.000;    0.000;36.13334
 801.28;  -44.667; -101.667;    0.000;57.00000
 801.53;  -35.200;  -58.800;    0.000;23.60000
 801.79;  -61.067;  -69.533;    0.000; 8.46667
 802.04;  -42.467;  -64.867;    0.000;22.40000
 802.29;  -51.467;  -84.667;    0.000;33.20000
 802.55;  -47.200;  -71.133;    0.000;23.93333
 802.80;  -29.800;  -61.600;    0.000;31.80000
 803.06;  -38.667;  -60.267;    0.000;21.60000
 803.31;  -47.067;  -78.267;    0.000;31.20000
 803.56;  -27.067;  -57.400;    0.000;30.33333
 803.82;  -56.867;  -80.667;    0.000;23.80000
 804.07;  -51.867;  -55.067;    0.000; 3.20000
 804.32;  -47.267;  -68.667;    0.000;21.40000
 804.58;  -45.267;  -89.067;    0.000;43.80000
 804.83;  -37.400;  -89.400;    0.000;52.00000
 805.09;  -80.200;  -64.467;    0.000;-15.73333
 805.34;  -52.933;  -66.933;    0.000;14.00000
 805.59;  -52.267;  -56.267;    0.000; 4.00000
 805.85;  -56.400;  -63.667;    0.000; 7.26667
 806.10;  -51.400;  -57.067;    0.000; 5.66666
 806.35;  -55.067;  -62.933;    0.000; 7.86667
 806.61;  -45.333;  -76.933;    0.000;31.60000
 806.86;  -54.000;  -92.800;    0.000;38.80000
 807.11;  -46.800;  -68.933;    0.000;22.13334
 807.37;  -53.733;  -47.867;    0.000;-5.86667
 807.62;  -50.467;  -82.333;    0.000;31.86667
 807.87;  -35.000;  -59.600;    0.000;24.60000
 808.13;  -44.133;  -69.400;    0.000;25.26667
 808.38;  -47.800;  -70.200;    0.000;22.40000
 808.63;  -55.733;  -78.867;    0.000;23.13334
 808.89;  -62.467;  -77.533;    0.000;15.06667
 809.14;  -45.933;  -78.000;    0.000;32.06667
 809.39;  -49.867;  -71.600;    0.000;21.73333
 809.65;  -58.933;  -59.800;    0.000; 0.86666
 809.90;  -47.067;  -57.000;    0.000; 9.93333
 810.15;  -54.000;  -86.600;    0.000;32.60000
 810.41;  -61.067;  -78.467;    0.000;17.40000
 810.66;  -52.267;  -68.533;    0.000;16.26667
 810.91;  -57.333;  -62.933;    0.000; 5.60000
 811.16;  -58.067;  -82.533;    0.000;24.46667
 811.42;  -68.000;  -70.533;    0.000; 2.53333
 811.67;  -59.933;  -66.733;    0.000; 6.80000
 811.92;  -61.800;  -86.133;    0.000;24.33333
 812.18;  -65.200;  -67.067;    0.000; 1.86667
 812.43;  -65.333;  -87.867;    0.000;22.53333
 812.68;  -42.800;  -80.467;    0.000;37.66667
 812.93;  -85.133;  -75.067;    0.000;-10.06667
 813.19;  -24.600;  -24.667;    0.000; 0.06667
 813.44;  -56.267;  -87.467;    0.000;31.20000
 813.69;  -38.133;  -67.867;    0.000;29.73333
 813.95;  -49.667;  -72.800;    0.000;23.13334
 814.20;  -47.000;  -64.267;    0.000;17.26667
 814.45;  -51.333;  -88.133;    0.000;36.80000
 814.70;  -44.800;  -73.733;    0.000;28.93333
 814.96;  -67.933;  -85.400;    0.000;17.46667
 815.21;  -41.000;  -80.733;    0.000;39.73333
 815.46;  -43.600;  -80.333;    0.000;36.73334
 815.71;  -60.000;  -58.667;    0.000;-1.33333
 815.96;  -60.200;  -64.000;    0.000; 3.80000
 816.22;  -45.733;  -81.467;    0.000;35.73333
 816.47;  -45.000;  -70.733;    0.000;25.73333
 816.72;  -55.533;  -81.733;    0.000;26.20000
 816.97;  -51.267;  -61.333;    0.000;10.06667
 817.23;  -50.733;  -71.600;    0.000;20.86666
 817.48;  -60.333;  -72.533;    0.000;12.20000
 817.73;  -53.467;  -74.467;    0.000;21.00000
 817.98;  -35.600;  -69.667;    0.000;34.06667
 818.23;  -55.933;  -54.667;    0.000;-1.26667
 818.49;  -47.733;  -83.600;    0.000;35.86666
 818.74;  -50.200;  -62.733;    0.000;12.53333
 818.99;  -56.467;  -89.667;    0.000;33.20000
 819.24;  -40.333;  -62.067;    0.000;21.73333
 819.50;  -57.933;  -71.600;    0.000;13.66666
 819.75;  -51.400;  -65.667;    0.000;14.26666
 820.00;  -41.000;  -59.067;    0.000;18.06667
 820.25;  -57.267;  -70.467;    0.000;13.20000
 820.50;  -61.000;  -83.933;    0.000;22.93333
 820.75;  -43.133;  -48.400;    0.000; 5.26667
 821.01;  -56.733;  -73.533;    0.000;16.80000
 821.26;  -54.867;  -70.133;    0.000;15.26667
 821.51;  -58.467;  -76.200;    0.000;17.73333
 821.76;  -53.200;  -92.000;    0.000;38.80000
 822.01;  -42.000;  -63.133;    0.000;21.13334
 822.26;  -70.400;  -64.600;    0.000;-5.80000
 822.52;  -28.800;  -70.400;    0.000;41.60000
 822.77;  -65.333;  -69.733;    0.000; 4.39999
 823.02;  -55.800;  -64.267;    0.000; 8.46667
 823.27;  -73.133;  -72.400;    0.000;-0.73333
 823.52;  -73.467;  -87.267;    0.000;13.80000
 823.77;  -60.933;  -66.067;    0.000; 5.13333
 824.03;  -35.533;  -56.733;    0.000;21.20000
 824.28;  -55.000;  -74.600;    0.000;19.60000
 824.53;  -50.733;  -67.933;    0.000;17.20000
 824.78;  -35.533;  -69.600;    0.000;34.06667
 825.03;  -64.467;  -83.533;    0.000;19.06667
 825.28;  -52.267;  -68.467;    0.000;16.20000
 825.53;  -49.800;  -68.867;    0.000;19.06667
 825.78;  -50.133;  -77.333;    0.000;27.20000
 826.04;  -51.533;  -91.467;    0.000;39.93333
 826.29;  -66.800;  -86.733;    0.000;19.93333
 826.54;  -61.933;  -71.600;    0.000; 9.66666
 826.79;  -57.467;  -63.733;    0.000; 6.26667
 827.04;  -59.933;  -84.333;    0.000;24.40000
 827.29;  -61.267;  -56.933;    0.000;-4.33333
 827.54;  -53.867;  -52.867;    0.000;-1.00000
 827.79;  -40.467;  -70.333;    0.000;29.86667
 828.04;  -43.000;  -62.933;    0.000;19.93333
 828.29;  -50.667;  -69.600;    0.000;18.93333
 828.55;  -61.733;  -87.533;    0.000;25.80000
 828.80;  -49.933;  -68.333;    0.000;18.40000
 829.05;  -56.867;  -71.667;    0.000;14.80000
 829.30;  -67.933;  -83.333;    0.000;15.40000
 829.55;  -67.133;  -75.933;    0.000; 8.80000
 829.80;  -67.133;  -64.200;    0.000;-2.93333
 830.05;  -76.933;  -76.400;    0.000;-0.53333
 830.30;  -58.933;  -73.067;    0.000;14.13333
 830.55;  -53.267;  -69.733;    0.000;16.46666
 830.80;  -61.133;  -86.867;    0.000;25.73333
 831.05;  -66.200;  -75.267;    0.000; 9.06667
 831.30;  -48.333;  -59.467;    0.000;11.13334
 831.55;  -40.267;  -70.867;    0.000;30.60000
 831.80;  -61.400;  -60.733;    0.000;-0.66667
 832.05;  -62.000;  -69.333;    0.000; 7.33334
 832.30;  -43.667;  -57.267;    0.000;13.60000
 832.56;  -62.000; -102.267;    0.000;40.26667
 832.81;  -78.933;  -71.533;    0.000;-7.40000
 833.06;  -63.267;  -53.533;    0.000;-9.73333
 833.31;  -68.800; -111.533;    0.000;42.73333
 833.56;  -55.933;  -66.267;    0.000;10.33334
 833.81;  -51.067;  -89.600;    0.000;38.53333
 834.06;  -43.467;  -59.067;    0.000;15.60000
 834.31;  -36.800;  -80.667;    0.000;43.86666
 834.56;  -53.333;  -78.333;    0.000;25.00000
 834.81;  -71.933;  -62.800;    0.000;-9.13334
 835.06;  -62.467;  -76.800;    0.000;14.33334
 835.31;  -34.133;  -70.200;    0.000;36.06666
 835.56;  -55.467;  -61.333;    0.000; 5.86666
 835.81;  -59.933;  -74.400;    0.000;14.46667
 836.06;  -58.467;  -70.733;    0.000;12.26666
 836.31;  -63.000;  -75.733;    0.000;12.73333
 836.56;  -68.933;  -61.533;    0.000;-7.40000
 836.81;  -54.933;  -85.533;    0.000;30.60000
 837.06;  -34.000;  -67.867;    0.000;33.86667
 837.31;  -77.067;  -89.933;    0.000;12.86667
 837.56;  -70.400;  -90.000;    0.000;19.60000
 837.81;  -46.733;  -79.533;    0.000;32.80000
 838.06;  -75.067;  -71.533;    0.000;-3.53333
 838.31;  -58.533;  -78.800;    0.000;20.26667
 838.56;  -71.933;  -87.600;    0.000;15.66666
 838.80;  -61.600;  -66.667;    0.000; 5.06667
 839.05;  -55.333;  -74.467;    0.000;19.13334
 839.30;  -73.000;  -77.867;    0.000; 4.86667
 839.55;  -56.600;  -90.333;    0.000;33.73334
 839.80;  -62.867;  -77.133;    0.000;14.26667
 840.05;  -49.400;  -59.267;    0.000; 9.86666
 840.30;  -29.400;  -67.933;    0.000;38.53333
 840.55;  -70.400;  -76.133;    0.000; 5.73333
 840.80;  -51.333;  -58.333;    0.000; 7.00000
 841.05;  -39.333;  -72.533;    0.000;33.20000
 841.30;  -69.733;  -85.533;    0.000;15.80000
 841.55;  -53.200;  -85.200;    0.000;32.00000
 841.80;  -60.333;  -68.733;    0.000; 8.40000
 842.05;  -56.933;  -86.733;    0.000;29.80000
 842.30;  -43.933;  -84.200;    0.000;40.26666
 842.55;  -58.933;  -53.200;    0.000;-5.73333
 842.79;  -67.067;  -88.600;    0.000;21.53333
 843.04;  -55.000;  -59.667;    0.000; 4.66667
 843.29;  -50.067;  -63.867;    0.000;13.80000
 843.54;  -51.267;  -70.400;    0.000;19.13334
 843.79;  -58.267;  -78.200;    0.000;19.93333
 844.04;  -62.733;  -67.133;    0.000; 4.40000
 844.29;  -62.267;  -61.333;    0.000;-0.93333
 844.54;  -79.800;  -72.067;    0.000;-7.73334
 844.79;  -54.667;  -76.467;    0.000;21.80000
 845.04;  -48.267;  -74.200;    0.000;25.93333
 845.28;  -83.000;  -86.867;    0.000; 3.86667
 845.53;  -54.733;  -81.933;    0.000;27.20000
 845.78;  -45.467;  -61.400;    0.000;15.93333
 846.03;  -64.533;  -65.400;    0.000; 0.86667
 846.28;  -50.600;  -75.400;    0.000;24.80000
 846.53;  -48.933;  -60.333;    0.000;11.40000
 846.78;  -59.067;  -72.400;    0.000;13.33334
 847.02;  -49.933;  -75.400;    0.000;25.46667
 847.27;  -59.933;  -81.467;    0.000;21.53333
 847.52;  -59.400;  -89.867;    0.000;30.46667
 847.77;  -55.133;  -76.533;    0.000;21.40000
 848.02;  -72.533;  -92.067;    0.000;19.53333
 848.27;  -48.000;  -69.133;    0.000;21.13333
 848.52;  -56.333;  -87.733;    0.000;31.40000
 848.76;  -58.467;  -70.733;    0.000;12.26666
 849.01;  -61.200;  -71.533;    0.000;10.33333
 849.26;  -46.067;  -81.667;    0.000;35.60000
 849.51;  -67.667;  -78.867;    0.000;11.20000
 849.76;  -51.667;  -80.067;    0.000;28.40000
 850.01;  -67.467;  -86.267;    0.000;18.80000
 850.25;  -63.000;  -74.067;    0.000;11.06667
 850.50;  -68.067;  -73.533;    0.000; 5.46667
 850.75;  -67.067;  -71.400;    0.000; 4.33334
 851.00;  -86.000;  -85.600;    0.000;-0.40000
 851.25;  -50.800;  -72.333;    0.000;21.53334
 851.49;  -59.067;  -75.200;    0.000;16.13333
 851.74;  -59.733;  -65.933;    0.000; 6.20000
 851.99;  -60.467;  -88.667;    0.000;28.20000
 852.24;  -61.067;  -57.333;    0.000;-3.73333
 852.49;  -68.600;  -90.000;    0.000;21.40000
 852.73;  -70.200;  -85.333;    0.000;15.13334
 852.98;  -81.067;  -84.133;    0.000; 3.06667
 853.23;  -65.200;  -70.533;    0.000; 5.33334
 853.48;  -72.133;  -68.067;    0.000;-4.06667
 853.73;  -59.800;  -81.467;    0.000;21.66667
 853.97;  -49.933;  -71.733;    0.000;21.80000
 854.22;  -71.800;  -76.867;    0.000; 5.06667
 854.47;  -67.400;  -81.467;    0.000;14.06667
 854.72;  -63.467;  -51.200;    0.000;-12.26667
 854.96;  -74.067;  -77.600;    0.000; 3.53333
 855.21;  -56.200;  -41.133;    0.000;-15.06667
 855.46;  -59.067;  -43.267;    0.000;-15.80000
 855.71;  -83.733;  -74.067;    0.000;-9.66666
 855.95;  -41.667;  -68.800;    0.000;27.13334
 856.20;  -63.733;  -74.267;    0.000;10.53334
 856.45;  -76.000;  -75.800;    0.000;-0.20000
 856.70;  -72.867;  -70.200;    0.000;-2.66667
 856.94;  -80.867;  -84.733;    0.000; 3.86666
 857.19;  -73.333;  -60.533;    0.000;-12.80000
 857.44;  -64.933;  -81.667;    0.000;16.73333
 857.69;  -56.133;  -57.800;    0.000; 1.66666
 857.93;  -64.000;  -75.133;    0.000;11.13333
 858.18;  -47.733;  -61.000;    0.000;13.26667
 858.43;  -44.200;  -87.067;    0.000;42.86666
 858.67;  -50.467;  -57.133;    0.000; 6.66667
 858.92;  -42.533;  -69.667;    0.000;27.13333
 859.17;  -39.267;  -38.067;    0.000;-1.20000
 859.42;  -76.667;  -86.667;    0.000;10.00000
 859.66;  -77.400;  -94.467;    0.000;17.06667
 859.91;  -62.200;  -87.200;    0.000;25.00000
 860.16;  -71.133;  -85.800;    0.000;14.66667
 860.40;  -60.600;  -62.867;    0.000; 2.26667
 860.65;  -72.000;  -78.800;    0.000; 6.80000
 860.90;  -62.600;  -75.267;    0.000;12.66667
 861.14;  -69.533;  -71.733;    0.000; 2.20000
 861.39;  -59.933;  -79.933;    0.000;20.00000
 861.64;  -59.467;  -79.067;    0.000;19.60000
 861.88;  -63.933;  -71.200;    0.000; 7.26666
 862.13;  -60.667;  -64.000;    0.000; 3.33333
 862.38;  -83.467;  -97.267;    0.000;13.80000
 862.62;  -60.133;  -82.400;    0.000;22.26667
 862.87;  -62.133;  -74.133;    0.000;12.00000
 863.12;  -78.867;  -60.467;    0.000;-18.40000
 863.36;  -70.333;  -95.667;    0.000;25.33333
 863.61;  -51.467;  -74.333;    0.000;22.86667
 863.86;  -61.467;  -88.600;    0.000;27.13333
 864.10;  -55.800;  -80.733;    0.000;24.93333
 864.35;  -71.933;  -83.067;    0.000;11.13333
 864.60;  -48.267;  -73.067;    0.000;24.80000
 864.84;  -83.333;  -63.667;    0.000;-19.66667
 865.09;  -39.400;  -83.133;    0.000;43.73333
 865.33;  -70.733;  -63.133;    0.000;-7.59999
 865.58;  -59.400;  -73.467;    0.000;14.06667
 865.83;  -72.333;  -67.333;    0.000;-5.00000
 866.07;  -77.667;  -83.133;    0.000; 5.46667
 866.32;  -36.467;  -46.800;    0.000;10.33333
 866.57;  -53.200;  -50.000;    0.000;-3.20000
 866.81;  -81.200;  -63.133;    0.000;-18.06666
 867.06;  -59.533;  -92.933;    0.000;33.40000
 867.30;  -59.933; -100.800;    0.000;40.86667
 867.55;  -73.400;  -64.267;    0.000;-9.13333
 867.80;  -44.867;  -80.067;    0.000;35.20000
 868.04;  -69.267;  -71.933;    0.000; 2.66666
 868.29;  -61.533;  -74.400;    0.000;12.86667
 868.53;  -51.533;  -89.933;    0.000;38.40000
 868.78;  -75.733;  -63.267;    0.000;-12.46666
 869.03;  -67.067;  -58.933;    0.000;-8.13333
 869.27;  -71.600;  -77.333;    0.000; 5.73334
 869.52;  -59.333;  -63.800;    0.000; 4.46667
 869.76;  -79.200;  -69.533;    0.000;-9.66666
 870.01;  -63.067;  -65.733;    0.000; 2.66666
 870.25;  -63.467;  -58.133;    0.000;-5.33333
 870.50;  -58.533;  -69.067;    0.000;10.53333
 870.75;  -84.267;  -86.600;    0.000; 2.33333
 870.99;  -72.333;  -66.133;    0.000;-6.20000
 871.24;  -57.800;  -61.267;    0.000; 3.46667
 871.48;  -63.733;  -73.533;    0.000; 9.80000
 871.73;  -67.000;  -60.133;    0.000;-6.86666
 871.97;  -46.600;  -95.400;    0.000;48.80000
 872.22;  -58.667;  -61.200;    0.000; 2.53333
 872.46;  -51.200;  -75.933;    0.000;24.73333
 872.71;  -50.000;  -91.600;    0.000;41.60000
 872.95;  -52.200;  -66.800;    0.000;14.60000
 873.20;  -70.467;  -71.400;    0.000; 0.93333
 873.44;  -55.467;  -48.267;    0.000;-7.20000
 873.69;  -54.733;  -72.000;    0.000;17.26667
 873.94;  -71.333;  -80.600;    0.000; 9.26666
 874.18;  -71.600;  -71.867;    0.000; 0.26667
 874.43;  -62.200;  -52.733;    0.000;-9.46667
 874.67;  -56.267;  -70.333;    0.000;14.06667
 874.92;  -37.733;  -58.200;    0.000;20.46667
 875.16;  -42.200;  -77.933;    0.000;35.73333
 875.41;  -67.200;  -67.400;    0.000; 0.20000
 875.65;  -69.400;  -62.867;    0.000;-6.53334
 875.90;  -46.133;  -51.067;    0.000; 4.93333
 876.14;  -67.800;  -94.333;    0.000;26.53333
 876.39;  -48.867;  -78.867;    0.000;30.00000
 876.63;  -65.600;  -60.867;    0.000;-4.73333
 876.88;  -49.067;  -54.467;    0.000; 5.40000
 877.12;  -39.933;  -64.933;    0.000;25.00000
 877.36;  -61.333;  -68.333;    0.000; 7.00000
 877.61;  -78.467;  -81.000;    0.000; 2.53333
 877.85;  -52.333;  -50.933;    0.000;-1.40000
 878.10;  -55.867;  -65.400;    0.000; 9.53334
 878.34;  -38.867;  -51.133;    0.000;12.26667
 878.59;  -59.867;  -72.400;    0.000;12.53334
 878.83;  -62.933;  -71.400;    0.000; 8.46667
 879.08;  -60.600;  -68.267;    0.000; 7.66667
 879.32;  -52.867;  -73.800;    0.000;20.93334
 879.57;  -51.933;  -63.333;    0.000;11.40000
 879.81;  -57.733;  -62.267;    0.000; 4.53333
 880.05;  -37.933;  -43.733;    0.000; 5.80000
 880.30;  -65.600;  -63.733;    0.000;-1.86666
 880.54;  -54.200;  -67.067;    0.000;12.86666
 880.79;  -62.400;  -80.867;    0.000;18.46667
 881.03;  -67.867;  -50.667;    0.000;-17.20000
 881.28;  -36.467;  -65.067;    0.000;28.60000
 881.52;  -66.533;  -70.267;    0.000; 3.73334
 881.76;  -54.133;  -58.333;    0.000; 4.20000
 882.01;  -57.267;  -68.600;    0.000;11.33333
 882.25;  -55.667;  -60.467;    0.000; 4.80000
 882.50;  -67.933;  -83.800;    0.000;15.86667
 882.74;  -53.467;  -74.200;    0.000;20.73333
 882.98;  -52.800;  -63.067;    0.000;10.26667
 883.23;  -67.733;  -51.800;    0.000;-15.93333
 883.47;  -63.667;  -83.067;    0.000;19.40000
 883.72;  -51.067;  -49.800;    0.000;-1.26667
 883.96;  -41.333;  -82.000;    0.000;40.66667
 884.20;  -66.267;  -58.733;    0.000;-7.53334
 884.45;  -79.533;  -49.933;    0.000;-29.60000
 884.69;  -51.667;  -55.733;    0.000; 4.06667
 884.94;  -29.067;  -39.267;    0.000;10.20000
 885.18;  -46.733;  -80.733;    0.000;34.00000
 885.42;  -47.133;  -70.333;    0.000;23.20000
 885.67;  -42.067;  -76.467;    0.000;34.40000
 885.91;  -59.200;  -86.933;    0.000;27.73333
 886.15;  -41.933;  -58.533;    0.000;16.60000
 886.40;  -63.000;  -43.733;    0.000;-19.26667
 886.64;  -46.133;  -75.133;    0.000;29.00000
 886.88;  -51.800;  -73.800;    0.000;22.00000
 887.13;  -32.000;  -38.000;    0.000; 6.00000
 887.37;  -55.533;  -62.200;    0.000; 6.66667
 887.62;  -43.800;  -59.600;    0.000;15.80000
 887.86;  -45.333;  -69.067;    0.000;23.73333
 888.10;  -46.333;  -49.933;    0.000; 3.60000
 888.35;  -32.800;  -47.400;    0.000;14.60000
 888.59;  -60.067;  -45.133;    0.000;-14.93333
 888.83;  -41.200;  -50.867;    0.000; 9.66666
 889.07;  -46.400;  -48.400;    0.000; 2.00000
 889.32;  -57.000;  -79.267;    0.000;22.26667
 889.56;  -45.000;  -60.933;    0.000;15.93333
 889.80;  -25.200;  -58.933;    0.000;33.73333
 890.05;  -41.667;  -58.600;    0.000;16.93333
 890.29;  -53.667;  -53.867;    0.000; 0.20000
 890.53;  -48.800;  -65.267;    0.000;16.46667
 890.78;  -53.933;  -63.667;    0.000; 9.73333
 891.02;  -49.533;  -57.667;    0.000; 8.13334
 891.26;  -47.067;  -77.400;    0.000;30.33334
 891.51;  -43.067;  -58.267;    0.000;15.20000
 891.75;  -43.133;  -39.000;    0.000;-4.13334
 891.99;  -43.467;  -59.200;    0.000;15.73333
 892.23;  -45.933;  -64.467;    0.000;18.53333
 892.48;  -56.333;  -37.800;    0.000;-18.53333
 892.72;  -27.867;  -51.467;    0.000;23.60000
 892.96;  -41.200;  -30.000;    0.000;-11.20000
 893.20;  -29.533;  -45.867;    0.000;16.33333
 893.45;  -39.333;  -49.400;    0.000;10.06667
 893.69;  -56.533;  -49.400;    0.000;-7.13333
 893.93;  -35.933;  -34.400;    0.000;-1.53333
 894.17;  -44.400;  -40.400;    0.000;-4.00000
 894.42;  -43.333;  -47.600;    0.000; 4.26667
 894.66;  -42.600;  -43.067;    0.000; 0.46667
 894.90;  -47.533;  -56.267;    0.000; 8.73333
 895.14;  -38.067;  -27.200;    0.000;-10.86666
 895.39;  -30.400;  -47.267;    0.000;16.86667
 895.63;  -23.800;  -31.600;    0.000; 7.80000
 895.87;  -39.200;  -22.000;    0.000;-17.20000
 896.11;  -28.333;  -50.533;    0.000;22.20000
 896.36;  -25.600;  -47.333;    0.000;21.73333
 896.60;  -31.933;  -46.933;    0.000;15.00000
 896.84;   -9.667;  -11.200;    0.000; 1.53333
 897.08;  -12.733;  -20.133;    0.000; 7.40000
 897.32;  -12.400;  -21.733;    0.000; 9.33333
 897.57;   -2.267;  -10.467;    0.000; 8.20000
 897.81;   -4.400;  -28.467;    0.000;24.06667
 898.05;  -18.200;  -29.467;    0.000;11.26667
 898.29;   -2.733;    1.067;    0.000;-3.80000
 898.53;  -13.933;  -28.600;    0.000;14.66667
 898.78;    4.933;   -6.667;    0.000;11.60000
 899.02;   -4.733;  -13.933;    0.000; 9.20000
 899.26;   16.533;    3.933;    0.000;12.60000
 899.50;   28.067;   28.600;    0.000;-0.53333
 899.74;    0.933;    1.067;    0.000;-0.13333
 899.99;   -5.133;   -0.133;    0.000;-5.00000
 900.23;   32.600;    9.000;    0.000;23.60000
 900.47;   30.667;   29.733;    0.000; 0.93333
 900.71;   22.733;   20.800;    0.000; 1.93333
 900.95;   35.533;   40.533;    0.000;-5.00000
 901.19;   50.333;   60.733;    0.000;-10.40000
 901.44;   53.467;   33.933;    0.000;19.53333
 901.68;  101.000;   70.600;    0.000;30.40000
 901.92;   89.733;  100.133;    0.000;-10.40000
 902.16;  108.533;  102.200;    0.000; 6.33334
 902.40;  120.000;  106.800;    0.000;13.20000
 902.64;  131.133;  130.600;    0.000; 0.53333
 902.88;  165.333;  171.533;    0.000;-6.20001
 903.13;  183.533;  185.200;    0.000;-1.66666

