point4
Integration time [ms]:  30.000
Averaging Nr. [scans]: 15
Smoothing Nr. [pixels]: 0
Data measured with spectrometer [name]: 1307077U2
Wave   ;Sample   ;Dark     ;Reference;Scope Corrected for Dark
[nm]   ;[counts] ;[counts] ;[counts] 

 350.80;    4.733;  -10.667;    0.000;15.40000
 351.10;    8.000;   -8.067;    0.000;16.06667
 351.39;   34.800;   26.067;    0.000; 8.73333
 351.69;   -6.067;   -3.733;    0.000;-2.33333
 351.99;  -15.333;   -3.067;    0.000;-12.26667
 352.28;  -14.467;  -15.133;    0.000; 0.66667
 352.58;  -19.400;  -14.067;    0.000;-5.33333
 352.88;  -15.000;  -14.133;    0.000;-0.86667
 353.17;    6.667;   14.200;    0.000;-7.53333
 353.47;  -11.400;  -16.667;    0.000; 5.26667
 353.76;   12.133;  -10.600;    0.000;22.73333
 354.06;   16.000;  -14.867;    0.000;30.86667
 354.36;  -16.600;   -5.800;    0.000;-10.80000
 354.65;   25.867;   14.067;    0.000;11.80000
 354.95;   -0.467;   -1.600;    0.000; 1.13333
 355.24;    6.467;  -15.667;    0.000;22.13333
 355.54;    0.600;   -5.000;    0.000; 5.60000
 355.84;  -18.200;   -6.600;    0.000;-11.60000
 356.13;   33.467;   12.733;    0.000;20.73333
 356.43;  -12.533;  -19.667;    0.000; 7.13333
 356.72;  -18.667;  -21.133;    0.000; 2.46667
 357.02;   -1.667;    2.133;    0.000;-3.80000
 357.31;   13.933;    4.667;    0.000; 9.26667
 357.61;   11.267;    0.200;    0.000;11.06667
 357.91;  -27.400;  -11.800;    0.000;-15.60000
 358.20;    3.600;   -3.400;    0.000; 7.00000
 358.50;    6.933;  -28.600;    0.000;35.53333
 358.79;    3.667;    9.933;    0.000;-6.26667
 359.09;    9.067;   10.067;    0.000;-1.00000
 359.38;  -23.267;   -0.600;    0.000;-22.66667
 359.68;  -11.933;  -34.933;    0.000;23.00000
 359.98;   -5.200;   -6.533;    0.000; 1.33333
 360.27;    6.600;    3.667;    0.000; 2.93333
 360.57;   -8.667;    7.267;    0.000;-15.93333
 360.86;   14.533;  -18.067;    0.000;32.60000
 361.16;  -16.533;  -31.667;    0.000;15.13333
 361.45;   -1.533;   -6.333;    0.000; 4.80000
 361.75;    0.800;  -27.533;    0.000;28.33333
 362.04;   29.533;   17.200;    0.000;12.33333
 362.34;   -0.933;   -6.667;    0.000; 5.73333
 362.64;    3.933;    2.267;    0.000; 1.66667
 362.93;  -12.867;    0.600;    0.000;-13.46667
 363.23;  -30.333;  -25.467;    0.000;-4.86667
 363.52;   -1.933;  -21.333;    0.000;19.40000
 363.82;    6.867;  -17.933;    0.000;24.80000
 364.11;   -1.000;  -12.867;    0.000;11.86667
 364.41;  -20.933;  -22.067;    0.000; 1.13334
 364.70;   -6.200;    3.333;    0.000;-9.53333
 365.00;    7.267;  -18.133;    0.000;25.40000
 365.29;  -12.267;  -21.267;    0.000; 9.00000
 365.59;  -11.600;  -18.800;    0.000; 7.20000
 365.88;   -0.600;  -11.133;    0.000;10.53333
 366.18;    5.333;   -9.533;    0.000;14.86667
 366.47;   -9.467;  -19.333;    0.000; 9.86667
 366.77;    8.267;  -15.067;    0.000;23.33333
 367.06;    5.400;  -14.133;    0.000;19.53333
 367.36;    6.400;    0.467;    0.000; 5.93333
 367.65;    0.067;   -4.733;    0.000; 4.80000
 367.95;   -4.333;  -20.400;    0.000;16.06667
 368.24;    0.533;    2.467;    0.000;-1.93333
 368.54;  -15.133;  -22.867;    0.000; 7.73333
 368.83;    3.533;   11.067;    0.000;-7.53333
 369.13;   19.667;    1.133;    0.000;18.53333
 369.42;    2.933;  -12.000;    0.000;14.93333
 369.72;   -2.067;    6.800;    0.000;-8.86667
 370.01;   -7.600;   -6.733;    0.000;-0.86667
 370.31;   23.733;   -5.067;    0.000;28.80000
 370.60;   -0.133;   28.667;    0.000;-28.80000
 370.90;   -6.333;  -16.200;    0.000; 9.86667
 371.19;  -29.333;  -13.867;    0.000;-15.46667
 371.49;   -0.133;  -27.000;    0.000;26.86667
 371.78;   -2.667;  -13.800;    0.000;11.13333
 372.08;    3.133;  -15.333;    0.000;18.46667
 372.37;  -11.333;    3.200;    0.000;-14.53333
 372.67;    5.733;   -0.533;    0.000; 6.26667
 372.96;   -7.867;  -21.667;    0.000;13.80000
 373.26;   -9.667;  -18.467;    0.000; 8.80000
 373.55;    7.667;   -9.867;    0.000;17.53333
 373.85;   15.733;   -1.933;    0.000;17.66667
 374.14;   21.267;    3.333;    0.000;17.93333
 374.43;   -2.667;  -28.533;    0.000;25.86667
 374.73;   -5.200;  -17.400;    0.000;12.20000
 375.02;   16.667;    6.933;    0.000; 9.73333
 375.32;   -1.467;  -13.000;    0.000;11.53333
 375.61;   -7.000;  -28.133;    0.000;21.13333
 375.91;   -0.733;   -3.067;    0.000; 2.33333
 376.20;  -20.400;  -32.933;    0.000;12.53333
 376.50;  -25.667;  -31.933;    0.000; 6.26667
 376.79;   -9.067;  -14.400;    0.000; 5.33333
 377.08;  -13.533;  -19.400;    0.000; 5.86667
 377.38;  -31.133;  -25.333;    0.000;-5.80000
 377.67;  -15.200;  -22.733;    0.000; 7.53333
 377.97;   -1.467;  -36.200;    0.000;34.73333
 378.26;    7.133;    7.000;    0.000; 0.13333
 378.56;  -18.733;  -28.000;    0.000; 9.26667
 378.85;    0.133;   -7.867;    0.000; 8.00000
 379.14;    5.067;  -26.200;    0.000;31.26667
 379.44;  -17.133;    1.600;    0.000;-18.73333
 379.73;   -9.933;   -8.333;    0.000;-1.60000
 380.03;   -4.600;   -5.000;    0.000; 0.40000
 380.32;   10.000;  -14.000;    0.000;24.00000
 380.62;  -25.600;    4.000;    0.000;-29.60000
 380.91;    4.600;   -8.933;    0.000;13.53333
 381.20;   -9.733;    1.133;    0.000;-10.86667
 381.50;    8.600;  -19.467;    0.000;28.06667
 381.79;  -16.400;  -13.600;    0.000;-2.80000
 382.09;   -3.933;  -21.400;    0.000;17.46667
 382.38;  -13.400;    8.867;    0.000;-22.26667
 382.67;  -10.133;  -24.733;    0.000;14.60000
 382.97;   -9.867;  -13.200;    0.000; 3.33333
 383.26;  -10.067;    3.467;    0.000;-13.53333
 383.56;   -5.400;   -0.267;    0.000;-5.13333
 383.85;   -9.733;  -25.267;    0.000;15.53333
 384.14;    6.933;   20.000;    0.000;-13.06667
 384.44;  -16.467;  -19.600;    0.000; 3.13333
 384.73;  -12.000;  -17.200;    0.000; 5.20000
 385.02;   12.733;  -20.200;    0.000;32.93333
 385.32;   -4.800;  -14.933;    0.000;10.13333
 385.61;  -19.133;  -26.667;    0.000; 7.53333
 385.91;    6.000;   -2.333;    0.000; 8.33333
 386.20;   -5.533;  -23.533;    0.000;18.00000
 386.49;  -26.867;  -21.800;    0.000;-5.06667
 386.79;    1.933;  -18.800;    0.000;20.73333
 387.08;  -17.800;  -15.467;    0.000;-2.33333
 387.37;  -13.733;  -16.733;    0.000; 3.00000
 387.67;  -10.533;  -18.667;    0.000; 8.13333
 387.96;  -16.333;  -20.533;    0.000; 4.20000
 388.25;    7.533;   18.467;    0.000;-10.93333
 388.55;   -4.333;  -22.933;    0.000;18.60000
 388.84;  -14.133;  -23.867;    0.000; 9.73333
 389.14;    6.133;  -27.800;    0.000;33.93333
 389.43;   -3.133;   -8.267;    0.000; 5.13333
 389.72;    1.333;  -30.867;    0.000;32.20000
 390.02;  -13.133;   -6.533;    0.000;-6.60000
 390.31;    9.467;  -15.667;    0.000;25.13333
 390.60;  -13.133;  -17.267;    0.000; 4.13333
 390.90;  -11.333;  -27.867;    0.000;16.53333
 391.19;  -20.933;   -2.933;    0.000;-18.00000
 391.48;  -11.133;   -2.333;    0.000;-8.80000
 391.78;    3.667;   -2.867;    0.000; 6.53333
 392.07;   29.000;   34.933;    0.000;-5.93333
 392.36;   -0.200;   -3.400;    0.000; 3.20000
 392.66;  -11.667;  -14.733;    0.000; 3.06667
 392.95;  -21.733;  -17.867;    0.000;-3.86667
 393.24;  -20.200;  -34.867;    0.000;14.66666
 393.53;   -5.467;   -1.600;    0.000;-3.86667
 393.83;  -26.867;  -34.933;    0.000; 8.06667
 394.12;  -27.267;   -8.600;    0.000;-18.66667
 394.41;   -2.800;  -29.600;    0.000;26.80000
 394.71;   -8.867;   -6.600;    0.000;-2.26667
 395.00;  -14.467;  -28.000;    0.000;13.53333
 395.29;   -6.733;   -1.800;    0.000;-4.93333
 395.59;   -3.933;  -28.533;    0.000;24.60000
 395.88;  -18.133;  -21.267;    0.000; 3.13333
 396.17;    3.200;  -20.067;    0.000;23.26667
 396.46;    4.600;    5.867;    0.000;-1.26667
 396.76;  -21.667;  -37.933;    0.000;16.26667
 397.05;   21.533;   10.333;    0.000;11.20000
 397.34;  -16.867;  -40.800;    0.000;23.93333
 397.64;   -9.333;   -8.133;    0.000;-1.20000
 397.93;  -22.000;  -30.533;    0.000; 8.53333
 398.22;  -27.267;  -32.133;    0.000; 4.86667
 398.51;  -12.200;  -13.467;    0.000; 1.26667
 398.81;  -29.733;   -3.000;    0.000;-26.73333
 399.10;  -11.467;   -8.800;    0.000;-2.66667
 399.39;   -3.800;   -8.067;    0.000; 4.26667
 399.69;  -10.800;   -5.067;    0.000;-5.73333
 399.98;    3.800;    1.200;    0.000; 2.60000
 400.27;  -29.133;  -36.133;    0.000; 7.00000
 400.56;   -6.533;   -8.467;    0.000; 1.93333
 400.86;  -17.867;  -19.333;    0.000; 1.46667
 401.15;   -1.733;  -11.067;    0.000; 9.33333
 401.44;   -7.467;  -40.467;    0.000;33.00000
 401.73;   15.933;    0.133;    0.000;15.80000
 402.03;   -6.933;   -9.000;    0.000; 2.06667
 402.32;  -31.000;  -26.933;    0.000;-4.06667
 402.61;  -37.667;   -7.467;    0.000;-30.20000
 402.90;  -17.467;  -32.067;    0.000;14.60000
 403.20;   -1.267;    2.933;    0.000;-4.20000
 403.49;   -5.533;  -12.067;    0.000; 6.53333
 403.78;  -21.733;  -33.600;    0.000;11.86666
 404.07;  -16.067;  -20.400;    0.000; 4.33333
 404.37;   -9.933;  -10.867;    0.000; 0.93333
 404.66;  -18.933;    6.467;    0.000;-25.40000
 404.95;  -14.733;   -8.400;    0.000;-6.33333
 405.24;   -6.267;   -6.800;    0.000; 0.53333
 405.53;  -18.200;  -17.333;    0.000;-0.86667
 405.83;    3.067;    1.600;    0.000; 1.46667
 406.12;  -18.533;  -21.133;    0.000; 2.60000
 406.41;    6.067;   15.533;    0.000;-9.46667
 406.70;  -15.600;  -22.467;    0.000; 6.86667
 407.00;  -14.933;    5.067;    0.000;-20.00000
 407.29;   -3.133;  -20.000;    0.000;16.86667
 407.58;   -2.600;  -19.000;    0.000;16.40000
 407.87;  -14.533;  -29.333;    0.000;14.80000
 408.16;   -2.333;  -21.400;    0.000;19.06667
 408.46;   -3.067;  -36.867;    0.000;33.80000
 408.75;    5.400;  -28.667;    0.000;34.06667
 409.04;   -4.533;  -29.733;    0.000;25.20000
 409.33;    2.133;  -13.533;    0.000;15.66667
 409.62;   -7.333;    2.267;    0.000;-9.60000
 409.92;   -3.333;  -16.000;    0.000;12.66667
 410.21;  -18.533;  -34.867;    0.000;16.33333
 410.50;  -11.600;  -19.000;    0.000; 7.40000
 410.79;    2.667;   -0.933;    0.000; 3.60000
 411.08;  -21.067;  -12.267;    0.000;-8.80000
 411.37;  -21.067;  -24.400;    0.000; 3.33333
 411.67;  -17.400;  -24.667;    0.000; 7.26667
 411.96;   -9.400;  -21.533;    0.000;12.13333
 412.25;    6.200;  -11.000;    0.000;17.20000
 412.54;   -4.400;  -18.200;    0.000;13.80000
 412.83;  -10.533;  -14.667;    0.000; 4.13333
 413.13;   -7.600;  -19.400;    0.000;11.80000
 413.42;  -24.933;  -18.667;    0.000;-6.26667
 413.71;  -10.000;  -21.000;    0.000;11.00000
 414.00;  -27.400;  -32.467;    0.000; 5.06667
 414.29;  -16.267;  -19.867;    0.000; 3.60000
 414.58;  -21.200;  -29.867;    0.000; 8.66667
 414.87;  -24.733;  -40.667;    0.000;15.93333
 415.17;  -29.400;  -30.333;    0.000; 0.93333
 415.46;  -17.267;  -29.000;    0.000;11.73333
 415.75;  -19.200;   -8.733;    0.000;-10.46667
 416.04;   10.867;  -10.400;    0.000;21.26667
 416.33;  -23.733;  -15.933;    0.000;-7.80000
 416.62;  -21.333;  -25.867;    0.000; 4.53333
 416.91;   -0.133;   14.667;    0.000;-14.80000
 417.21;  -28.267;  -36.667;    0.000; 8.40000
 417.50;  -22.400;  -42.533;    0.000;20.13333
 417.79;  -12.267;  -17.800;    0.000; 5.53333
 418.08;  -25.533;   -5.933;    0.000;-19.60000
 418.37;  -26.333;  -20.867;    0.000;-5.46667
 418.66;  -17.800;  -16.133;    0.000;-1.66667
 418.95;   -4.600;  -16.733;    0.000;12.13333
 419.24;  -21.000;  -30.933;    0.000; 9.93333
 419.54;   -4.733;  -19.600;    0.000;14.86667
 419.83;  -32.267;  -17.600;    0.000;-14.66667
 420.12;   -5.467;  -29.933;    0.000;24.46667
 420.41;   16.733;   17.667;    0.000;-0.93333
 420.70;  -37.733;  -33.733;    0.000;-4.00000
 420.99;   -8.800;   -4.667;    0.000;-4.13333
 421.28;  -15.733;  -20.067;    0.000; 4.33333
 421.57;  -19.133;   -5.067;    0.000;-14.06667
 421.86;   20.333;    1.267;    0.000;19.06667
 422.16;    1.400;  -14.000;    0.000;15.40000
 422.45;  -17.733;  -40.467;    0.000;22.73333
 422.74;  -21.533;  -16.867;    0.000;-4.66667
 423.03;    7.867;  -15.133;    0.000;23.00000
 423.32;  -13.000;  -11.533;    0.000;-1.46667
 423.61;    8.267;  -12.733;    0.000;21.00000
 423.90;   -9.733;  -27.000;    0.000;17.26667
 424.19;   50.533;   27.933;    0.000;22.60000
 424.48;  -20.867;  -15.733;    0.000;-5.13333
 424.77;   -5.267;  -11.533;    0.000; 6.26667
 425.06;    3.800;    0.400;    0.000; 3.40000
 425.35;  -10.667;   -3.200;    0.000;-7.46667
 425.65;  -10.000;  -21.733;    0.000;11.73333
 425.94;  -21.200;  -35.067;    0.000;13.86666
 426.23;  -11.933;  -37.200;    0.000;25.26667
 426.52;  -11.267;  -32.333;    0.000;21.06667
 426.81;   10.800;   30.267;    0.000;-19.46667
 427.10;   -5.733;  -34.267;    0.000;28.53333
 427.39;  -20.000;  -18.133;    0.000;-1.86667
 427.68;   -7.533;  -21.067;    0.000;13.53333
 427.97;   -3.667;    5.667;    0.000;-9.33333
 428.26;  -12.600;  -31.667;    0.000;19.06667
 428.55;   27.400;   -6.133;    0.000;33.53333
 428.84;    1.267;   -9.933;    0.000;11.20000
 429.13;   -9.600;  -28.067;    0.000;18.46667
 429.42;  -20.067;  -16.867;    0.000;-3.20000
 429.71;   14.867;  -20.600;    0.000;35.46667
 430.00;  -13.800;   -8.267;    0.000;-5.53333
 430.29;  -26.133;  -40.733;    0.000;14.60000
 430.58;  -11.667;  -24.933;    0.000;13.26667
 430.87;  -10.333;  -30.667;    0.000;20.33333
 431.16;  -32.600;  -11.200;    0.000;-21.40000
 431.46;   -6.200;  -15.733;    0.000; 9.53333
 431.75;  -13.533;  -28.133;    0.000;14.60000
 432.04;    8.600;  -15.867;    0.000;24.46667
 432.33;  -32.467;  -12.800;    0.000;-19.66667
 432.62;    0.333;  -21.933;    0.000;22.26667
 432.91;  -17.400;  -26.333;    0.000; 8.93333
 433.20;    1.867;  -20.867;    0.000;22.73333
 433.49;  -26.200;  -45.733;    0.000;19.53333
 433.78;  -35.133;  -30.000;    0.000;-5.13334
 434.07;  -25.000;  -22.133;    0.000;-2.86667
 434.36;  -30.733;  -20.933;    0.000;-9.80000
 434.65;  -28.733;  -26.733;    0.000;-2.00000
 434.94;  -26.667;  -41.800;    0.000;15.13333
 435.23;  -11.600;  -13.067;    0.000; 1.46667
 435.52;  -16.333;   -6.467;    0.000;-9.86667
 435.81;  -25.600;  -18.200;    0.000;-7.40000
 436.10;    1.600;  -25.267;    0.000;26.86667
 436.39;    6.067;  -15.267;    0.000;21.33333
 436.68;    5.667;  -22.333;    0.000;28.00000
 436.97;  -16.533;  -24.333;    0.000; 7.80000
 437.26;    2.133;   -8.200;    0.000;10.33333
 437.55;   -8.200;  -33.800;    0.000;25.60000
 437.83;  -10.133;  -24.733;    0.000;14.60000
 438.12;  -26.533;  -37.200;    0.000;10.66667
 438.41;  -10.133;  -15.267;    0.000; 5.13333
 438.70;    3.467;   23.600;    0.000;-20.13333
 438.99;   10.400;   -2.933;    0.000;13.33333
 439.28;  -22.400;  -22.600;    0.000; 0.20000
 439.57;  -16.067;  -18.667;    0.000; 2.60000
 439.86;  -16.800;  -32.467;    0.000;15.66667
 440.15;  -18.133;   -6.933;    0.000;-11.20000
 440.44;    0.867;  -29.667;    0.000;30.53333
 440.73;  -21.733;  -41.400;    0.000;19.66667
 441.02;  -16.933;  -29.800;    0.000;12.86667
 441.31;   13.400;  -15.733;    0.000;29.13333
 441.60;   -3.800;  -20.667;    0.000;16.86667
 441.89;  -30.533;  -26.867;    0.000;-3.66667
 442.18;  -16.400;  -16.800;    0.000; 0.40000
 442.47;  -19.867;  -13.200;    0.000;-6.66667
 442.76;  -42.933;  -26.667;    0.000;-16.26667
 443.05;    4.600;  -11.400;    0.000;16.00000
 443.34;  -18.133;  -25.333;    0.000; 7.20000
 443.63;  -22.867;  -34.067;    0.000;11.20000
 443.91;  -17.333;  -28.533;    0.000;11.20000
 444.20;   -8.800;  -36.600;    0.000;27.80000
 444.49;  -36.800;  -36.200;    0.000;-0.60000
 444.78;   -3.533;    1.933;    0.000;-5.46667
 445.07;    5.200;  -20.067;    0.000;25.26667
 445.36;  -10.533;  -35.800;    0.000;25.26667
 445.65;  -20.800;  -16.267;    0.000;-4.53333
 445.94;  -12.200;  -21.400;    0.000; 9.20000
 446.23;   11.200;  -38.067;    0.000;49.26667
 446.52;  -11.600;   -5.467;    0.000;-6.13333
 446.81;  -10.800;  -17.400;    0.000; 6.60000
 447.10;  -30.133;  -19.533;    0.000;-10.60000
 447.38;  -23.467;  -38.600;    0.000;15.13333
 447.67;   -1.333;  -50.000;    0.000;48.66667
 447.96;  -16.600;  -49.267;    0.000;32.66667
 448.25;  -14.267;  -11.933;    0.000;-2.33333
 448.54;  104.600;   81.200;    0.000;23.40000
 448.83;   -3.133;  -28.067;    0.000;24.93333
 449.12;  -24.400;  -47.133;    0.000;22.73334
 449.41;    9.533;  -25.467;    0.000;35.00000
 449.70;  -17.467;  -39.867;    0.000;22.40000
 449.98;  -28.600;  -28.800;    0.000; 0.20000
 450.27;   -6.867;  -24.600;    0.000;17.73333
 450.56;  -18.400;  -23.733;    0.000; 5.33333
 450.85;  -32.467;  -14.533;    0.000;-17.93333
 451.14;  -31.400;  -27.867;    0.000;-3.53333
 451.43;  -26.000;  -44.133;    0.000;18.13334
 451.72;  -12.933;  -29.800;    0.000;16.86667
 452.01;   -7.400;  -25.533;    0.000;18.13333
 452.29;  -28.467;  -27.533;    0.000;-0.93333
 452.58;  -22.133;  -35.333;    0.000;13.20000
 452.87;    1.467;  -17.133;    0.000;18.60000
 453.16;  -12.733;  -26.533;    0.000;13.80000
 453.45;   -6.933;   -0.200;    0.000;-6.73333
 453.74;  -14.000;  -14.467;    0.000; 0.46667
 454.03;   -8.933;  -18.267;    0.000; 9.33333
 454.31;  -13.933;  -32.933;    0.000;19.00000
 454.60;  -40.533;  -23.133;    0.000;-17.40000
 454.89;    8.733;  -17.333;    0.000;26.06667
 455.18;  -34.933;  -21.933;    0.000;-13.00000
 455.47;  -32.267;  -49.200;    0.000;16.93333
 455.76;   -7.467;  -17.267;    0.000; 9.80000
 456.04;  -20.467;  -30.333;    0.000; 9.86667
 456.33;  -32.333;  -26.533;    0.000;-5.80000
 456.62;   -4.533;  -24.867;    0.000;20.33333
 456.91;  -30.000;  -47.000;    0.000;17.00000
 457.20;  -19.067;  -13.333;    0.000;-5.73333
 457.49;   -7.733;  -22.933;    0.000;15.20000
 457.77;  -33.200;  -28.667;    0.000;-4.53333
 458.06;   -7.400;  -19.333;    0.000;11.93333
 458.35;  -29.067;  -35.133;    0.000; 6.06667
 458.64;  -27.933;  -13.733;    0.000;-14.20000
 458.93;   -8.933;  -33.933;    0.000;25.00000
 459.21;  -25.800;  -45.267;    0.000;19.46667
 459.50;  -19.733;  -24.333;    0.000; 4.60000
 459.79;  -22.667;  -36.400;    0.000;13.73334
 460.08;  -28.000;  -42.400;    0.000;14.40000
 460.37;  -10.600;  -24.333;    0.000;13.73333
 460.65;  -26.333;  -26.333;    0.000; 0.00000
 460.94;  -28.133;  -36.333;    0.000; 8.20000
 461.23;  -13.133;  -32.533;    0.000;19.40000
 461.52;   -3.933;   17.333;    0.000;-21.26667
 461.81;  -27.200;  -33.933;    0.000; 6.73333
 462.09;  -17.533;  -24.667;    0.000; 7.13333
 462.38;  -18.200;  -53.333;    0.000;35.13333
 462.67;    4.867;  -15.400;    0.000;20.26667
 462.96;    4.000;  -40.267;    0.000;44.26667
 463.24;  -21.400;  -18.467;    0.000;-2.93333
 463.53;   -0.333;  -25.467;    0.000;25.13333
 463.82;  -19.200;   -2.667;    0.000;-16.53333
 464.11;  -24.933;  -34.867;    0.000; 9.93333
 464.40;  -30.600;  -35.800;    0.000; 5.20000
 464.68;  -17.867;  -47.400;    0.000;29.53333
 464.97;  -19.267;  -32.333;    0.000;13.06667
 465.26;    1.267;   -9.533;    0.000;10.80000
 465.55;  -15.400;  -12.600;    0.000;-2.80000
 465.83;  -21.933;  -36.467;    0.000;14.53333
 466.12;  -19.867;  -22.400;    0.000; 2.53333
 466.41;  -10.600;  -38.200;    0.000;27.60000
 466.70;  -18.200;  -33.533;    0.000;15.33333
 466.98;  -13.000;  -44.333;    0.000;31.33333
 467.27;    1.200;  -12.800;    0.000;14.00000
 467.56;   12.133;   -5.267;    0.000;17.40000
 467.85;   -7.867;  -13.867;    0.000; 6.00000
 468.13;  -19.067;  -48.000;    0.000;28.93333
 468.42;   -9.867;  -30.467;    0.000;20.60000
 468.71;   -8.800;  -39.200;    0.000;30.40000
 468.99;  -13.667;  -11.267;    0.000;-2.40000
 469.28;  -18.067;  -31.867;    0.000;13.80000
 469.57;  -22.800;  -35.200;    0.000;12.40000
 469.86;  -10.400;  -50.333;    0.000;39.93333
 470.14;  -33.600;  -14.333;    0.000;-19.26667
 470.43;    9.000;  -24.800;    0.000;33.80000
 470.72;  -28.000;  -28.933;    0.000; 0.93333
 471.00;  -28.400;  -41.667;    0.000;13.26667
 471.29;   17.800;   12.733;    0.000; 5.06667
 471.58;   19.067;   -6.133;    0.000;25.20000
 471.87;  -15.667;  -29.800;    0.000;14.13333
 472.15;  -12.800;  -34.400;    0.000;21.60000
 472.44;   17.800;    8.400;    0.000; 9.40000
 472.73;  -24.133;  -59.467;    0.000;35.33333
 473.01;  -32.133;  -23.667;    0.000;-8.46667
 473.30;    1.800;  -31.000;    0.000;32.80000
 473.59;  -10.867;  -31.467;    0.000;20.60000
 473.87;  -19.667;  -26.933;    0.000; 7.26667
 474.16;  -17.533;  -33.600;    0.000;16.06667
 474.45;  -10.400;  -42.133;    0.000;31.73334
 474.74;   -6.000;  -44.467;    0.000;38.46667
 475.02;   -4.533;  -35.067;    0.000;30.53333
 475.31;    6.067;  -24.800;    0.000;30.86667
 475.60;  -16.333;  -15.400;    0.000;-0.93333
 475.88;    5.600;  -26.733;    0.000;32.33333
 476.17;   14.067;   -1.333;    0.000;15.40000
 476.46;  -11.933;  -39.867;    0.000;27.93333
 476.74;  -18.867;  -49.867;    0.000;31.00000
 477.03;  -28.000;  -24.000;    0.000;-4.00000
 477.32;   -3.333;    2.133;    0.000;-5.46667
 477.60;   -8.400;  -24.133;    0.000;15.73333
 477.89;   -9.467;  -30.400;    0.000;20.93333
 478.18;  -26.200;    0.067;    0.000;-26.26667
 478.46;   -1.800;  -30.333;    0.000;28.53333
 478.75;   -9.133;  -35.267;    0.000;26.13333
 479.03;  -19.800;  -44.067;    0.000;24.26667
 479.32;  -17.200;  -44.533;    0.000;27.33333
 479.61;  -16.000;  -42.200;    0.000;26.20000
 479.89;  -14.867;  -29.667;    0.000;14.80000
 480.18;    3.533;  -38.467;    0.000;42.00000
 480.47;   -2.400;   -6.133;    0.000; 3.73333
 480.75;  -14.867;  -42.133;    0.000;27.26667
 481.04;   -3.533;  -16.667;    0.000;13.13333
 481.33;   -3.667;  -30.800;    0.000;27.13333
 481.61;  -10.867;  -19.933;    0.000; 9.06667
 481.90;  -26.200;  -63.733;    0.000;37.53333
 482.18;   -8.133;   -9.067;    0.000; 0.93333
 482.47;   -7.333;  -22.667;    0.000;15.33333
 482.76;   -7.067;  -45.333;    0.000;38.26667
 483.04;    0.333;  -37.667;    0.000;38.00000
 483.33;  -17.000;  -22.333;    0.000; 5.33333
 483.61;  -10.600;  -40.933;    0.000;30.33333
 483.90;   11.000;  -16.333;    0.000;27.33333
 484.19;  -31.333;  -46.400;    0.000;15.06667
 484.47;  -19.800;  -21.733;    0.000; 1.93333
 484.76;  -25.000;  -59.933;    0.000;34.93333
 485.05;    5.533;  -19.600;    0.000;25.13333
 485.33;    0.800;  -16.000;    0.000;16.80000
 485.62;  -27.667;  -34.400;    0.000; 6.73334
 485.90;    1.267;  -30.133;    0.000;31.40000
 486.19;  -11.867;  -33.000;    0.000;21.13333
 486.47;   27.400;   -8.200;    0.000;35.60000
 486.76;  -30.000;  -31.467;    0.000; 1.46667
 487.05;   18.800;  -10.333;    0.000;29.13333
 487.33;    5.200;  -27.067;    0.000;32.26667
 487.62;  -16.867;  -68.133;    0.000;51.26666
 487.90;    4.133;  -23.600;    0.000;27.73333
 488.19;   11.200;  -18.533;    0.000;29.73333
 488.47;   29.267;  -20.467;    0.000;49.73333
 488.76;    9.533;  -36.333;    0.000;45.86667
 489.05;   66.467;    1.000;    0.000;65.46667
 489.33;    5.533;  -36.867;    0.000;42.40000
 489.62;   34.333;  -14.000;    0.000;48.33333
 489.90;   26.200;  -38.533;    0.000;64.73333
 490.19;   50.000;  -51.933;    0.000;101.93333
 490.47;   39.800;  -24.200;    0.000;64.00000
 490.76;   46.667;  -36.733;    0.000;83.40000
 491.05;   78.800;  -16.533;    0.000;95.33334
 491.33;   69.400;  -19.267;    0.000;88.66667
 491.62;   65.133;  -30.267;    0.000;95.40000
 491.90;   76.800;  -27.867;    0.000;104.66667
 492.19;   74.400;  -30.133;    0.000;104.53333
 492.47;   94.400;  -37.333;    0.000;131.73333
 492.76;  108.933;  -42.867;    0.000;151.80000
 493.04;  142.733;  -25.800;    0.000;168.53334
 493.33;  143.867;  -39.733;    0.000;183.60000
 493.61;  163.267;  -22.400;    0.000;185.66666
 493.90;  198.600;  -21.200;    0.000;219.80001
 494.18;  230.267;  -20.400;    0.000;250.66666
 494.47;  219.200;  -32.400;    0.000;251.60000
 494.75;  258.400;  -39.067;    0.000;297.46666
 495.04;  255.133;  -26.733;    0.000;281.86666
 495.32;  304.600;  -21.733;    0.000;326.33334
 495.61;  336.400;  -37.333;    0.000;373.73333
 495.89;  370.267;  -36.000;    0.000;406.26666
 496.18;  412.533;  -30.333;    0.000;442.86666
 496.46;  412.200;  -37.533;    0.000;449.73335
 496.75;  477.467;  -29.400;    0.000;506.86667
 497.03;  505.267;  -29.600;    0.000;534.86666
 497.32;  543.867;  -39.400;    0.000;583.26664
 497.60;  588.800;  -52.200;    0.000;640.99999
 497.89;  644.067;  -42.200;    0.000;686.26665
 498.17;  699.333;  -17.667;    0.000;716.99998
 498.46;  709.800;  -34.067;    0.000;743.86665
 498.74;  834.200;  -29.533;    0.000;863.73335
 499.03;  826.533;  -39.000;    0.000;865.53333
 499.31;  916.067;  -31.867;    0.000;947.93332
 499.60;  955.200;  -12.933;    0.000;968.13335
 499.88; 1053.667;   -4.267;    0.000;1057.93329
 500.17; 1041.200;  -41.800;    0.000;1082.99995
 500.45; 1150.000;  -25.400;    0.000;1175.40000
 500.74; 1220.333;  -10.133;    0.000;1230.46671
 501.02; 1278.867;  -39.933;    0.000;1318.80003
 501.31; 1323.933;  -54.867;    0.000;1378.80001
 501.59; 1383.400;  -21.000;    0.000;1404.40002
 501.88; 1442.800;  -40.667;    0.000;1483.46672
 502.16; 1527.133;  -30.400;    0.000;1557.53330
 502.45; 1634.733;  -35.400;    0.000;1670.13328
 502.73; 1710.467;  -27.067;    0.000;1737.53334
 503.01; 1798.000;  -29.133;    0.000;1827.13333
 503.30; 1885.000;  -24.000;    0.000;1909.00000
 503.58; 1963.800;  -41.333;    0.000;2005.13338
 503.87; 2042.000;  -26.600;    0.000;2068.60000
 504.15; 2086.800;  -50.067;    0.000;2136.86671
 504.44; 2232.667;  -17.267;    0.000;2249.93341
 504.72; 2350.600;  -13.600;    0.000;2364.20010
 505.00; 2421.867;  -13.800;    0.000;2435.66670
 505.29; 2500.133;  -11.600;    0.000;2511.73330
 505.57; 2579.200;   -9.867;    0.000;2589.06662
 505.86; 2703.267;  -41.533;    0.000;2744.79993
 506.14; 2779.267;  -44.800;    0.000;2824.06660
 506.43; 2923.800;  -21.267;    0.000;2945.06672
 506.71; 2956.800;  -54.400;    0.000;3011.20005
 506.99; 3105.467;  -38.133;    0.000;3143.59989
 507.28; 3242.867;  -29.667;    0.000;3272.53337
 507.56; 3335.000;  -60.133;    0.000;3395.13334
 507.85; 3378.133;  -35.067;    0.000;3413.19997
 508.13; 3480.333;  -49.667;    0.000;3529.99992
 508.41; 3659.467;    8.133;    0.000;3651.33322
 508.70; 3755.867;  -51.733;    0.000;3807.60003
 508.98; 3838.200;  -44.333;    0.000;3882.53328
 509.27; 3998.600;  -22.600;    0.000;4021.20010
 509.55; 4078.133;  -29.467;    0.000;4107.59997
 509.83; 4138.800;  -49.867;    0.000;4188.66647
 510.12; 4269.067;  -51.267;    0.000;4320.33356
 510.40; 4413.800;  -24.867;    0.000;4438.66647
 510.69; 4490.067;  -34.133;    0.000;4524.20023
 510.97; 4569.000;  -31.800;    0.000;4600.80000
 511.25; 4794.133;  -23.400;    0.000;4817.53330
 511.54; 4827.867;  -37.933;    0.000;4865.80003
 511.82; 4905.400;  -34.067;    0.000;4939.46657
 512.11; 5078.333;  -59.467;    0.000;5137.80016
 512.39; 5203.533;  -46.467;    0.000;5249.99987
 512.67; 5198.467;  -50.600;    0.000;5249.06680
 512.96; 5380.333;  -34.533;    0.000;5414.86683
 513.24; 5620.467;  -33.200;    0.000;5653.66680
 513.52; 5560.000;  -25.933;    0.000;5585.93333
 513.81; 5652.733;  -26.267;    0.000;5679.00006
 514.09; 5773.333;  -41.533;    0.000;5814.86683
 514.37; 5856.133;  -47.200;    0.000;5903.33330
 514.66; 6010.067;  -16.733;    0.000;6026.80023
 514.94; 6089.733;  -24.667;    0.000;6114.40006
 515.22; 6170.400;  -39.133;    0.000;6209.53324
 515.51; 6290.333;  -47.133;    0.000;6337.46683
 515.79; 6342.267;  -46.467;    0.000;6388.73327
 516.07; 6489.000;  -38.200;    0.000;6527.20000
 516.36; 6523.133;  -33.133;    0.000;6556.26664
 516.64; 6668.200;  -40.867;    0.000;6709.06686
 516.92; 6718.467;  -45.533;    0.000;6764.00013
 517.21; 6811.933;  -66.133;    0.000;6878.06644
 517.49; 7040.867;  -37.800;    0.000;7078.66670
 517.77; 7152.467;  -41.933;    0.000;7194.40013
 518.06; 7337.333;  -37.667;    0.000;7375.00016
 518.34; 7323.933;  -19.533;    0.000;7343.46644
 518.62; 7513.267;  -19.933;    0.000;7533.19993
 518.91; 7666.933;  143.200;    0.000;7523.73311
 519.19; 7652.667;  -42.733;    0.000;7695.39984
 519.47; 7809.600;  -29.533;    0.000;7839.13343
 519.76; 7853.400;  -29.133;    0.000;7882.53324
 520.04; 7986.400;  -37.467;    0.000;8023.86657
 520.32; 8065.400;    4.267;    0.000;8061.13324
 520.61; 8193.200;  -10.333;    0.000;8203.53353
 520.89; 8219.600;  -35.467;    0.000;8255.06628
 521.17; 8322.267;  -45.800;    0.000;8368.06660
 521.45; 8369.333;  -30.800;    0.000;8400.13301
 521.74; 8456.000;  -43.467;    0.000;8499.46667
 522.02; 8497.733;  -10.000;    0.000;8507.73340
 522.30; 8613.533;  -40.667;    0.000;8654.19987
 522.59; 8712.667;  -12.467;    0.000;8725.13366
 522.87; 8801.400;  -34.000;    0.000;8835.40039
 523.15; 8784.267;  -25.667;    0.000;8809.93327
 523.43; 8872.267;  -52.067;    0.000;8924.33327
 523.72; 8951.333;  -17.933;    0.000;8969.26634
 524.00; 9122.667;  -49.067;    0.000;9171.73366
 524.28; 9056.467;  -19.733;    0.000;9076.20013
 524.57; 9298.533;  -24.000;    0.000;9322.53320
 524.85; 9172.667;  -39.667;    0.000;9212.33366
 525.13; 9363.733;  -37.800;    0.000;9401.53340
 525.41; 9402.066;  -15.933;    0.000;9417.99974
 525.70; 9607.533;  -39.200;    0.000;9646.73320
 525.98; 9583.267;  -40.000;    0.000;9623.26660
 526.26; 9624.533;  -38.467;    0.000;9662.99987
 526.54; 9800.066;   -6.133;    0.000;9806.19974
 526.83; 9781.533;  -41.067;    0.000;9822.59987
 527.11; 9912.267;  -10.600;    0.000;9922.86660
 527.39; 9968.066;  -42.867;    0.000;10010.93307
 527.67; 9974.400;  -26.533;    0.000;10000.93372
 527.96;10087.467;  -44.800;    0.000;10132.26680
 528.24;10113.333;  -36.800;    0.000;10150.13301
 528.52;10119.533;  -45.200;    0.000;10164.73320
 528.80;10314.800;  -20.667;    0.000;10335.46647
 529.08;10237.800;  -61.067;    0.000;10298.86647
 529.37;10415.800;  -22.000;    0.000;10437.79980
 529.65;10424.800;  -42.133;    0.000;10466.93314
 529.93;10407.400;  -33.733;    0.000;10441.13372
 530.21;10555.333;  -60.200;    0.000;10615.53301
 530.50;10586.733;   -5.600;    0.000;10592.33340
 530.78;10552.267;  -45.933;    0.000;10598.19994
 531.06;10763.200;  -44.533;    0.000;10807.73353
 531.34;10712.200;  -43.400;    0.000;10755.60020
 531.62;10804.066;  -60.400;    0.000;10864.46641
 531.91;10823.667;  -48.733;    0.000;10872.40033
 532.19;10833.533;  -35.600;    0.000;10869.13320
 532.47;10931.667;  -39.333;    0.000;10971.00032
 532.75;10945.066;  -25.400;    0.000;10970.46641
 533.03;11115.200;  -13.067;    0.000;11128.26686
 533.32;11056.400;  -30.467;    0.000;11086.86706
 533.60;11160.134;  -42.733;    0.000;11202.86712
 533.88;11273.667;  -23.133;    0.000;11296.80033
 534.16;11158.667;  -39.933;    0.000;11198.60033
 534.44;11323.667;  -14.400;    0.000;11338.06699
 534.72;11351.267;  -56.267;    0.000;11407.53327
 535.01;11383.600;  -38.467;    0.000;11422.06628
 535.29;11278.600;  -60.267;    0.000;11338.86628
 535.57;11407.467;  -51.667;    0.000;11459.13346
 535.85;11500.800;  -37.467;    0.000;11538.26647
 536.13;11474.800;  -35.267;    0.000;11510.06647
 536.42;11480.333;  -50.600;    0.000;11530.93301
 536.70;11674.866;  -37.933;    0.000;11712.79955
 536.98;11709.667;  -29.933;    0.000;11739.60032
 537.26;11746.400;  -47.867;    0.000;11794.26706
 537.54;11786.400;  -68.200;    0.000;11854.60039
 537.82;11772.333;  -30.533;    0.000;11802.86634
 538.10;11856.467;  -36.067;    0.000;11892.53346
 538.39;11859.866;  -26.133;    0.000;11885.99954
 538.67;11897.467;  -35.733;    0.000;11933.20013
 538.95;11924.467;  -55.667;    0.000;11980.13346
 539.23;12070.866;  -45.333;    0.000;12116.19954
 539.51;12062.200;  -18.133;    0.000;12080.33353
 539.79;12021.200;  -36.133;    0.000;12057.33353
 540.07;12060.600;  -44.267;    0.000;12104.86628
 540.36;12121.733;  -52.133;    0.000;12173.86673
 540.64;12128.200;  -50.933;    0.000;12179.13353
 540.92;12169.600;  -51.133;    0.000;12220.73294
 541.20;12310.533;  -29.667;    0.000;12340.19987
 541.48;12254.934;   -2.533;    0.000;12257.46693
 541.76;12249.134;  -34.000;    0.000;12283.13379
 542.04;12326.667;  -58.333;    0.000;12385.00032
 542.32;12367.800;  -50.533;    0.000;12418.33314
 542.61;12440.866;  -35.467;    0.000;12476.33288
 542.89;12464.467;  -21.867;    0.000;12486.33346
 543.17;12459.267;  -37.333;    0.000;12496.59993
 543.45;12523.667;  -43.733;    0.000;12567.40033
 543.73;12553.000;  -50.933;    0.000;12603.93333
 544.01;12599.333;  -29.200;    0.000;12628.53301
 544.29;12669.000;  -28.600;    0.000;12697.60000
 544.57;12643.066;  -43.333;    0.000;12686.39974
 544.85;12766.600;  -50.400;    0.000;12816.99961
 545.13;12637.066;  -24.733;    0.000;12661.79974
 545.42;12676.733;  -45.733;    0.000;12722.46673
 545.70;12779.134;  -25.267;    0.000;12804.40046
 545.98;12633.667;  -58.867;    0.000;12692.53366
 546.26;12674.134;  -45.400;    0.000;12719.53379
 546.54;12741.000;  -54.400;    0.000;12795.40000
 546.82;12818.333;  -27.000;    0.000;12845.33301
 547.10;12823.800;  -21.800;    0.000;12845.59980
 547.38;12879.333;  -47.733;    0.000;12927.06634
 547.66;12950.866;  -34.933;    0.000;12985.79955
 547.94;12773.800;  -39.333;    0.000;12813.13314
 548.22;12810.134;  -43.200;    0.000;12853.33379
 548.50;12932.066;  -43.800;    0.000;12975.86641
 548.78;12867.733;  -38.667;    0.000;12906.40007
 549.06;12990.066;  -30.533;    0.000;13020.59974
 549.34;12874.267;  -50.667;    0.000;12924.93327
 549.63;12920.934;  -27.533;    0.000;12948.46693
 549.91;12903.200;  -40.800;    0.000;12944.00019
 550.19;12946.467;  -15.933;    0.000;12962.40013
 550.47;12973.733;  -53.400;    0.000;13027.13340
 550.75;12988.467;  -66.600;    0.000;13055.06680
 551.03;12919.667;  -61.600;    0.000;12981.26699
 551.31;12970.467;  -33.000;    0.000;13003.46680
 551.59;13047.134;  -65.733;    0.000;13112.86712
 551.87;12991.333;  -17.733;    0.000;13009.06634
 552.15;12941.934;  -62.133;    0.000;13004.06693
 552.43;12989.934;  -23.733;    0.000;13013.66693
 552.71;12985.600;  -52.067;    0.000;13037.66628
 552.99;13009.333;  -41.533;    0.000;13050.86634
 553.27;12915.134;  -51.067;    0.000;12966.20045
 553.55;12974.733;  -47.400;    0.000;13022.13340
 553.83;12973.333;  -50.333;    0.000;13023.66634
 554.11;13009.066;  -27.467;    0.000;13036.53307
 554.39;13109.200;  -29.467;    0.000;13138.66686
 554.67;13037.733;  -38.667;    0.000;13076.40007
 554.95;13074.866;  -32.133;    0.000;13106.99955
 555.23;13044.600;  -29.133;    0.000;13073.73294
 555.51;12959.533;  -56.467;    0.000;13015.99987
 555.79;13098.134;  -30.933;    0.000;13129.06712
 556.07;12967.533;  -48.267;    0.000;13015.79987
 556.35;13051.800;  -44.000;    0.000;13095.79980
 556.63;13053.600;  -51.200;    0.000;13104.79961
 556.91;12969.533;  -14.133;    0.000;12983.66654
 557.19;13062.000;  -57.133;    0.000;13119.13334
 557.47;12902.333;  -29.533;    0.000;12931.86634
 557.75;13022.134;  -55.667;    0.000;13077.80046
 558.03;13137.667;  -43.400;    0.000;13181.06699
 558.31;12952.800;  -55.267;    0.000;13008.06647
 558.59;12920.000;  -40.467;    0.000;12960.46667
 558.87;13095.066;  -44.467;    0.000;13139.53307
 559.15;13063.400;  -37.600;    0.000;13101.00039
 559.43;13062.800;  -44.400;    0.000;13107.19981
 559.71;12980.333;  -25.267;    0.000;13005.59967
 559.99;13018.000;  -46.133;    0.000;13064.13334
 560.27;12957.267;  -17.800;    0.000;12975.06660
 560.55;13084.467;  -41.533;    0.000;13126.00013
 560.82;12918.533;  -48.000;    0.000;12966.53320
 561.10;12899.400;  -60.000;    0.000;12959.40039
 561.38;13014.467;  -54.533;    0.000;13069.00013
 561.66;12940.866;  -33.133;    0.000;12973.99955
 561.94;12903.800;  -42.200;    0.000;12945.99981
 562.22;12996.533;  -47.267;    0.000;13043.79987
 562.50;12869.066;  -27.333;    0.000;12896.39974
 562.78;12770.267;  -32.267;    0.000;12802.53327
 563.06;12857.733;  -44.600;    0.000;12902.33340
 563.34;12789.667;  -42.067;    0.000;12831.73366
 563.62;12797.134;  -45.200;    0.000;12842.33379
 563.90;12708.733;  -55.533;    0.000;12764.26673
 564.18;12799.934;  -32.867;    0.000;12832.80026
 564.46;12737.267;  -42.267;    0.000;12779.53327
 564.74;12756.934;  -34.067;    0.000;12791.00026
 565.01;12622.200;  -41.467;    0.000;12663.66686
 565.29;12691.934;  -33.333;    0.000;12725.26693
 565.57;12577.066;  -52.200;    0.000;12629.26641
 565.85;12524.467;  -26.467;    0.000;12550.93346
 566.13;12669.134;  -61.067;    0.000;12730.20045
 566.41;12587.667;  -17.067;    0.000;12604.73366
 566.69;12560.800;  -44.133;    0.000;12604.93314
 566.97;12527.066;  -41.267;    0.000;12568.33307
 567.25;12505.733;  -57.933;    0.000;12563.66673
 567.53;12441.600;  -48.267;    0.000;12489.86628
 567.80;12369.134;  -41.000;    0.000;12410.13379
 568.08;12467.600;  -31.333;    0.000;12498.93294
 568.36;12351.267;  -40.867;    0.000;12392.13327
 568.64;12343.000;  -38.933;    0.000;12381.93333
 568.92;12303.400;  -20.733;    0.000;12324.13372
 569.20;12270.800;  -49.400;    0.000;12320.19981
 569.48;12235.400;  -63.267;    0.000;12298.66706
 569.76;12234.066;  -44.600;    0.000;12278.66640
 570.03;12164.333;  -34.933;    0.000;12199.26634
 570.31;12152.267;  -19.800;    0.000;12172.06660
 570.59;12128.934;  -51.333;    0.000;12180.26693
 570.87;12059.934;  -29.933;    0.000;12089.86693
 571.15;12126.134;  -77.933;    0.000;12204.06712
 571.43;11992.400;  -28.867;    0.000;12021.26706
 571.71;11955.600;  -53.333;    0.000;12008.93294
 571.98;11924.134;  -39.733;    0.000;11963.86712
 572.26;11889.200;  -46.533;    0.000;11935.73353
 572.54;11859.800;  -47.733;    0.000;11907.53314
 572.82;11822.200;  -45.267;    0.000;11867.46686
 573.10;11794.333;  -42.667;    0.000;11836.99968
 573.38;11670.866;  -47.267;    0.000;11718.13288
 573.66;11665.200;  -47.000;    0.000;11712.20020
 573.93;11649.000;  -58.800;    0.000;11707.80000
 574.21;11622.533;  -51.600;    0.000;11674.13320
 574.49;11641.134;  -62.467;    0.000;11703.60046
 574.77;11574.667;  -44.533;    0.000;11619.20033
 575.05;11553.000;  -34.733;    0.000;11587.73333
 575.33;11557.267;  -58.333;    0.000;11615.59993
 575.60;11546.533;  -44.867;    0.000;11591.39987
 575.88;11383.467;  -36.333;    0.000;11419.80013
 576.16;11512.066;  -35.267;    0.000;11547.33307
 576.44;11478.600;  -30.733;    0.000;11509.33294
 576.72;11325.934;  -62.067;    0.000;11388.00026
 576.99;11262.000;  -55.067;    0.000;11317.06667
 577.27;11122.533;  -45.600;    0.000;11168.13320
 577.55;11176.134;   -8.667;    0.000;11184.80046
 577.83;11175.000;  -47.533;    0.000;11222.53333
 578.11;11114.267;  -63.867;    0.000;11178.13327
 578.38;11024.134;  -41.533;    0.000;11065.66712
 578.66;11024.600;  -65.267;    0.000;11089.86628
 578.94;10854.866;  -43.400;    0.000;10898.26621
 579.22;10896.200;  -52.733;    0.000;10948.93353
 579.50;10961.866;  -21.133;    0.000;10982.99954
 579.77;10851.000;  -47.400;    0.000;10898.40000
 580.05;10778.934;  -49.467;    0.000;10828.40026
 580.33;10744.866;  -45.600;    0.000;10790.46621
 580.61;10639.000;  -56.000;    0.000;10695.00000
 580.88;10570.600;  -35.933;    0.000;10606.53294
 581.16;10559.267;  -50.200;    0.000;10609.46660
 581.44;10633.733;  -24.467;    0.000;10658.20007
 581.72;10511.066;  -71.133;    0.000;10582.19974
 581.99;10437.934;  -30.200;    0.000;10468.13359
 582.27;10417.200;  -58.133;    0.000;10475.33353
 582.55;10308.467;  -51.400;    0.000;10359.86680
 582.83;10313.800;  -30.533;    0.000;10344.33314
 583.10;10349.400;  -26.133;    0.000;10375.53372
 583.38;10225.000;  -70.733;    0.000;10295.73333
 583.66;10188.467;  -32.533;    0.000;10221.00013
 583.94;10099.134;  -46.333;    0.000;10145.46712
 584.21;10060.533;  -53.400;    0.000;10113.93320
 584.49; 9973.733;  -62.467;    0.000;10036.20007
 584.77; 9964.134;  -44.600;    0.000;10008.73379
 585.05; 9903.800;  -70.867;    0.000;9974.66647
 585.32; 9871.533;  -40.067;    0.000;9911.59987
 585.60; 9776.333;  -53.067;    0.000;9829.39967
 585.88; 9752.000;  -39.267;    0.000;9791.26667
 586.16; 9735.800;  -42.067;    0.000;9777.86647
 586.43; 9640.600;   -5.200;    0.000;9645.79961
 586.71; 9688.667;  -29.000;    0.000;9717.66699
 586.99; 9581.134;  -64.400;    0.000;9645.53379
 587.26; 9399.200;  -57.400;    0.000;9456.60020
 587.54; 9353.667;  -38.000;    0.000;9391.66699
 587.82; 9428.333;  -54.400;    0.000;9482.73301
 588.10; 9309.733;  -23.133;    0.000;9332.86673
 588.37; 9268.533;  -46.867;    0.000;9315.39987
 588.65; 9196.866;  -44.600;    0.000;9241.46621
 588.93; 9144.533;  -50.600;    0.000;9195.13320
 589.20; 9061.533;  -41.000;    0.000;9102.53320
 589.48; 9052.667;  -30.800;    0.000;9083.46699
 589.76; 9039.467;   -9.667;    0.000;9049.13346
 590.03; 8913.733;  -39.800;    0.000;8953.53340
 590.31; 8859.400;  -41.400;    0.000;8900.80039
 590.59; 8867.267;  -38.467;    0.000;8905.73327
 590.86; 8784.467;  -34.067;    0.000;8818.53346
 591.14; 8696.066;  -62.400;    0.000;8758.46641
 591.42; 8611.134;  -60.200;    0.000;8671.33379
 591.70; 8620.467;  -55.400;    0.000;8675.86680
 591.97; 8622.200;  -46.600;    0.000;8668.80019
 592.25; 8558.267;  -38.400;    0.000;8596.66660
 592.53; 8516.134;  -30.467;    0.000;8546.60046
 592.80; 8357.467;  -42.533;    0.000;8400.00013
 593.08; 8299.733;  -36.933;    0.000;8336.66673
 593.36; 8334.066;   -5.267;    0.000;8339.33307
 593.63; 8245.667;  -32.933;    0.000;8278.60033
 593.91; 8176.000;  -47.467;    0.000;8223.46667
 594.18; 8134.400;  -29.667;    0.000;8164.06657
 594.46; 8086.067;  -50.333;    0.000;8136.40023
 594.74; 8000.933;  -54.667;    0.000;8055.59977
 595.01; 7895.733;  -70.800;    0.000;7966.53340
 595.29; 7939.533;  -78.067;    0.000;8017.59987
 595.57; 7828.600;  -29.000;    0.000;7857.60010
 595.84; 7736.000;  -48.867;    0.000;7784.86666
 596.12; 7687.533;  -46.267;    0.000;7733.79987
 596.40; 7630.333;  -65.200;    0.000;7695.53349
 596.67; 7605.933;  -68.267;    0.000;7674.19978
 596.95; 7595.933;  -41.667;    0.000;7637.59977
 597.22; 7487.333;  -55.267;    0.000;7542.60016
 597.50; 7506.533;  -26.067;    0.000;7532.59987
 597.78; 7464.533;  -53.067;    0.000;7517.59987
 598.05; 7345.200;  -44.933;    0.000;7390.13353
 598.33; 7352.600;  -52.867;    0.000;7405.46676
 598.61; 7179.533;  -48.333;    0.000;7227.86654
 598.88; 7275.667;  -42.200;    0.000;7317.86650
 599.16; 7147.600;  -51.133;    0.000;7198.73343
 599.43; 7098.867;  -70.800;    0.000;7169.66670
 599.71; 7076.733;  -55.933;    0.000;7132.66673
 599.99; 6956.800;  -58.400;    0.000;7015.19981
 600.26; 6958.733;  -53.400;    0.000;7012.13340
 600.54; 6865.733;  -34.467;    0.000;6900.20007
 600.81; 6855.467;  -35.000;    0.000;6890.46680
 601.09; 6807.867;  -41.400;    0.000;6849.26670
 601.36; 6722.933;  -49.267;    0.000;6772.19977
 601.64; 6746.067;  -43.800;    0.000;6789.86689
 601.92; 6643.333;  -37.467;    0.000;6680.80016
 602.19; 6558.533;  -64.600;    0.000;6623.13320
 602.47; 6508.800;  -65.467;    0.000;6574.26647
 602.74; 6484.067;  -45.667;    0.000;6529.73356
 603.02; 6506.667;  -29.200;    0.000;6535.86650
 603.29; 6431.533;  -35.800;    0.000;6467.33320
 603.57; 6387.400;  -62.533;    0.000;6449.93324
 603.85; 6320.467;  -53.267;    0.000;6373.73346
 604.12; 6279.467;  -18.000;    0.000;6297.46680
 604.40; 6245.000;  -52.800;    0.000;6297.80000
 604.67; 6185.533;  -37.600;    0.000;6223.13320
 604.95; 6158.600;  -59.400;    0.000;6218.00010
 605.22; 6077.800;  -48.333;    0.000;6126.13314
 605.50; 6095.867;  -40.467;    0.000;6136.33337
 605.77; 6059.467;  -26.200;    0.000;6085.66680
 606.05; 5983.867;  -56.600;    0.000;6040.46670
 606.33; 6008.800;  -41.333;    0.000;6050.13314
 606.60; 5941.800;  -52.533;    0.000;5994.33314
 606.88; 5897.333;  -26.400;    0.000;5923.73350
 607.15; 5811.267;  -44.933;    0.000;5856.19994
 607.43; 5813.333;  -33.267;    0.000;5846.60016
 607.70; 5745.933;  -34.133;    0.000;5780.06644
 607.98; 5701.333;  -55.200;    0.000;5756.53350
 608.25; 5663.200;  -67.333;    0.000;5730.53353
 608.53; 5667.667;  -55.200;    0.000;5722.86650
 608.80; 5569.400;  -67.400;    0.000;5636.79990
 609.08; 5549.600;  -55.600;    0.000;5605.20010
 609.35; 5536.867;  -59.400;    0.000;5596.26670
 609.63; 5493.067;  -62.667;    0.000;5555.73356
 609.90; 5575.267;  -63.133;    0.000;5638.39994
 610.18; 5373.000;  -27.600;    0.000;5400.60000
 610.45; 5398.267;  -59.733;    0.000;5457.99994
 610.73; 5351.067;  -53.200;    0.000;5404.26690
 611.00; 5359.533;  -17.533;    0.000;5377.06654
 611.28; 5332.533;  -49.733;    0.000;5382.26654
 611.55; 5232.600;  -72.867;    0.000;5305.46677
 611.83; 5172.467;  -50.467;    0.000;5222.93346
 612.10; 5119.667;  -58.000;    0.000;5177.66650
 612.38; 5160.000;  -39.333;    0.000;5199.33333
 612.65; 5143.933;  -44.467;    0.000;5188.39977
 612.93; 5112.533;  -65.867;    0.000;5178.39987
 613.20; 5051.667;  -41.600;    0.000;5093.26650
 613.48; 5054.067;  -60.267;    0.000;5114.33356
 613.75; 5051.800;  -78.933;    0.000;5130.73314
 614.03; 5014.467;  -53.400;    0.000;5067.86680
 614.30; 4915.867;  -75.000;    0.000;4990.86670
 614.57; 4900.667;  -69.800;    0.000;4970.46651
 614.85; 4964.867;  -60.333;    0.000;5025.20003
 615.12; 4860.933;  -51.133;    0.000;4912.06644
 615.40; 4866.667;  -61.267;    0.000;4927.93317
 615.67; 4799.400;  -51.467;    0.000;4850.86657
 615.95; 4801.000;  -53.800;    0.000;4854.80000
 616.22; 4767.333;  -55.467;    0.000;4822.80016
 616.50; 4783.200;  -45.333;    0.000;4828.53353
 616.77; 4702.733;  -50.933;    0.000;4753.66673
 617.05; 4695.467;  -51.133;    0.000;4746.60013
 617.32; 4598.667;  -51.400;    0.000;4650.06651
 617.59; 4581.400;  -59.800;    0.000;4641.19990
 617.87; 4529.200;  -62.333;    0.000;4591.53353
 618.14; 4470.467;  -73.733;    0.000;4544.20013
 618.42; 4446.200;  -44.267;    0.000;4490.46686
 618.69; 4377.067;  -71.333;    0.000;4448.40023
 618.97; 4383.267;  -62.467;    0.000;4445.73327
 619.24; 4402.333;  -49.600;    0.000;4451.93349
 619.51; 4227.867;  -49.867;    0.000;4277.73336
 619.79; 4199.000;  -53.333;    0.000;4252.33333
 620.06; 4164.000;  -56.000;    0.000;4220.00000
 620.34; 4056.200;  -87.400;    0.000;4143.59995
 620.61; 3991.667;  -41.733;    0.000;4033.40008
 620.88; 4004.133;  -47.200;    0.000;4051.33330
 621.16; 4082.667;  -43.000;    0.000;4125.66675
 621.43; 4136.133;  -65.333;    0.000;4201.46664
 621.71; 4023.600;  -59.200;    0.000;4082.80010
 621.98; 4017.267;  -37.333;    0.000;4054.59993
 622.25; 3927.733;  -50.533;    0.000;3978.26673
 622.53; 3976.467;  -53.733;    0.000;4030.19989
 622.80; 3915.067;  -47.733;    0.000;3962.79998
 623.08; 3939.333;  -65.533;    0.000;4004.86658
 623.35; 3893.067;  -57.600;    0.000;3950.66665
 623.62; 3818.400;  -59.933;    0.000;3878.33324
 623.90; 3824.533;  -60.600;    0.000;3885.13345
 624.17; 3806.733;  -44.600;    0.000;3851.33340
 624.44; 3754.133;  -54.533;    0.000;3808.66663
 624.72; 3738.000;  -41.267;    0.000;3779.26667
 624.99; 3719.467;  -62.933;    0.000;3782.39989
 625.26; 3770.800;  -68.533;    0.000;3839.33338
 625.54; 3795.333;  -41.400;    0.000;3836.73325
 625.81; 3704.000;  -68.467;    0.000;3772.46667
 626.09; 3738.200;  -37.267;    0.000;3775.46662
 626.36; 3711.133;  -57.667;    0.000;3768.79997
 626.63; 3679.600;  -36.733;    0.000;3716.33343
 626.91; 3641.333;  -73.333;    0.000;3714.66659
 627.18; 3647.800;  -41.133;    0.000;3688.93338
 627.45; 3579.933;  -64.800;    0.000;3644.73335
 627.73; 3596.800;  -59.400;    0.000;3656.20005
 628.00; 3639.267;  -82.733;    0.000;3721.99993
 628.27; 3661.867;  -17.933;    0.000;3679.80003
 628.55; 3545.533;  -58.533;    0.000;3604.06678
 628.82; 3566.600;  -66.200;    0.000;3632.80009
 629.09; 3555.600;  -32.067;    0.000;3587.66676
 629.37; 3554.467;  -47.133;    0.000;3601.59989
 629.64; 3442.933;  -55.800;    0.000;3498.73335
 629.91; 3503.200;  -51.533;    0.000;3554.73328
 630.18; 3446.467;  -85.400;    0.000;3531.86655
 630.46; 3428.800;  -34.267;    0.000;3463.06672
 630.73; 3414.667;  -46.133;    0.000;3460.80008
 631.00; 3480.067;  -42.933;    0.000;3522.99998
 631.28; 3404.133;  -81.200;    0.000;3485.33330
 631.55; 3389.200;  -47.667;    0.000;3436.86662
 631.82; 3408.000;  -54.600;    0.000;3462.60000
 632.10; 3402.600;  -33.067;    0.000;3435.66676
 632.37; 3412.733;  -52.667;    0.000;3465.40007
 632.64; 3362.133;  -46.600;    0.000;3408.73330
 632.91; 3358.333;  -65.267;    0.000;3423.59992
 633.19; 3322.267;  -54.867;    0.000;3377.13327
 633.46; 3299.267;  -73.000;    0.000;3372.26660
 633.73; 3314.000;  -27.467;    0.000;3341.46667
 634.01; 3347.600;  -50.000;    0.000;3397.60010
 634.28; 3361.667;  -46.267;    0.000;3407.93341
 634.55; 3310.467;  -34.067;    0.000;3344.53322
 634.82; 3342.400;  -53.400;    0.000;3395.79990
 635.10; 3380.533;  -46.400;    0.000;3426.93345
 635.37; 3298.933;  -51.600;    0.000;3350.53335
 635.64; 3305.000;  -63.600;    0.000;3368.60000
 635.91; 3365.333;  -58.600;    0.000;3423.93325
 636.19; 3360.533;  -65.733;    0.000;3426.26678
 636.46; 3282.800;  -37.867;    0.000;3320.66671
 636.73; 3330.133;  -40.067;    0.000;3370.19997
 637.00; 3346.400;  -34.800;    0.000;3381.19990
 637.28; 3333.467;  -66.933;    0.000;3400.39989
 637.55; 3407.467;  -12.933;    0.000;3420.39989
 637.82; 3311.800;  -57.800;    0.000;3369.60005
 638.09; 3275.267;  -28.600;    0.000;3303.86660
 638.37; 3211.400;  -76.200;    0.000;3287.59990
 638.64; 3178.667;  -55.933;    0.000;3234.60008
 638.91; 3167.600;  -70.200;    0.000;3237.80009
 639.18; 3192.733;  -43.867;    0.000;3236.60006
 639.46; 3133.400;  -80.267;    0.000;3213.66657
 639.73; 3086.467;  -35.467;    0.000;3121.93322
 640.00; 3098.667;  -69.667;    0.000;3168.33341
 640.27; 3010.933;  -72.933;    0.000;3083.86668
 640.54; 3112.467;  -59.533;    0.000;3171.99989
 640.82; 3064.667;  -46.400;    0.000;3111.06675
 641.09; 2994.867;  -62.400;    0.000;3057.26670
 641.36; 3011.133;  -54.133;    0.000;3065.26664
 641.63; 2971.267;  -54.733;    0.000;3025.99994
 641.91; 2911.333;  -58.000;    0.000;2969.33325
 642.18; 2847.467;  -68.533;    0.000;2915.99989
 642.45; 2814.733;  -47.267;    0.000;2862.00006
 642.72; 2828.267;  -74.133;    0.000;2902.39993
 642.99; 2799.600;  -27.000;    0.000;2826.60010
 643.26; 2727.867;  -45.067;    0.000;2772.93336
 643.54; 2801.067;  -34.133;    0.000;2835.19999
 643.81; 2701.267;  -69.267;    0.000;2770.53327
 644.08; 2719.533;  -46.133;    0.000;2765.66678
 644.35; 2643.133;  -49.400;    0.000;2692.53330
 644.62; 2614.867;  -53.400;    0.000;2668.26670
 644.90; 2620.067;  -52.400;    0.000;2672.46665
 645.17; 2609.467;  -53.867;    0.000;2663.33322
 645.44; 2587.267;  -70.333;    0.000;2657.59994
 645.71; 2580.867;  -62.133;    0.000;2643.00003
 645.98; 2560.333;  -74.600;    0.000;2634.93325
 646.25; 2597.667;  -54.867;    0.000;2652.53341
 646.53; 2517.067;  -59.667;    0.000;2576.73332
 646.80; 2459.600;  -51.867;    0.000;2511.46676
 647.07; 2501.400;  -77.333;    0.000;2578.73324
 647.34; 2506.267;  -48.533;    0.000;2554.79993
 647.61; 2433.400;  -62.600;    0.000;2495.99990
 647.88; 2486.333;  -28.600;    0.000;2514.93325
 648.15; 2423.933;  -51.867;    0.000;2475.80001
 648.43; 2438.533;  -46.600;    0.000;2485.13345
 648.70; 2385.067;  -62.933;    0.000;2447.99998
 648.97; 2408.400;  -59.867;    0.000;2468.26657
 649.24; 2404.200;  -50.333;    0.000;2454.53328
 649.51; 2284.000;  -58.600;    0.000;2342.60000
 649.78; 2307.267;  -79.467;    0.000;2386.73327
 650.05; 2319.667;  -45.667;    0.000;2365.33342
 650.32; 2425.533;   32.333;    0.000;2393.20012
 650.60; 2322.667;  -51.000;    0.000;2373.66675
 650.87; 2311.067;  -53.600;    0.000;2364.66665
 651.14; 2287.400;  -50.267;    0.000;2337.66657
 651.41; 2262.267;  -72.133;    0.000;2334.39993
 651.68; 2283.200;  -51.533;    0.000;2334.73328
 651.95; 2244.867;  -41.667;    0.000;2286.53337
 652.22; 2178.667;  -63.267;    0.000;2241.93341
 652.49; 2168.200;  -82.200;    0.000;2250.39995
 652.76; 2127.000;  -69.467;    0.000;2196.46667
 653.03; 2171.067;  -47.533;    0.000;2218.59998
 653.31; 2172.133;  -66.000;    0.000;2238.13330
 653.58; 2112.867;  -66.867;    0.000;2179.73337
 653.85; 2111.600;  -45.467;    0.000;2157.06676
 654.12; 2146.733;  -53.867;    0.000;2200.60006
 654.39; 2181.133;  -11.267;    0.000;2192.39997
 654.66; 2049.000;  -27.933;    0.000;2076.93333
 654.93; 2099.933;  -35.000;    0.000;2134.93335
 655.20; 2001.133;  -72.133;    0.000;2073.26663
 655.47; 2032.133;  -56.400;    0.000;2088.53330
 655.74; 2009.667;  -55.067;    0.000;2064.73329
 656.01; 1989.200;  -63.400;    0.000;2052.59995
 656.28; 1967.667;  -65.600;    0.000;2033.26662
 656.55; 1968.333;  -38.400;    0.000;2006.73338
 656.83; 1956.867;  -59.667;    0.000;2016.53337
 657.10; 1928.533;  -66.400;    0.000;1994.93333
 657.37; 1924.267;  -63.667;    0.000;1987.93339
 657.64; 1923.600;  -59.200;    0.000;1982.79998
 657.91; 1907.467;  -67.267;    0.000;1974.73335
 658.18; 1872.933;  -39.333;    0.000;1912.26668
 658.45; 1849.400;  -72.267;    0.000;1921.66669
 658.72; 1892.667;  -56.667;    0.000;1949.33329
 658.99; 1879.733;  -68.667;    0.000;1948.39994
 659.26; 1880.333;  -30.667;    0.000;1911.00004
 659.53; 1859.600;  -77.000;    0.000;1936.59998
 659.80; 1815.600;  -52.933;    0.000;1868.53331
 660.07; 1822.333;  -41.200;    0.000;1863.53337
 660.34; 1784.533;  -61.800;    0.000;1846.33332
 660.61; 1755.533;  -98.733;    0.000;1854.26665
 660.88; 1775.600;  -64.933;    0.000;1840.53331
 661.15; 1782.667;  -51.267;    0.000;1833.93329
 661.42; 1730.867;  -49.867;    0.000;1780.73336
 661.69; 1740.933;  -61.667;    0.000;1802.60002
 661.96; 1710.867;  -83.733;    0.000;1794.60003
 662.23; 1745.133;  -59.333;    0.000;1804.46663
 662.50; 1690.400;  -62.067;    0.000;1752.46669
 662.77; 1698.733;  -59.867;    0.000;1758.59994
 663.04; 1699.133;  -50.867;    0.000;1749.99997
 663.31; 1677.800;  -58.733;    0.000;1736.53338
 663.58; 1701.267;  -42.933;    0.000;1744.20006
 663.85; 1643.467;  -64.067;    0.000;1707.53334
 664.12; 1646.400;  -64.533;    0.000;1710.93336
 664.39; 1614.067;  -67.467;    0.000;1681.53332
 664.66; 1566.933;  -67.067;    0.000;1634.00002
 664.93; 1548.933;  -71.200;    0.000;1620.13335
 665.20; 1591.333;  -63.000;    0.000;1654.33337
 665.47; 1557.467;  -63.267;    0.000;1620.73334
 665.74; 1548.400;  -74.467;    0.000;1622.86669
 666.01; 1558.400;  -48.400;    0.000;1606.80003
 666.28; 1565.067;  -75.400;    0.000;1640.46665
 666.55; 1528.733;  -57.533;    0.000;1586.26661
 666.82; 1470.333;  -60.733;    0.000;1531.06671
 667.09; 1568.533;  -50.533;    0.000;1619.06666
 667.36; 1496.400;  -58.133;    0.000;1554.53336
 667.63; 1502.533;  -61.800;    0.000;1564.33332
 667.90; 1466.333;  -67.200;    0.000;1533.53337
 668.16; 1442.133;  -66.933;    0.000;1509.06664
 668.43; 1448.933;  -79.267;    0.000;1528.20002
 668.70; 1425.333;  -54.533;    0.000;1479.86671
 668.97; 1436.000;  -59.200;    0.000;1495.20000
 669.24; 1438.200;  -54.533;    0.000;1492.73328
 669.51; 1436.933;  -63.000;    0.000;1499.93335
 669.78; 1379.667;  -76.667;    0.000;1456.33329
 670.05; 1365.400;  -59.867;    0.000;1425.26669
 670.32; 1371.467;  -57.600;    0.000;1429.06667
 670.59; 1351.333;  -57.467;    0.000;1408.80004
 670.86; 1336.933;  -66.800;    0.000;1403.73335
 671.13; 1363.133;  -42.667;    0.000;1405.79997
 671.40; 1356.400;  -58.600;    0.000;1415.00002
 671.67; 1367.067;  -40.933;    0.000;1407.99998
 671.93; 1306.667;  -73.267;    0.000;1379.93330
 672.20; 1250.267;  -68.333;    0.000;1318.60006
 672.47; 1292.200;  -77.467;    0.000;1369.66662
 672.74; 1270.600;  -54.000;    0.000;1324.59998
 673.01; 1262.800;  -70.733;    0.000;1333.53338
 673.28; 1265.000;  -42.267;    0.000;1307.26667
 673.55; 1253.133;  -73.333;    0.000;1326.46664
 673.82; 1240.067;  -56.333;    0.000;1296.39998
 674.09; 1274.800;  -72.267;    0.000;1347.06672
 674.35; 1226.533;  -69.267;    0.000;1295.80000
 674.62; 1205.400;  -61.733;    0.000;1267.13336
 674.89; 1222.933;  -61.667;    0.000;1284.60002
 675.16; 1171.800;  -70.200;    0.000;1242.00005
 675.43; 1190.400;  -56.000;    0.000;1246.40002
 675.70; 1185.400;  -36.533;    0.000;1221.93336
 675.97; 1201.333;  -46.333;    0.000;1247.66671
 676.24; 1166.800;  -55.400;    0.000;1222.20005
 676.50; 1154.600;  -56.333;    0.000;1210.93331
 676.77; 1122.867;  -72.533;    0.000;1195.40003
 677.04; 1179.667;  -54.600;    0.000;1234.26662
 677.31; 1128.933;  -70.200;    0.000;1199.13335
 677.58; 1088.267;  -58.200;    0.000;1146.46672
 677.85; 1119.133;  -39.133;    0.000;1158.26664
 678.12; 1129.333;  -53.667;    0.000;1183.00004
 678.38; 1093.933;  -52.000;    0.000;1145.93335
 678.65; 1095.400;  -69.867;    0.000;1165.26669
 678.92; 1056.133;  -71.733;    0.000;1127.86663
 679.19; 1072.133;  -30.733;    0.000;1102.86663
 679.46; 1037.067;  -61.733;    0.000;1098.79998
 679.73; 1072.733;  -60.200;    0.000;1132.93328
 679.99; 1043.400;  -86.000;    0.000;1129.40002
 680.26; 1059.000;  -83.867;    0.000;1142.86667
 680.53;  989.333;  -75.933;    0.000;1065.26665
 680.80; 1021.333;  -65.733;    0.000;1087.06664
 681.07; 1011.133;  -67.733;    0.000;1078.86669
 681.33; 1014.600;  -55.133;    0.000;1069.73331
 681.60;  983.533;  -77.933;    0.000;1061.46666
 681.87;  968.200;  -65.800;    0.000;1034.00002
 682.14;  988.800;  -46.067;    0.000;1034.86665
 682.41;  948.267;  -70.933;    0.000;1019.20000
 682.67;  938.867;  -45.667;    0.000;984.53331
 682.94;  915.400;  -70.467;    0.000;985.86669
 683.21;  939.000;  -76.133;    0.000;1015.13333
 683.48;  973.133;  -50.933;    0.000;1024.06670
 683.75;  958.400;  -58.000;    0.000;1016.40002
 684.01;  954.400;  -51.933;    0.000;1006.33336
 684.28;  882.333;  -66.333;    0.000;948.66665
 684.55;  911.067;  -56.933;    0.000;967.99998
 684.82;  884.800;  -82.467;    0.000;967.26665
 685.09;  893.933;  -49.467;    0.000;943.40002
 685.35;  901.800;  -43.467;    0.000;945.26665
 685.62;  870.733;  -42.400;    0.000;913.13334
 685.89;  888.067;  -37.800;    0.000;925.86665
 686.16;  863.667;  -66.600;    0.000;930.26669
 686.42;  844.733;  -71.600;    0.000;916.33334
 686.69;  855.133;  -41.267;    0.000;896.40003
 686.96;  822.400;  -73.200;    0.000;895.60002
 687.23;  844.867;  -39.400;    0.000;884.26664
 687.49;  838.333;  -25.133;    0.000;863.46665
 687.76;  833.467;  -63.333;    0.000;896.80001
 688.03;  794.467;  -57.067;    0.000;851.53334
 688.30;  787.667;  -74.933;    0.000;862.60002
 688.56;  812.000;  -71.733;    0.000;883.73333
 688.83;  785.533;  -87.133;    0.000;872.66666
 689.10;  774.867;  -55.733;    0.000;830.59997
 689.37;  761.067;  -77.600;    0.000;838.66665
 689.63;  767.267;  -54.467;    0.000;821.73333
 689.90;  779.400;  -52.933;    0.000;832.33336
 690.17;  768.533;  -75.000;    0.000;843.53333
 690.44;  728.800;  -54.600;    0.000;783.39999
 690.70;  744.533;  -74.000;    0.000;818.53333
 690.97;  748.267;  -50.933;    0.000;799.20000
 691.24;  742.067;  -40.400;    0.000;782.46665
 691.50;  693.800;  -78.133;    0.000;771.93332
 691.77;  712.800;  -73.533;    0.000;786.33332
 692.04;  698.933;  -61.467;    0.000;760.40002
 692.30;  661.600;  -73.067;    0.000;734.66664
 692.57;  699.200;  -51.267;    0.000;750.46668
 692.84;  674.200;  -84.467;    0.000;758.66668
 693.11;  672.133;  -51.333;    0.000;723.46669
 693.37;  663.867;  -71.600;    0.000;735.46664
 693.64;  652.800;  -66.067;    0.000;718.86665
 693.91;  673.867;  -65.400;    0.000;739.26664
 694.17;  668.000;  -65.733;    0.000;733.73333
 694.44;  653.600;  -82.000;    0.000;735.59998
 694.71;  619.867;  -52.800;    0.000;672.66664
 694.97;  639.333;  -62.800;    0.000;702.13331
 695.24;  591.200;  -71.267;    0.000;662.46668
 695.51;  574.133;  -92.533;    0.000;666.66669
 695.77;  589.200;  -50.733;    0.000;639.93335
 696.04;  589.600;  -73.267;    0.000;662.86665
 696.31;  599.533;  -64.733;    0.000;664.26665
 696.57;  619.667;  -50.000;    0.000;669.66669
 696.84;  569.067;  -58.133;    0.000;627.19999
 697.11;  569.933;  -55.267;    0.000;625.20002
 697.37;  586.200;  -35.533;    0.000;621.73335
 697.64;  579.600;  -76.600;    0.000;656.19997
 697.91;  532.467;  -59.133;    0.000;591.60001
 698.17;  515.667;  -75.200;    0.000;590.86668
 698.44;  548.000;  -48.733;    0.000;596.73333
 698.71;  545.133;  -63.933;    0.000;609.06670
 698.97;  501.733;  -57.000;    0.000;558.73334
 699.24;  534.133;  -51.667;    0.000;585.80003
 699.50;  500.200;  -52.467;    0.000;552.66668
 699.77;  559.200;  -41.133;    0.000;600.33335
 700.04;  479.200;  -64.333;    0.000;543.53335
 700.30;  497.200;  -73.133;    0.000;570.33334
 700.57;  446.400;  -63.333;    0.000;509.73333
 700.84;  474.800;  -63.467;    0.000;538.26665
 701.10;  429.733;  -65.867;    0.000;495.60001
 701.37;  442.800;  -75.867;    0.000;518.66666
 701.63;  443.600;  -76.933;    0.000;520.53334
 701.90;  438.267;  -58.667;    0.000;496.93333
 702.17;  446.467;  -34.933;    0.000;481.40001
 702.43;  415.400;  -70.067;    0.000;485.46666
 702.70;  466.800;  -16.800;    0.000;483.59999
 702.96;  402.933;  -62.267;    0.000;465.19999
 703.23;  406.133;  -67.867;    0.000;474.00000
 703.50;  402.000;  -74.200;    0.000;476.20000
 703.76;  390.133;  -68.333;    0.000;458.46667
 704.03;  410.533;  -57.267;    0.000;467.79999
 704.29;  397.333;  -51.267;    0.000;448.60001
 704.56;  369.200;  -65.867;    0.000;435.06668
 704.82;  390.200;  -56.267;    0.000;446.46668
 705.09;  363.067;  -57.733;    0.000;420.80001
 705.36;  333.200;  -86.867;    0.000;420.06668
 705.62;  379.733;  -30.000;    0.000;409.73334
 705.89;  328.400;  -58.600;    0.000;386.99999
 706.15;  355.400;  -80.667;    0.000;436.06666
 706.42;  322.933;  -44.000;    0.000;366.93332
 706.68;  314.400;  -79.667;    0.000;394.06666
 706.95;  306.533;  -40.800;    0.000;347.33332
 707.21;  296.667;  -89.600;    0.000;386.26665
 707.48;  339.467;  -62.333;    0.000;401.80001
 707.75;  294.533;  -64.267;    0.000;358.80000
 708.01;  314.200;  -70.867;    0.000;385.06668
 708.28;  311.933;  -63.800;    0.000;375.73332
 708.54;  296.000;  -54.600;    0.000;350.60000
 708.81;  293.267;  -42.000;    0.000;335.26666
 709.07;  260.600;  -64.000;    0.000;324.60001
 709.34;  255.200;  -80.467;    0.000;335.66666
 709.60;  245.733;  -74.000;    0.000;319.73334
 709.87;  292.533;  -42.733;    0.000;335.26666
 710.13;  252.400;  -78.600;    0.000;330.99999
 710.40;  248.267;  -88.600;    0.000;336.86666
 710.66;  246.867;  -68.533;    0.000;315.40000
 710.93;  243.200;  -68.467;    0.000;311.66666
 711.19;  212.133;  -68.667;    0.000;280.80000
 711.46;  263.667;  -57.333;    0.000;320.99999
 711.72;  259.200;  -60.533;    0.000;319.73335
 711.99;  242.867;  -64.333;    0.000;307.20000
 712.25;  236.533;  -40.867;    0.000;277.40001
 712.52;  228.133;  -65.467;    0.000;293.60000
 712.78;  240.600;  -58.067;    0.000;298.66667
 713.05;  201.200;  -70.400;    0.000;271.60000
 713.31;  224.400;  -74.867;    0.000;299.26666
 713.58;  206.400;  -63.200;    0.000;269.59999
 713.84;  208.333;  -56.933;    0.000;265.26666
 714.11;  209.933;  -61.600;    0.000;271.53333
 714.37;  229.200;  -37.200;    0.000;266.40000
 714.64;  226.400;  -62.467;    0.000;288.86666
 714.90;  204.667;  -48.000;    0.000;252.66667
 715.17;  190.933;  -73.333;    0.000;264.26667
 715.43;  203.667;  -57.000;    0.000;260.66667
 715.70;  189.267;  -75.133;    0.000;264.39999
 715.96;  192.133;  -66.733;    0.000;258.86666
 716.22;  189.467;  -68.733;    0.000;258.19999
 716.49;  213.133;  -86.533;    0.000;299.66666
 716.75;  192.933;  -93.600;    0.000;286.53333
 717.02;  194.800;  -68.267;    0.000;263.06667
 717.28;  182.800;  -84.933;    0.000;267.73334
 717.55;  194.800;  -80.267;    0.000;275.06667
 717.81;  181.000;  -59.400;    0.000;240.40000
 718.08;  174.067;  -56.133;    0.000;230.20000
 718.34;  190.267;  -85.333;    0.000;275.60000
 718.60;  188.933;  -55.400;    0.000;244.33334
 718.87;  175.467;  -56.600;    0.000;232.06666
 719.13;  179.333;  -68.400;    0.000;247.73333
 719.40;  180.733;  -73.933;    0.000;254.66667
 719.66;  185.400;  -79.400;    0.000;264.80000
 719.93;  182.733;  -54.600;    0.000;237.33334
 720.19;  169.733;  -66.733;    0.000;236.46667
 720.45;  181.667;  -73.800;    0.000;255.46667
 720.72;  180.333;  -67.933;    0.000;248.26666
 720.98;  172.000;  -63.600;    0.000;235.60000
 721.25;  161.533;  -65.133;    0.000;226.66667
 721.51;  149.267;  -76.600;    0.000;225.86666
 721.77;  168.667;  -57.200;    0.000;225.86667
 722.04;  188.467;  -63.600;    0.000;252.06666
 722.30;  162.133;  -46.667;    0.000;208.80000
 722.57;  177.067;  -76.467;    0.000;253.53333
 722.83;  161.733;  -56.667;    0.000;218.40001
 723.09;  167.133;  -77.467;    0.000;244.60000
 723.36;  168.800;  -70.600;    0.000;239.40000
 723.62;  165.000;  -57.267;    0.000;222.26667
 723.88;  173.800;  -44.467;    0.000;218.26667
 724.15;  173.467;  -60.667;    0.000;234.13333
 724.41;  135.400;  -84.067;    0.000;219.46666
 724.68;  162.200;  -74.867;    0.000;237.06667
 724.94;  181.733;  -63.133;    0.000;244.86667
 725.20;  166.600;  -84.933;    0.000;251.53334
 725.47;  157.000;  -66.867;    0.000;223.86667
 725.73;  145.533;  -87.800;    0.000;233.33334
 725.99;  143.133;  -77.667;    0.000;220.80000
 726.26;  174.800;  -81.333;    0.000;256.13334
 726.52;  168.400;  -58.867;    0.000;227.26666
 726.78;  133.333;  -64.600;    0.000;197.93333
 727.05;  160.667;  -32.600;    0.000;193.26667
 727.31;  133.200;  -79.600;    0.000;212.80000
 727.57;  165.600;  -67.267;    0.000;232.86668
 727.84;  160.933;  -56.733;    0.000;217.66667
 728.10;  144.867;  -64.267;    0.000;209.13334
 728.36;  169.600;  -57.667;    0.000;227.26667
 728.63;  160.867;  -59.533;    0.000;220.40000
 728.89;  159.000;  -82.267;    0.000;241.26667
 729.15;  167.200;  -65.000;    0.000;232.20000
 729.42;  127.800;  -74.333;    0.000;202.13334
 729.68;  148.800;  -58.800;    0.000;207.60000
 729.94;  122.933;  -90.333;    0.000;213.26667
 730.21;  148.400;  -77.133;    0.000;225.53333
 730.47;  173.467;  -73.333;    0.000;246.80000
 730.73;  139.333;  -62.533;    0.000;201.86666
 731.00;  133.867;  -55.533;    0.000;189.40000
 731.26;  136.800;  -72.600;    0.000;209.40000
 731.52;  116.467;  -72.400;    0.000;188.86667
 731.78;  128.000;  -66.267;    0.000;194.26667
 732.05;   99.133;  -89.533;    0.000;188.66666
 732.31;  134.467;  -55.267;    0.000;189.73333
 732.57;  124.733;  -71.867;    0.000;196.60000
 732.84;  118.000;  -67.067;    0.000;185.06667
 733.10;  137.333;  -81.133;    0.000;218.46666
 733.36;  149.867;  -69.667;    0.000;219.53333
 733.62;  124.267;  -72.267;    0.000;196.53334
 733.89;  135.800;  -79.000;    0.000;214.80000
 734.15;  119.467;  -77.333;    0.000;196.80000
 734.41;  127.267;  -49.667;    0.000;176.93334
 734.67;  123.733;  -76.000;    0.000;199.73333
 734.94;  116.933;  -69.667;    0.000;186.60000
 735.20;  114.533;  -68.133;    0.000;182.66666
 735.46;  125.267;  -52.467;    0.000;177.73334
 735.73;  127.867;  -63.200;    0.000;191.06667
 735.99;  122.200;  -72.733;    0.000;194.93333
 736.25;  112.000;  -84.267;    0.000;196.26667
 736.51;  123.200;  -50.800;    0.000;174.00000
 736.77;  119.600;  -74.133;    0.000;193.73333
 737.04;  122.133;  -60.667;    0.000;182.80000
 737.30;  108.067;  -76.933;    0.000;185.00000
 737.56;  123.867;  -34.267;    0.000;158.13334
 737.82;   95.400;  -91.600;    0.000;187.00000
 738.09;  115.200;  -65.733;    0.000;180.93333
 738.35;  106.200;  -81.067;    0.000;187.26666
 738.61;  122.333;  -51.333;    0.000;173.66667
 738.87;  101.667;  -72.667;    0.000;174.33333
 739.14;   90.733;  -60.533;    0.000;151.26666
 739.40;   86.000; -110.533;    0.000;196.53333
 739.66;  111.133;  -47.267;    0.000;158.40000
 739.92;   76.933;  -73.267;    0.000;150.20000
 740.18;   85.133;  -62.000;    0.000;147.13333
 740.45;   99.000;  -93.133;    0.000;192.13333
 740.71;  101.733;  -51.200;    0.000;152.93333
 740.97;   92.333;  -59.667;    0.000;152.00000
 741.23;   60.467;  -66.533;    0.000;127.00000
 741.49;   80.667;  -82.600;    0.000;163.26666
 741.76;   77.267;  -60.000;    0.000;137.26667
 742.02;   82.200;  -94.333;    0.000;176.53333
 742.28;   76.933;  -60.733;    0.000;137.66667
 742.54;   82.333;  -77.400;    0.000;159.73334
 742.80;   76.133;  -62.600;    0.000;138.73333
 743.06;   98.733;  -66.800;    0.000;165.53333
 743.33;   86.533;  -54.600;    0.000;141.13333
 743.59;   65.667;  -94.400;    0.000;160.06667
 743.85;   77.267;  -65.000;    0.000;142.26667
 744.11;   63.267;  -79.333;    0.000;142.60000
 744.37;   75.200;  -56.600;    0.000;131.80000
 744.63;   82.733;  -84.267;    0.000;167.00000
 744.90;   69.333;  -70.467;    0.000;139.80000
 745.16;   67.933;  -77.467;    0.000;145.40000
 745.42;   81.867;  -53.200;    0.000;135.06667
 745.68;   60.333;  -69.667;    0.000;130.00000
 745.94;   81.933;  -41.400;    0.000;123.33334
 746.20;   81.600;  -76.933;    0.000;158.53333
 746.46;   92.533;  -45.467;    0.000;138.00000
 746.72;   85.067;  -64.067;    0.000;149.13333
 746.99;   61.200;  -60.933;    0.000;122.13334
 747.25;   82.400;  -51.133;    0.000;133.53334
 747.51;   72.000;  -68.667;    0.000;140.66666
 747.77;   72.267;  -70.333;    0.000;142.60001
 748.03;   35.200;  -82.333;    0.000;117.53334
 748.29;   55.600;  -76.867;    0.000;132.46667
 748.55;   49.400;  -69.800;    0.000;119.20000
 748.81;   46.867;  -76.733;    0.000;123.59999
 749.08;   42.467;  -46.333;    0.000;88.80000
 749.34;   35.533;  -55.800;    0.000;91.33333
 749.60;   72.400;  -54.667;    0.000;127.06667
 749.86;   64.067;  -66.467;    0.000;130.53333
 750.12;   51.933;  -68.533;    0.000;120.46667
 750.38;   61.333;  -82.333;    0.000;143.66667
 750.64;   41.000;  -60.133;    0.000;101.13334
 750.90;   61.267;  -52.200;    0.000;113.46667
 751.16;   38.867;  -79.933;    0.000;118.80000
 751.42;   49.133;  -69.600;    0.000;118.73333
 751.68;   57.867;  -41.467;    0.000;99.33333
 751.95;   13.600;  -81.733;    0.000;95.33333
 752.21;   30.067;  -71.067;    0.000;101.13333
 752.47;   15.533;  -90.800;    0.000;106.33334
 752.73;   39.333;  -78.067;    0.000;117.40000
 752.99;   31.200;  -93.933;    0.000;125.13334
 753.25;   29.600;  -72.800;    0.000;102.40000
 753.51;   22.933;  -77.000;    0.000;99.93333
 753.77;   34.933;  -66.867;    0.000;101.80000
 754.03;   28.800;  -86.733;    0.000;115.53333
 754.29;   37.400;  -59.267;    0.000;96.66667
 754.55;   32.600;  -74.800;    0.000;107.40000
 754.81;   19.800;  -73.800;    0.000;93.60000
 755.07;   14.267;  -87.067;    0.000;101.33333
 755.33;   39.533;  -65.867;    0.000;105.40000
 755.59;    5.067;  -81.733;    0.000;86.80000
 755.85;   17.333;  -77.600;    0.000;94.93333
 756.11;   12.133;  -76.600;    0.000;88.73333
 756.37;   17.733;  -82.800;    0.000;100.53334
 756.63;   47.467;  -52.067;    0.000;99.53333
 756.89;   10.333;  -85.400;    0.000;95.73333
 757.15;   22.667;  -86.000;    0.000;108.66667
 757.41;   56.467;  -37.733;    0.000;94.20000
 757.68;   11.800;  -83.133;    0.000;94.93333
 757.94;   26.133;  -53.400;    0.000;79.53333
 758.20;   29.400;  -70.533;    0.000;99.93333
 758.46;    6.400;  -83.067;    0.000;89.46667
 758.72;   26.867;  -82.467;    0.000;109.33333
 758.98;   27.133;  -65.000;    0.000;92.13333
 759.24;   12.400;  -78.800;    0.000;91.20000
 759.50;   10.000;  -66.200;    0.000;76.20000
 759.76;   15.600;  -70.333;    0.000;85.93334
 760.02;   12.333;  -45.267;    0.000;57.60000
 760.27;   14.733;  -79.133;    0.000;93.86666
 760.53;   28.333;  -48.867;    0.000;77.20000
 760.79;   15.667;  -77.933;    0.000;93.60000
 761.05;    5.200;  -63.133;    0.000;68.33333
 761.31;   17.400;  -72.867;    0.000;90.26667
 761.57;   15.867;  -54.200;    0.000;70.06667
 761.83;   -5.267;  -68.733;    0.000;63.46666
 762.09;    0.800;  -72.733;    0.000;73.53333
 762.35;   18.267;  -79.400;    0.000;97.66667
 762.61;  -11.533;  -60.333;    0.000;48.80000
 762.87;   28.133;  -69.067;    0.000;97.20000
 763.13;   -7.667;  -82.000;    0.000;74.33333
 763.39;   20.800;  -57.600;    0.000;78.40000
 763.65;  -12.800;  -73.600;    0.000;60.80000
 763.91;   10.667;  -69.867;    0.000;80.53334
 764.17;   26.467;  -52.133;    0.000;78.60000
 764.43;    6.733;  -65.733;    0.000;72.46666
 764.69;  -10.533;  -61.600;    0.000;51.06666
 764.95;   -9.200;  -72.800;    0.000;63.60000
 765.21;   -2.067;  -61.533;    0.000;59.46667
 765.47;   13.133;  -82.400;    0.000;95.53333
 765.73;    2.733;  -62.667;    0.000;65.40000
 765.98;   11.933;  -67.200;    0.000;79.13333
 766.24;    2.067;  -77.000;    0.000;79.06667
 766.50;   -2.267;  -80.533;    0.000;78.26667
 766.76;   10.600;  -48.867;    0.000;59.46667
 767.02;    2.267;  -68.400;    0.000;70.66667
 767.28;    2.067;  -68.867;    0.000;70.93334
 767.54;    5.533;  -85.067;    0.000;90.60000
 767.80;   -3.267;  -66.867;    0.000;63.60000
 768.06;    7.067;  -53.867;    0.000;60.93333
 768.32;  -17.067;  -62.467;    0.000;45.40000
 768.58;    4.400;  -71.133;    0.000;75.53333
 768.83;  -11.267;  -71.333;    0.000;60.06667
 769.09;  -17.000;  -73.667;    0.000;56.66666
 769.35;    0.000;  -61.800;    0.000;61.80000
 769.61;   -8.333;  -80.400;    0.000;72.06667
 769.87;   -0.200;  -55.667;    0.000;55.46667
 770.13;   10.200;  -60.267;    0.000;70.46667
 770.39;  -21.200;  -82.733;    0.000;61.53333
 770.65;    9.933;  -64.000;    0.000;73.93333
 770.90;  -12.267;  -73.333;    0.000;61.06667
 771.16;  -30.067;  -82.933;    0.000;52.86667
 771.42;  -18.200;  -68.467;    0.000;50.26667
 771.68;  -13.733;  -81.400;    0.000;67.66667
 771.94;    4.800;  -61.867;    0.000;66.66667
 772.20;   -9.000;  -79.067;    0.000;70.06667
 772.46;  -10.133;  -71.200;    0.000;61.06666
 772.71;  -21.800;  -85.267;    0.000;63.46667
 772.97;   15.667;  -52.267;    0.000;67.93333
 773.23;  -26.667;  -78.200;    0.000;51.53333
 773.49;   14.333;  -40.667;    0.000;55.00000
 773.75;  -20.333;  -82.200;    0.000;61.86666
 774.01;  -33.933;  -85.067;    0.000;51.13333
 774.26;  -30.467;  -92.400;    0.000;61.93333
 774.52;  -16.467;  -54.600;    0.000;38.13333
 774.78;  -23.000;  -89.600;    0.000;66.60000
 775.04;    8.000;  -26.200;    0.000;34.20000
 775.30;   11.067;  -52.400;    0.000;63.46667
 775.56;  -30.133;  -71.533;    0.000;41.40000
 775.81;   -3.000;  -73.000;    0.000;70.00000
 776.07;  -39.133;  -78.400;    0.000;39.26667
 776.33;    4.667;  -79.933;    0.000;84.60000
 776.59;  -33.267;  -73.400;    0.000;40.13334
 776.85;  -15.800;  -83.533;    0.000;67.73333
 777.10;   -7.333;  -55.200;    0.000;47.86667
 777.36;  -18.933;  -73.533;    0.000;54.60000
 777.62;  -12.200;  -49.400;    0.000;37.20000
 777.88;  -26.133;  -79.800;    0.000;53.66667
 778.14;  -29.867;  -60.133;    0.000;30.26667
 778.39;  -24.600;  -73.800;    0.000;49.20000
 778.65;  -21.867;  -68.733;    0.000;46.86666
 778.91;  -17.733;  -95.267;    0.000;77.53334
 779.17;  -11.867;  -56.000;    0.000;44.13333
 779.42;  -28.800; -105.133;    0.000;76.33333
 779.68;   -8.600;  -72.267;    0.000;63.66667
 779.94;   -6.933;  -92.533;    0.000;85.60000
 780.20;  -12.933;  -56.867;    0.000;43.93333
 780.46;  -40.800;  -87.333;    0.000;46.53334
 780.71;   -8.067;  -53.600;    0.000;45.53333
 780.97;  -15.400;  -80.600;    0.000;65.20000
 781.23;  -34.067;  -69.333;    0.000;35.26667
 781.49;  -32.733;  -68.667;    0.000;35.93333
 781.74;  -31.133;  -85.533;    0.000;54.40000
 782.00;  -41.867;  -98.000;    0.000;56.13334
 782.26;  -32.000;  -69.267;    0.000;37.26667
 782.52;  -33.333;  -85.400;    0.000;52.06667
 782.77;  -12.933;  -42.000;    0.000;29.06667
 783.03;  -46.733;  -83.867;    0.000;37.13334
 783.29;  -55.333;  -82.600;    0.000;27.26667
 783.54;  -38.800;  -81.533;    0.000;42.73333
 783.80;  -17.867;  -27.200;    0.000; 9.33333
 784.06;  -19.867;  -72.267;    0.000;52.40000
 784.32;  -34.133;  -72.733;    0.000;38.59999
 784.57;    1.200;  -67.533;    0.000;68.73333
 784.83;  -40.867;  -89.200;    0.000;48.33333
 785.09;  -52.533;  -84.400;    0.000;31.86667
 785.34;  -28.733;  -53.600;    0.000;24.86666
 785.60;  -15.733;  -69.467;    0.000;53.73333
 785.86;  -19.333;  -65.533;    0.000;46.20000
 786.12;  -20.600;  -62.667;    0.000;42.06667
 786.37;  -13.667;  -52.600;    0.000;38.93333
 786.63;  -54.333; -109.867;    0.000;55.53334
 786.89;  -28.067;  -70.467;    0.000;42.40000
 787.14;  -17.867;  -62.133;    0.000;44.26667
 787.40;  -53.733;  -63.667;    0.000; 9.93333
 787.66;  -37.133;  -64.133;    0.000;27.00000
 787.91;  -25.400;  -46.000;    0.000;20.60000
 788.17;  -33.533;  -84.400;    0.000;50.86667
 788.43;  -34.267;  -78.600;    0.000;44.33333
 788.68;  -42.733;  -83.133;    0.000;40.40000
 788.94;  -23.600;  -69.267;    0.000;45.66667
 789.20;  -26.533;  -73.400;    0.000;46.86667
 789.45;  -41.267;  -81.267;    0.000;40.00000
 789.71;  -48.267;  -82.200;    0.000;33.93333
 789.97;   -8.133;  -40.333;    0.000;32.20000
 790.22;  -35.867;  -61.133;    0.000;25.26667
 790.48;  -37.533;  -83.133;    0.000;45.60000
 790.74;  -36.933;  -71.933;    0.000;35.00000
 790.99;  -25.267;  -58.533;    0.000;33.26667
 791.25;  -61.800;  -93.200;    0.000;31.40000
 791.51;  -51.733;  -91.200;    0.000;39.46666
 791.76;  -15.600;  -59.600;    0.000;44.00000
 792.02;  -51.667;  -65.600;    0.000;13.93333
 792.27;  -14.600;  -68.733;    0.000;54.13333
 792.53;  -35.067;  -62.800;    0.000;27.73333
 792.79;  -36.333;  -82.467;    0.000;46.13334
 793.04;  -45.133;  -72.667;    0.000;27.53333
 793.30;  -48.800;  -64.867;    0.000;16.06667
 793.56;  -44.200;  -61.800;    0.000;17.60000
 793.81;  -16.600;  -45.000;    0.000;28.40000
 794.07;  -36.067;  -63.600;    0.000;27.53333
 794.32;  -41.733;  -87.267;    0.000;45.53334
 794.58;  -31.533;  -83.333;    0.000;51.80000
 794.84;  -27.600;  -83.867;    0.000;56.26667
 795.09;  -14.800;  -54.067;    0.000;39.26667
 795.35;  -14.800;  -65.200;    0.000;50.40000
 795.60;  -22.667;  -45.800;    0.000;23.13333
 795.86;   -9.000;  -51.867;    0.000;42.86666
 796.12;  -55.267;  -69.933;    0.000;14.66667
 796.37;  -50.533;  -81.333;    0.000;30.80000
 796.63;  -36.467;  -57.200;    0.000;20.73333
 796.88;  -50.400;  -75.533;    0.000;25.13333
 797.14;  -30.667;  -53.333;    0.000;22.66667
 797.39;  -35.000;  -58.000;    0.000;23.00000
 797.65;  -36.000;  -73.800;    0.000;37.80000
 797.91;  -57.400;  -82.200;    0.000;24.80000
 798.16;  -35.600;  -60.333;    0.000;24.73333
 798.42;  -45.067;  -91.933;    0.000;46.86667
 798.67;  -45.333;  -67.600;    0.000;22.26667
 798.93;  -59.733;  -91.800;    0.000;32.06667
 799.18;  -40.667;  -74.067;    0.000;33.40000
 799.44;  -48.933;  -92.067;    0.000;43.13333
 799.69;  -46.200;  -89.600;    0.000;43.40000
 799.95;  -55.267; -108.133;    0.000;52.86666
 800.21;  -35.333;  -75.200;    0.000;39.86666
 800.46;    3.667;  -50.800;    0.000;54.46667
 800.72;  -62.400;  -78.867;    0.000;16.46667
 800.97;  -49.400;  -79.067;    0.000;29.66666
 801.23;  -47.867;  -74.400;    0.000;26.53334
 801.48;  -61.667;  -82.867;    0.000;21.20000
 801.74;  -53.667;  -74.533;    0.000;20.86666
 801.99;  -33.600;  -63.267;    0.000;29.66667
 802.25;  -44.133;  -68.733;    0.000;24.59999
 802.50;  -57.400;  -75.600;    0.000;18.20000
 802.76;  -32.000;  -57.533;    0.000;25.53333
 803.01;  -39.867; -105.867;    0.000;66.00000
 803.27;  -40.267;  -72.467;    0.000;32.20000
 803.52;  -41.133;  -69.800;    0.000;28.66667
 803.78;  -25.000;  -55.733;    0.000;30.73333
 804.03;  -48.800;  -80.533;    0.000;31.73333
 804.29;  -61.000;  -73.467;    0.000;12.46667
 804.54;  -57.467;  -78.533;    0.000;21.06667
 804.80;  -52.000;  -87.267;    0.000;35.26667
 805.05;  -60.267;  -67.267;    0.000; 7.00000
 805.31;  -48.733;  -44.667;    0.000;-4.06667
 805.56;  -46.600;  -64.600;    0.000;18.00000
 805.82;  -33.067;  -74.800;    0.000;41.73334
 806.07;  -35.600;  -66.800;    0.000;31.20000
 806.33;  -35.133;  -85.867;    0.000;50.73333
 806.58;  -51.933;  -93.200;    0.000;41.26666
 806.84;  -46.067;  -62.467;    0.000;16.40000
 807.09;  -74.867;  -68.800;    0.000;-6.06667
 807.34;  -56.933;  -56.067;    0.000;-0.86667
 807.60;  -50.667;  -78.733;    0.000;28.06666
 807.85;  -34.333;  -49.667;    0.000;15.33334
 808.11;  -60.133;  -83.200;    0.000;23.06666
 808.36;  -34.667;  -59.400;    0.000;24.73333
 808.62;  -53.200;  -84.200;    0.000;31.00000
 808.87;  -60.067;  -86.000;    0.000;25.93333
 809.13;  -45.800;  -85.467;    0.000;39.66667
 809.38;  -39.133;  -52.467;    0.000;13.33333
 809.63;  -58.000;  -79.133;    0.000;21.13333
 809.89;  -47.600;  -48.667;    0.000; 1.06667
 810.14;  -43.400;  -63.067;    0.000;19.66666
 810.40;  -48.133;  -59.067;    0.000;10.93333
 810.65;  -39.000;  -84.333;    0.000;45.33334
 810.91;  -72.467;  -83.000;    0.000;10.53333
 811.16;  -51.400;  -76.533;    0.000;25.13333
 811.41;  -29.333;  -57.733;    0.000;28.40000
 811.67;  -29.267;  -75.333;    0.000;46.06667
 811.92;  -46.933;  -51.600;    0.000; 4.66666
 812.18;  -41.933;  -85.200;    0.000;43.26666
 812.43;  -41.800;  -66.667;    0.000;24.86666
 812.68;  -29.867;  -71.733;    0.000;41.86666
 812.94;  -59.533;  -59.467;    0.000;-0.06667
 813.19;  -49.267;  -67.200;    0.000;17.93333
 813.45;   -9.733;  -29.333;    0.000;19.60000
 813.70;  -49.467;  -71.533;    0.000;22.06667
 813.95;  -54.667;  -63.267;    0.000; 8.60000
 814.21;  -50.600;  -66.400;    0.000;15.80000
 814.46;  -50.467;  -80.600;    0.000;30.13333
 814.71;  -63.400;  -86.200;    0.000;22.80000
 814.97;  -51.800;  -57.667;    0.000; 5.86667
 815.22;  -60.467;  -90.867;    0.000;30.40000
 815.48;  -64.200;  -83.133;    0.000;18.93333
 815.73;    0.533;  -27.667;    0.000;28.20000
 815.98;  -51.200;  -61.067;    0.000; 9.86666
 816.24;  -56.600;  -78.867;    0.000;22.26667
 816.49;  -26.933;  -68.400;    0.000;41.46667
 816.74;  -34.200;  -65.600;    0.000;31.40000
 817.00;  -26.467;  -44.933;    0.000;18.46667
 817.25;  -40.267;  -72.333;    0.000;32.06667
 817.50;  -61.267;  -74.067;    0.000;12.80000
 817.76;  -71.133;  -80.933;    0.000; 9.80000
 818.01;  -54.267;  -69.133;    0.000;14.86666
 818.26;  -74.267;  -76.800;    0.000; 2.53333
 818.52;  -61.600;  -82.333;    0.000;20.73334
 818.77;  -53.867;  -76.400;    0.000;22.53334
 819.02;  141.733;  140.600;    0.000; 1.13333
 819.28;  -55.000;  -80.067;    0.000;25.06667
 819.53;  -51.000;  -79.733;    0.000;28.73333
 819.78;  -56.067;  -61.733;    0.000; 5.66667
 820.04;  -39.933;  -59.000;    0.000;19.06667
 820.29;  -52.867;  -65.067;    0.000;12.20000
 820.54;  -56.000;  -57.733;    0.000; 1.73333
 820.79;  -40.800;  -50.133;    0.000; 9.33334
 821.05;  -58.533;  -91.400;    0.000;32.86667
 821.30;  -45.400;  -40.000;    0.000;-5.40000
 821.55;  -34.200;  -22.267;    0.000;-11.93333
 821.81;  -44.267;  -69.733;    0.000;25.46666
 822.06;  -50.400;  -66.800;    0.000;16.40000
 822.31;  -37.000;  -48.267;    0.000;11.26667
 822.56;  -43.333;  -76.933;    0.000;33.60000
 822.82;  -58.400;  -83.933;    0.000;25.53333
 823.07;  -33.067;  -34.133;    0.000; 1.06667
 823.32;  -59.867;  -96.267;    0.000;36.40001
 823.58;  -44.133;  -77.533;    0.000;33.40000
 823.83;  -59.800;  -77.533;    0.000;17.73333
 824.08;  -68.867;  -81.067;    0.000;12.20000
 824.33;  -70.400;  -91.267;    0.000;20.86667
 824.59;  -65.200;  -70.400;    0.000; 5.20000
 824.84;  -67.133;  -85.067;    0.000;17.93333
 825.09;  -74.467;  -80.733;    0.000; 6.26666
 825.34;  -50.733;  -72.200;    0.000;21.46666
 825.60;  -59.333;  -68.733;    0.000; 9.40000
 825.85;  -68.267; -110.267;    0.000;42.00000
 826.10;  -61.533;  -92.200;    0.000;30.66666
 826.35;  -55.400;  -91.667;    0.000;36.26666
 826.61;  -49.133;  -85.333;    0.000;36.20000
 826.86;  -67.267;  -84.667;    0.000;17.39999
 827.11;  -59.133;  -68.733;    0.000; 9.59999
 827.36;  -80.667;  -88.600;    0.000; 7.93333
 827.61;  -70.200;  -86.867;    0.000;16.66667
 827.87;  -68.133;  -77.333;    0.000; 9.20000
 828.12;  -56.400;  -67.400;    0.000;11.00000
 828.37;  -63.333;  -66.867;    0.000; 3.53334
 828.62;  -70.733;  -75.533;    0.000; 4.80000
 828.88;  -52.000;  -58.533;    0.000; 6.53333
 829.13;  -42.533;  -41.800;    0.000;-0.73333
 829.38;  -59.533;  -80.333;    0.000;20.80000
 829.63;  -52.733;  -57.267;    0.000; 4.53333
 829.88;  -78.267; -112.000;    0.000;33.73333
 830.14;  -59.133;  -67.600;    0.000; 8.46666
 830.39;  -14.000;  -56.400;    0.000;42.40000
 830.64;  -65.267;  -77.533;    0.000;12.26666
 830.89;  -43.000;  -71.667;    0.000;28.66666
 831.14;  -70.600;  -64.933;    0.000;-5.66666
 831.39;  -73.400;  -86.733;    0.000;13.33333
 831.65;  -77.467;  -91.933;    0.000;14.46667
 831.90;  -55.533;  -68.667;    0.000;13.13333
 832.15;  -64.733;  -58.733;    0.000;-6.00000
 832.40;  -58.667;  -59.267;    0.000; 0.60000
 832.65;  -56.400;  -72.600;    0.000;16.20000
 832.90;  -56.600;  -90.467;    0.000;33.86667
 833.16;  -60.933;  -64.933;    0.000; 4.00000
 833.41;  -73.400;  -81.667;    0.000; 8.26666
 833.66;  -75.600;  -62.867;    0.000;-12.73333
 833.91;  -78.733;  -79.067;    0.000; 0.33334
 834.16;  -69.933;  -91.467;    0.000;21.53333
 834.41;  -69.333;  -73.800;    0.000; 4.46667
 834.66;  -51.333;  -46.333;    0.000;-5.00000
 834.92;  -69.867;  -85.067;    0.000;15.20000
 835.17;  -58.067;  -77.200;    0.000;19.13333
 835.42;  -59.067;  -74.200;    0.000;15.13333
 835.67;  -63.067;  -67.200;    0.000; 4.13333
 835.92;  -74.467;  -78.867;    0.000; 4.40000
 836.17;  -62.200;  -69.867;    0.000; 7.66667
 836.42;  -73.600;  -79.133;    0.000; 5.53333
 836.67;  -86.333;  -82.733;    0.000;-3.60001
 836.93;  -81.333;  -74.667;    0.000;-6.66667
 837.18;  -66.600;  -59.000;    0.000;-7.60000
 837.43;  -60.533;  -81.600;    0.000;21.06667
 837.68;  -61.600;  -70.600;    0.000; 9.00000
 837.93;  -76.133;  -93.733;    0.000;17.60000
 838.18;  -52.333;  -70.133;    0.000;17.80000
 838.43;  -53.867;  -93.333;    0.000;39.46667
 838.68;  -66.267;  -70.400;    0.000; 4.13333
 838.93;  -82.333;  -70.933;    0.000;-11.40000
 839.18;  -51.133;  -49.933;    0.000;-1.20000
 839.43;  -52.067;  -80.400;    0.000;28.33334
 839.69;  -61.467;  -82.800;    0.000;21.33334
 839.94;  -74.267;  -89.200;    0.000;14.93333
 840.19;  -53.933;  -71.333;    0.000;17.40000
 840.44;  -62.333;  -72.267;    0.000; 9.93334
 840.69;  -49.933;  -50.400;    0.000; 0.46667
 840.94;  -70.667;  -76.667;    0.000; 6.00000
 841.19;  -69.467;  -47.000;    0.000;-22.46667
 841.44;  -45.600;  -69.533;    0.000;23.93333
 841.69;  -50.867;  -45.067;    0.000;-5.80000
 841.94;  -63.200;  -73.533;    0.000;10.33333
 842.19;  -51.467;  -87.133;    0.000;35.66666
 842.44;  -59.400;  -76.800;    0.000;17.40000
 842.69;  -59.533;  -71.000;    0.000;11.46667
 842.94;  -54.867;  -69.667;    0.000;14.80000
 843.19;  -71.600;  -76.267;    0.000; 4.66667
 843.44;  -68.467;  -73.267;    0.000; 4.80000
 843.69;  -70.867;  -91.933;    0.000;21.06667
 843.94;  -16.800;   -9.400;    0.000;-7.40000
 844.19;  -69.200;  -76.733;    0.000; 7.53333
 844.44;  -49.333;  -87.733;    0.000;38.40000
 844.69;  -75.667;  -49.867;    0.000;-25.80000
 844.95;  -67.000;  -73.467;    0.000; 6.46667
 845.20;  -77.267;  -86.600;    0.000; 9.33333
 845.45;  -49.267;  -63.000;    0.000;13.73333
 845.70;  -70.933;  -68.333;    0.000;-2.60000
 845.95;  -82.600;  -78.533;    0.000;-4.06667
 846.20;  -62.867;  -77.267;    0.000;14.40001
 846.45;  -75.800;  -72.000;    0.000;-3.80000
 846.70;  -67.267;  -49.333;    0.000;-17.93334
 846.95;  -78.467;  -74.467;    0.000;-4.00000
 847.20;  -60.467;  -81.267;    0.000;20.80000
 847.44;  -25.867;  -34.000;    0.000; 8.13333
 847.69;  -75.467;  -72.200;    0.000;-3.26667
 847.94;  -55.733;  -80.400;    0.000;24.66667
 848.19;  -66.467;  -73.933;    0.000; 7.46667
 848.44;  -55.000;  -64.267;    0.000; 9.26667
 848.69;  -66.067;  -59.267;    0.000;-6.80000
 848.94;  -58.533;  -56.800;    0.000;-1.73333
 849.19;  -90.800;  -94.733;    0.000; 3.93333
 849.44;  -68.933;  -71.267;    0.000; 2.33334
 849.69;  -60.467;  -77.800;    0.000;17.33334
 849.94;  -72.867;  -92.733;    0.000;19.86666
 850.19;  -61.800;  -46.533;    0.000;-15.26667
 850.44;  -54.600;  -67.267;    0.000;12.66667
 850.69;  -64.067;  -62.400;    0.000;-1.66666
 850.94;  -77.467;  -74.600;    0.000;-2.86667
 851.19;  -68.200;  -62.000;    0.000;-6.20000
 851.44;  -58.133;  -79.133;    0.000;21.00000
 851.69;  -64.267;  -85.800;    0.000;21.53333
 851.94;  -60.467;  -75.933;    0.000;15.46667
 852.19;  -59.867;  -64.867;    0.000; 5.00000
 852.44;  -67.333;  -87.333;    0.000;20.00000
 852.68;  -67.067;  -76.933;    0.000; 9.86667
 852.93;  -53.533;  -60.000;    0.000; 6.46667
 853.18;  -83.667;  -71.000;    0.000;-12.66666
 853.43;  -71.000;  -77.933;    0.000; 6.93333
 853.68;  -65.000;  -71.200;    0.000; 6.20000
 853.93;  -46.333;  -65.267;    0.000;18.93334
 854.18;  -51.667;  -54.400;    0.000; 2.73333
 854.43;  -68.200;  -76.600;    0.000; 8.40000
 854.68;  -54.600;  -82.267;    0.000;27.66667
 854.93;  -48.467;  -89.333;    0.000;40.86667
 855.18;  -70.200;  -74.933;    0.000; 4.73334
 855.42;  -59.000;  -50.933;    0.000;-8.06667
 855.67;  -77.533;  -72.400;    0.000;-5.13333
 855.92;  -92.933;  -73.067;    0.000;-19.86667
 856.17;  -48.933;  -41.333;    0.000;-7.60000
 856.42;  -66.733;  -73.933;    0.000; 7.20000
 856.67;  -66.133;  -52.667;    0.000;-13.46666
 856.92;  -79.933;  -86.333;    0.000; 6.40000
 857.17;  -69.200;  -84.333;    0.000;15.13334
 857.41;  -66.000;  -87.267;    0.000;21.26667
 857.66;  -66.400;  -63.667;    0.000;-2.73333
 857.91;  -54.267;  -77.533;    0.000;23.26667
 858.16;  -69.267;  -55.067;    0.000;-14.20000
 858.41;  -60.733;  -76.467;    0.000;15.73333
 858.66;  -53.933;  -69.600;    0.000;15.66666
 858.91;  -57.533;  -74.600;    0.000;17.06667
 859.15;  -70.400;  -85.133;    0.000;14.73333
 859.40;  -36.533;  -64.800;    0.000;28.26667
 859.65;  -74.933;  -75.600;    0.000; 0.66666
 859.90;  -70.667;  -83.400;    0.000;12.73334
 860.15;  -44.267;  -65.200;    0.000;20.93333
 860.40;  -45.867;  -68.267;    0.000;22.40001
 860.64;  -60.533;  -54.267;    0.000;-6.26667
 860.89;  -70.133;  -86.133;    0.000;16.00000
 861.14;  -80.267;  -84.600;    0.000; 4.33333
 861.39;  -63.933;  -72.800;    0.000; 8.86667
 861.64;  -69.000;  -63.533;    0.000;-5.46667
 861.88;  -63.200;  -73.667;    0.000;10.46666
 862.13;  -63.467;  -68.200;    0.000; 4.73333
 862.38;  -63.933;  -80.333;    0.000;16.40000
 862.63;  -61.933;  -79.000;    0.000;17.06667
 862.88;  -69.467;  -79.933;    0.000;10.46667
 863.12;  -54.733;  -57.667;    0.000; 2.93333
 863.37;  -61.600;  -85.867;    0.000;24.26667
 863.62;  -58.200;  -62.000;    0.000; 3.80000
 863.87;  -75.933; -100.800;    0.000;24.86667
 864.12;  -52.200;  -66.533;    0.000;14.33333
 864.36;  -89.067;  -84.733;    0.000;-4.33334
 864.61;  -66.067;  -68.600;    0.000; 2.53333
 864.86;  -47.667;  -85.867;    0.000;38.20000
 865.11;  -27.800;  -48.933;    0.000;21.13334
 865.35;  -50.667;  -52.400;    0.000; 1.73333
 865.60;  -47.733;  -72.733;    0.000;25.00000
 865.85;  -52.533;  -51.867;    0.000;-0.66667
 866.10;  -56.000;  -70.000;    0.000;14.00000
 866.34;  -54.400;  -82.533;    0.000;28.13333
 866.59;  -54.267;  -60.933;    0.000; 6.66667
 866.84;  -72.067;  -87.067;    0.000;15.00000
 867.09;  -57.400;  -72.667;    0.000;15.26666
 867.33;  -73.333;  -73.067;    0.000;-0.26667
 867.58;  -50.867;  -67.467;    0.000;16.60000
 867.83;  -56.267;  -86.267;    0.000;30.00000
 868.08;  -55.800;  -43.400;    0.000;-12.40000
 868.32;  -67.333;  -66.267;    0.000;-1.06667
 868.57;  -85.867;  -78.867;    0.000;-7.00000
 868.82;  -56.867;  -74.467;    0.000;17.60000
 869.07;  -72.333;  -83.067;    0.000;10.73333
 869.31;  -71.200;  -82.067;    0.000;10.86667
 869.56;  -75.267;  -75.533;    0.000; 0.26666
 869.81;  -67.667;  -56.200;    0.000;-11.46666
 870.05;  -87.467;  -68.667;    0.000;-18.80000
 870.30;  -42.800;  -77.200;    0.000;34.40000
 870.55;  -45.933;  -62.667;    0.000;16.73333
 870.80;  -64.467;  -65.133;    0.000; 0.66666
 871.04;  -67.133;  -44.933;    0.000;-22.20000
 871.29;  -68.200;  -78.933;    0.000;10.73334
 871.54;  -46.933;  -56.600;    0.000; 9.66666
 871.78;  -55.867;  -85.667;    0.000;29.80000
 872.03;  -49.733;  -51.133;    0.000; 1.40000
 872.28;  -77.933;  -61.733;    0.000;-16.20000
 872.52;  -54.067;  -63.800;    0.000; 9.73333
 872.77;  -58.667;  -73.600;    0.000;14.93333
 873.02;  -71.467;  -81.000;    0.000; 9.53333
 873.26;  -79.533;  -70.000;    0.000;-9.53333
 873.51;  -52.867;  -55.733;    0.000; 2.86667
 873.76;  -52.333;  -63.733;    0.000;11.40000
 874.00;  -41.733;  -44.533;    0.000; 2.80000
 874.25;  -58.533;  -76.000;    0.000;17.46667
 874.50;  -60.733;  -73.400;    0.000;12.66667
 874.74;  -75.200;  -79.200;    0.000; 4.00000
 874.99;  -58.400;  -63.400;    0.000; 5.00000
 875.24;  -36.933;  -45.267;    0.000; 8.33333
 875.48;  -55.067;  -61.733;    0.000; 6.66667
 875.73;  -82.733;  -85.133;    0.000; 2.40000
 875.98;  -71.600;  -58.400;    0.000;-13.20000
 876.22;  -82.333;  -78.067;    0.000;-4.26667
 876.47;  -52.733;  -55.400;    0.000; 2.66667
 876.71;  -53.867;  -61.067;    0.000; 7.20000
 876.96;  -39.667;  -61.800;    0.000;22.13333
 877.21;  -63.400;  -85.800;    0.000;22.40000
 877.45;  -68.467;  -80.533;    0.000;12.06667
 877.70;  -56.600;  -51.933;    0.000;-4.66666
 877.95;  -55.933;  -69.667;    0.000;13.73333
 878.19;  -29.733;  -34.067;    0.000; 4.33333
 878.44;  -68.333;  -62.667;    0.000;-5.66667
 878.68;  -13.200;  -39.000;    0.000;25.80000
 878.93;  -49.933;  -65.533;    0.000;15.60000
 879.18;  -45.400;  -50.333;    0.000; 4.93333
 879.42;  -53.400;  -42.467;    0.000;-10.93333
 879.67;  -55.800;  -65.467;    0.000; 9.66667
 879.91;  -52.933;  -41.467;    0.000;-11.46667
 880.16;  -61.600;  -46.133;    0.000;-15.46666
 880.40;  -57.467;  -51.733;    0.000;-5.73333
 880.65;  -32.200;  -49.867;    0.000;17.66666
 880.90;  -32.533;  -41.800;    0.000; 9.26667
 881.14;  -25.400;  -64.400;    0.000;39.00000
 881.39;  -57.333;  -48.933;    0.000;-8.40000
 881.63;  -46.733;  -65.667;    0.000;18.93333
 881.88;  -45.333;  -52.333;    0.000; 7.00000
 882.12;  -50.267;  -58.267;    0.000; 8.00000
 882.37;  -47.867;  -62.600;    0.000;14.73333
 882.62;  -50.800;  -52.800;    0.000; 2.00000
 882.86;  -55.267;  -59.133;    0.000; 3.86667
 883.11;  -43.467;  -76.267;    0.000;32.80000
 883.35;  -42.667;  -29.533;    0.000;-13.13334
 883.60;  -22.600;  -30.467;    0.000; 7.86667
 883.84;  -26.667;  -52.133;    0.000;25.46667
 884.09;  -41.133;  -64.400;    0.000;23.26667
 884.33;  -52.600;  -53.000;    0.000; 0.40000
 884.58;  -51.600;  -64.333;    0.000;12.73334
 884.82;  -63.800;  -66.467;    0.000; 2.66667
 885.07;  -43.467;  -59.933;    0.000;16.46667
 885.31;  -52.067;  -51.600;    0.000;-0.46667
 885.56;  -37.267;  -34.467;    0.000;-2.80000
 885.80;  -56.867;  -52.467;    0.000;-4.40000
 886.05;  -58.067;  -80.000;    0.000;21.93333
 886.29;  -20.933;  -37.600;    0.000;16.66667
 886.54;  -55.133;  -75.867;    0.000;20.73333
 886.78;  -35.933;  -33.133;    0.000;-2.80000
 887.03;  -41.000;  -46.933;    0.000; 5.93333
 887.27;  -23.667;  -21.733;    0.000;-1.93333
 887.52;  -43.733;  -62.133;    0.000;18.40000
 887.76;  -37.933;  -51.533;    0.000;13.60000
 888.01;  -52.533;  -52.067;    0.000;-0.46667
 888.25;  -41.667;  -59.067;    0.000;17.40000
 888.50;  -36.533;  -36.600;    0.000; 0.06667
 888.74;  -37.200;  -46.933;    0.000; 9.73333
 888.99;  -32.000;  -45.200;    0.000;13.20000
 889.23;  -33.600;  -51.000;    0.000;17.40000
 889.48;  -42.733;  -59.000;    0.000;16.26667
 889.72;  -28.267;  -42.867;    0.000;14.60000
 889.97;  -36.933;  -38.067;    0.000; 1.13333
 890.21;  -30.267;  -35.067;    0.000; 4.80000
 890.46;  -18.200;  -33.600;    0.000;15.40000
 890.70;  -25.400;  -33.867;    0.000; 8.46667
 890.94;  -23.200;  -39.600;    0.000;16.40000
 891.19;  -40.333;  -24.467;    0.000;-15.86666
 891.43;  -22.000;  -41.200;    0.000;19.20000
 891.68;   -9.133;  -16.933;    0.000; 7.80000
 891.92;  -28.667;  -48.067;    0.000;19.40000
 892.17;  -28.933;  -12.533;    0.000;-16.40000
 892.41;  -17.933;  -39.600;    0.000;21.66667
 892.66;  -58.267;  -44.467;    0.000;-13.80000
 892.90;   21.933;   -5.000;    0.000;26.93333
 893.14;  -33.867;  -18.267;    0.000;-15.60000
 893.39;  -12.333;  -43.533;    0.000;31.20000
 893.63;  -25.400;  -32.467;    0.000; 7.06667
 893.88;  -44.733;  -49.733;    0.000; 5.00000
 894.12;  -19.067;  -30.533;    0.000;11.46667
 894.36;  -25.000;  -19.067;    0.000;-5.93333
 894.61;  -12.267;  -13.933;    0.000; 1.66667
 894.85;  -20.467;  -23.000;    0.000; 2.53333
 895.10;   -7.333;  -14.133;    0.000; 6.80000
 895.34;  -27.067;  -31.733;    0.000; 4.66667
 895.58;  -11.533;   -7.333;    0.000;-4.20000
 895.83;   -3.267;  -21.667;    0.000;18.40000
 896.07;  -19.133;   -5.867;    0.000;-13.26667
 896.32;   -8.133;  -19.867;    0.000;11.73333
 896.56;  -20.800;  -25.333;    0.000; 4.53333
 896.80;  -10.333;  -21.333;    0.000;11.00000
 897.05;  -21.800;  -26.600;    0.000; 4.80000
 897.29;   -1.000;   -7.867;    0.000; 6.86667
 897.53;   -9.467;  -10.200;    0.000; 0.73333
 897.78;   -1.200;  -28.667;    0.000;27.46667
 898.02;   18.133;    6.600;    0.000;11.53333
 898.26;    5.667;  -19.933;    0.000;25.60000
 898.51;    0.733;    5.400;    0.000;-4.66667
 898.75;   19.933;  -27.200;    0.000;47.13333
 898.99;   26.000;   -5.400;    0.000;31.40000
 899.24;   16.733;  -17.067;    0.000;33.80000
 899.48;   17.933;   14.400;    0.000; 3.53333
 899.73;   14.667;    1.533;    0.000;13.13333
 899.97;   14.733;   24.667;    0.000;-9.93333
 900.21;   30.867;   26.333;    0.000; 4.53333
 900.46;   31.667;   14.467;    0.000;17.20000
 900.70;   50.133;   37.000;    0.000;13.13334
 900.94;   29.200;   18.667;    0.000;10.53333
 901.18;   49.133;   38.867;    0.000;10.26667
 901.43;   58.467;   46.467;    0.000;12.00000
 901.67;   48.733;   44.400;    0.000; 4.33333
 901.91;   81.667;   66.667;    0.000;15.00000
 902.16;   65.867;   46.133;    0.000;19.73333
 902.40;   89.133;   68.800;    0.000;20.33333
 902.64;   66.600;   80.800;    0.000;-14.20000
 902.89;   75.800;   81.733;    0.000;-5.93333
 903.13;   98.200;   86.733;    0.000;11.46667
 903.37;  129.400;  132.800;    0.000;-3.40001
 903.61;  135.133;  135.867;    0.000;-0.73334
 903.86;  139.667;  140.667;    0.000;-1.00000
 904.10;  176.200;  146.200;    0.000;30.00000
 904.34;  179.667;  171.133;    0.000; 8.53334
 904.59;  209.333;  189.400;    0.000;19.93333
 904.83;  222.400;  214.067;    0.000; 8.33333
 905.07;  264.800;  252.800;    0.000;11.99998
 905.31;  287.467;  319.667;    0.000;-32.19998
 905.56;  320.800;  313.533;    0.000; 7.26666
 905.80;  392.600;  365.800;    0.000;26.80002

