point4
Integration time [ms]:  15.000
Averaging Nr. [scans]: 15
Smoothing Nr. [pixels]: 0
Data measured with spectrometer [name]: 1307078U2
Wave   ;Sample   ;Dark     ;Reference;Scope Corrected for Dark
[nm]   ;[counts] ;[counts] ;[counts] 

 351.07;    8.533;   -0.467;    0.000; 9.00000
 351.37;   12.333;   -9.733;    0.000;22.06667
 351.66;   18.133;  -16.933;    0.000;35.06667
 351.95;   -2.467;   -3.067;    0.000; 0.60000
 352.24;  -16.600;  -14.000;    0.000;-2.60000
 352.54;   13.800;  -15.800;    0.000;29.60000
 352.83;   -9.000;    7.667;    0.000;-16.66667
 353.12;    4.533;   -4.400;    0.000; 8.93333
 353.42;   -2.600;    3.400;    0.000;-6.00000
 353.71;   -2.133;  -13.600;    0.000;11.46667
 354.00;   18.133;   -0.867;    0.000;19.00000
 354.30;  -16.333;   -8.800;    0.000;-7.53333
 354.59;   10.400;   -0.533;    0.000;10.93333
 354.88;   25.200;  -15.800;    0.000;41.00000
 355.17;   14.533;   -0.267;    0.000;14.80000
 355.47;  -10.933;  -26.933;    0.000;16.00000
 355.76;   14.000;    3.600;    0.000;10.40000
 356.05;   -4.400;  -14.467;    0.000;10.06667
 356.35;   -8.467;    5.400;    0.000;-13.86667
 356.64;   23.067;   14.200;    0.000; 8.86667
 356.93;   -4.400;   -3.267;    0.000;-1.13333
 357.22;   31.533;   -2.333;    0.000;33.86667
 357.52;    7.467;    5.400;    0.000; 2.06667
 357.81;    3.133;    4.200;    0.000;-1.06667
 358.10;    6.667;   -9.200;    0.000;15.86667
 358.39;   17.067;    9.067;    0.000; 8.00000
 358.69;    1.733;    7.200;    0.000;-5.46667
 358.98;   -4.933;  -28.000;    0.000;23.06667
 359.27;    5.600;   -1.800;    0.000; 7.40000
 359.57;   11.733;    3.533;    0.000; 8.20000
 359.86;    7.200;    1.733;    0.000; 5.46667
 360.15;   -4.933;    1.733;    0.000;-6.66667
 360.44;    0.533;   -6.867;    0.000; 7.40000
 360.74;   -8.867;   -0.400;    0.000;-8.46667
 361.03;   20.533;  -13.867;    0.000;34.40000
 361.32;   -2.467;   10.467;    0.000;-12.93333
 361.61;    7.667;  -21.600;    0.000;29.26667
 361.91;    6.067;    2.200;    0.000; 3.86667
 362.20;  -16.800;  -12.333;    0.000;-4.46667
 362.49;    4.200;  -14.800;    0.000;19.00000
 362.78;    8.733;  -15.800;    0.000;24.53333
 363.08;    6.600;   -4.133;    0.000;10.73333
 363.37;    2.000;   -9.200;    0.000;11.20000
 363.66;   -1.667;   -3.667;    0.000; 2.00000
 363.95;  -10.133;  -16.000;    0.000; 5.86667
 364.24;    0.533;   -0.733;    0.000; 1.26667
 364.54;  -10.867;   -6.733;    0.000;-4.13333
 364.83;    3.933;  -21.067;    0.000;25.00000
 365.12;    3.000;  -13.800;    0.000;16.80000
 365.41;   12.733;    0.733;    0.000;12.00000
 365.71;    0.933;    0.200;    0.000; 0.73333
 366.00;    4.333;   -7.733;    0.000;12.06667
 366.29;    5.467;  -12.667;    0.000;18.13333
 366.58;    2.333;   -6.533;    0.000; 8.86667
 366.87;    0.267;    7.333;    0.000;-7.06667
 367.17;   19.200;   -2.200;    0.000;21.40000
 367.46;  -14.400;   -6.133;    0.000;-8.26667
 367.75;   -1.333;  -22.333;    0.000;21.00000
 368.04;  -10.667;  -11.333;    0.000; 0.66667
 368.34;  -10.933;   -2.667;    0.000;-8.26667
 368.63;   13.933;  -12.933;    0.000;26.86667
 368.92;    9.267;   18.867;    0.000;-9.60000
 369.21;  -11.867;    6.933;    0.000;-18.80000
 369.50;   12.000;   -3.733;    0.000;15.73333
 369.80;   13.400;  -16.533;    0.000;29.93333
 370.09;    0.733;  -12.067;    0.000;12.80000
 370.38;  -14.867;   -0.533;    0.000;-14.33333
 370.67;   -7.800;  -23.467;    0.000;15.66667
 370.96;    4.667;  -26.133;    0.000;30.80000
 371.26;   -1.467;   -4.600;    0.000; 3.13333
 371.55;   -3.267;  -20.400;    0.000;17.13333
 371.84;   15.000;  -17.800;    0.000;32.80000
 372.13;  -27.400;  -35.800;    0.000; 8.40000
 372.42;   21.400;   13.867;    0.000; 7.53333
 372.71;   17.267;   10.067;    0.000; 7.20000
 373.01;   -2.667;    4.267;    0.000;-6.93333
 373.30;  -15.400;  -13.733;    0.000;-1.66667
 373.59;   11.133;  -10.800;    0.000;21.93333
 373.88;    7.800;  -11.600;    0.000;19.40000
 374.17;   13.400;    7.467;    0.000; 5.93333
 374.46;   12.000;  -11.133;    0.000;23.13333
 374.76;   20.333;   -7.267;    0.000;27.60000
 375.05;   16.600;   11.267;    0.000; 5.33333
 375.34;    8.800;  -15.067;    0.000;23.86667
 375.63;  -16.667;  -15.733;    0.000;-0.93333
 375.92;  -15.200;  -15.800;    0.000; 0.60000
 376.21;   -1.200;  -30.600;    0.000;29.40000
 376.51;    6.933;  -15.200;    0.000;22.13333
 376.80;  -11.667;  -17.733;    0.000; 6.06667
 377.09;   -0.200;   -1.133;    0.000; 0.93333
 377.38;  -25.533;  -14.333;    0.000;-11.20000
 377.67;   17.467;  -13.067;    0.000;30.53333
 377.96;  -11.600;   -8.800;    0.000;-2.80000
 378.25;    1.067;  -10.533;    0.000;11.60000
 378.55;  -14.600;  -15.867;    0.000; 1.26667
 378.84;  -13.400;   -0.067;    0.000;-13.33333
 379.13;    4.133;   -3.467;    0.000; 7.60000
 379.42;   22.667;   -4.933;    0.000;27.60000
 379.71;    4.267;  -16.933;    0.000;21.20000
 380.00;   19.933;   -2.933;    0.000;22.86667
 380.29;    5.267;  -10.800;    0.000;16.06667
 380.59;    4.733;   -2.733;    0.000; 7.46667
 380.88;    0.600;   -9.000;    0.000; 9.60000
 381.17;  -12.333;   -4.000;    0.000;-8.33333
 381.46;   -1.467;  -18.867;    0.000;17.40000
 381.75;    3.533;  -16.800;    0.000;20.33333
 382.04;   -3.800;   10.200;    0.000;-14.00000
 382.33;   -7.067;   -2.733;    0.000;-4.33333
 382.62;  -16.400;  -15.933;    0.000;-0.46667
 382.91;   25.667;  -22.333;    0.000;48.00000
 383.21;   -5.667;  -15.400;    0.000; 9.73333
 383.50;    5.333;   -4.467;    0.000; 9.80000
 383.79;   -7.800;   -5.933;    0.000;-1.86667
 384.08;    7.067;    9.000;    0.000;-1.93333
 384.37;    2.333;  -16.467;    0.000;18.80000
 384.66;   25.333;    6.267;    0.000;19.06667
 384.95;   -7.133;  -19.067;    0.000;11.93333
 385.24;    6.000;  -10.133;    0.000;16.13333
 385.53;  -14.133;   -4.267;    0.000;-9.86667
 385.83;   -8.933;  -32.200;    0.000;23.26667
 386.12;   -7.000;    5.800;    0.000;-12.80000
 386.41;   -5.067;   -7.267;    0.000; 2.20000
 386.70;   -1.667;  -10.000;    0.000; 8.33333
 386.99;    2.400;    0.400;    0.000; 2.00000
 387.28;   10.667;   -0.333;    0.000;11.00000
 387.57;   -3.533;  -10.600;    0.000; 7.06667
 387.86;  -11.800;  -19.333;    0.000; 7.53333
 388.15;  -14.200;   -1.067;    0.000;-13.13333
 388.44;   -7.600;    1.400;    0.000;-9.00000
 388.73;   -2.333;   -4.733;    0.000; 2.40000
 389.02;   -2.467;  -23.400;    0.000;20.93333
 389.31;    3.267;  -23.800;    0.000;27.06667
 389.61;    8.867;  -12.933;    0.000;21.80000
 389.90;    0.867;  -10.067;    0.000;10.93333
 390.19;   -4.267;   -9.600;    0.000; 5.33333
 390.48;   -5.333;   -7.000;    0.000; 1.66667
 390.77;   -3.933;  -10.933;    0.000; 7.00000
 391.06;   11.200;    6.667;    0.000; 4.53333
 391.35;   -2.467;  -39.400;    0.000;36.93333
 391.64;   14.133;    7.867;    0.000; 6.26667
 391.93;   -7.467;  -11.467;    0.000; 4.00000
 392.22;   -2.667;    0.000;    0.000;-2.66667
 392.51;   -2.867;   -3.133;    0.000; 0.26667
 392.80;    9.000;   -8.133;    0.000;17.13333
 393.09;  -23.533;  -13.400;    0.000;-10.13333
 393.38;   -8.933;    1.867;    0.000;-10.80000
 393.67;  -17.333;  -21.467;    0.000; 4.13333
 393.96;    8.600;   -9.333;    0.000;17.93333
 394.25;    4.733;  -34.267;    0.000;39.00000
 394.54;   -2.800;    1.067;    0.000;-3.86667
 394.83;  -13.667;  -23.200;    0.000; 9.53333
 395.13;    2.733;    1.867;    0.000; 0.86667
 395.42;   -0.400;   -1.267;    0.000; 0.86667
 395.71;  -18.000;  -13.000;    0.000;-5.00000
 396.00;    2.000;   -7.000;    0.000; 9.00000
 396.29;    7.267;  -23.400;    0.000;30.66667
 396.58;   -1.000;  -29.000;    0.000;28.00000
 396.87;  -13.600;  -20.267;    0.000; 6.66667
 397.16;   -0.933;  -25.533;    0.000;24.60000
 397.45;   -3.000;    1.667;    0.000;-4.66667
 397.74;  -15.533;  -18.533;    0.000; 3.00000
 398.03;   13.867;  -25.133;    0.000;39.00000
 398.32;   -8.667;  -16.267;    0.000; 7.60000
 398.61;   -5.333;   -0.533;    0.000;-4.80000
 398.90;   -4.467;  -15.000;    0.000;10.53333
 399.19;    9.733;  -15.667;    0.000;25.40000
 399.48;   -6.600;  -10.067;    0.000; 3.46667
 399.77;   -6.133;  -20.000;    0.000;13.86667
 400.06;   -0.200;   -0.267;    0.000; 0.06667
 400.35;    4.600;   -5.867;    0.000;10.46667
 400.64;  -18.067;  -21.333;    0.000; 3.26667
 400.93;   13.533;   -9.267;    0.000;22.80000
 401.22;   -5.200;  -13.067;    0.000; 7.86667
 401.51;   13.000;  -22.733;    0.000;35.73333
 401.80;  -11.867;    8.867;    0.000;-20.73333
 402.09;    1.867;  -17.867;    0.000;19.73333
 402.38;    4.067;   -2.067;    0.000; 6.13333
 402.67;   -0.400;   -2.733;    0.000; 2.33333
 402.96;   -5.933;    0.267;    0.000;-6.20000
 403.25;    4.333;   12.400;    0.000;-8.06667
 403.54;    4.067;  -11.467;    0.000;15.53333
 403.83;   -0.200;  -22.333;    0.000;22.13333
 404.12;   22.333;  -21.867;    0.000;44.20000
 404.41;   15.400;    0.333;    0.000;15.06667
 404.70;   -4.600;   -1.133;    0.000;-3.46667
 404.98;  -13.867;   -6.333;    0.000;-7.53333
 405.27;  -25.133;   -8.667;    0.000;-16.46667
 405.56;   -2.333;   -7.467;    0.000; 5.13333
 405.85;  -12.867;  -17.133;    0.000; 4.26667
 406.14;    7.333;   -3.467;    0.000;10.80000
 406.43;   -6.067;  -24.733;    0.000;18.66667
 406.72;   11.933;   -3.200;    0.000;15.13333
 407.01;  -10.733;   -6.267;    0.000;-4.46667
 407.30;   -5.267;  -20.533;    0.000;15.26667
 407.59;   -8.733;  -19.600;    0.000;10.86667
 407.88;   14.867;   -9.733;    0.000;24.60000
 408.17;   17.267;  -13.867;    0.000;31.13333
 408.46;    1.400;  -11.000;    0.000;12.40000
 408.75;   18.533;    9.067;    0.000; 9.46667
 409.04;   -7.667;  -18.600;    0.000;10.93333
 409.33;   -8.467;   -2.133;    0.000;-6.33333
 409.62;   -0.467;    0.933;    0.000;-1.40000
 409.91;  -12.600;  -35.533;    0.000;22.93333
 410.20;   12.200;  -14.133;    0.000;26.33333
 410.48;   13.467;   -4.667;    0.000;18.13333
 410.77;   12.467;   -4.533;    0.000;17.00000
 411.06;   -7.733;    5.467;    0.000;-13.20000
 411.35;    9.467;    1.467;    0.000; 8.00000
 411.64;   12.800;   -7.800;    0.000;20.60000
 411.93;   13.133;    8.267;    0.000; 4.86667
 412.22;   -5.533;  -30.267;    0.000;24.73333
 412.51;    3.867;  -32.467;    0.000;36.33333
 412.80;   -4.000;   -4.600;    0.000; 0.60000
 413.09;    1.267;  -12.400;    0.000;13.66667
 413.38;   -0.200;    4.267;    0.000;-4.46667
 413.67;   -9.667;   -4.667;    0.000;-5.00000
 413.96;   -3.733;  -24.400;    0.000;20.66667
 414.24;    8.333;    0.333;    0.000; 8.00000
 414.53;    6.800;  -11.867;    0.000;18.66667
 414.82;    2.333;   -2.267;    0.000; 4.60000
 415.11;   10.867;   -6.267;    0.000;17.13333
 415.40;   16.333;    2.667;    0.000;13.66667
 415.69;  -13.467;  -13.667;    0.000; 0.20000
 415.98;    0.000;  -21.000;    0.000;21.00000
 416.27;    5.067;  -40.400;    0.000;45.46667
 416.56;   -3.667;  -27.133;    0.000;23.46667
 416.84;    1.533;  -10.667;    0.000;12.20000
 417.13;    2.600;  -13.467;    0.000;16.06667
 417.42;   16.333;  -22.667;    0.000;39.00000
 417.71;    0.600;  -19.933;    0.000;20.53333
 418.00;    8.067;   -6.333;    0.000;14.40000
 418.29;    2.267;  -17.133;    0.000;19.40000
 418.58;    0.867;  -35.733;    0.000;36.60000
 418.87;   -6.733;  -34.600;    0.000;27.86667
 419.15;  -11.800;   -7.267;    0.000;-4.53333
 419.44;    9.267;  -17.667;    0.000;26.93333
 419.73;    4.600;  -16.467;    0.000;21.06667
 420.02;    1.067;  -15.600;    0.000;16.66667
 420.31;    6.600;  -11.733;    0.000;18.33333
 420.60;   15.933;  -10.133;    0.000;26.06667
 420.89;  -11.533;  -22.133;    0.000;10.60000
 421.18;    5.067;  -19.800;    0.000;24.86667
 421.46;    7.867;   -4.467;    0.000;12.33333
 421.75;    6.533;   -2.600;    0.000; 9.13333
 422.04;   -6.600;  -18.467;    0.000;11.86667
 422.33;   25.200;    0.933;    0.000;24.26667
 422.62;   36.467;   -9.600;    0.000;46.06667
 422.91;  -16.400;  -23.533;    0.000; 7.13333
 423.19;  -21.000;  -25.933;    0.000; 4.93333
 423.48;   14.400;   -7.000;    0.000;21.40000
 423.77;  -26.400;  -23.133;    0.000;-3.26667
 424.06;   -9.133;  -17.733;    0.000; 8.60000
 424.35;  -19.733;  -27.667;    0.000; 7.93333
 424.64;   23.333;    0.400;    0.000;22.93333
 424.93;   -5.467;  -33.933;    0.000;28.46667
 425.21;   -5.000;   -9.800;    0.000; 4.80000
 425.50;   -9.800;  -25.600;    0.000;15.80000
 425.79;   -1.133;  -22.933;    0.000;21.80000
 426.08;    0.267;  -11.867;    0.000;12.13333
 426.37;   22.533;  -11.733;    0.000;34.26667
 426.65;   -2.267;  -22.333;    0.000;20.06667
 426.94;  -23.133;  -36.400;    0.000;13.26667
 427.23;    9.667;  -14.667;    0.000;24.33333
 427.52;   -6.533;  -25.333;    0.000;18.80000
 427.81;  -34.067;  -38.733;    0.000; 4.66667
 428.10;   11.200;   -7.200;    0.000;18.40000
 428.38;   -8.067;  -15.467;    0.000; 7.40000
 428.67;    5.933;  -30.267;    0.000;36.20000
 428.96;  -14.600;  -36.200;    0.000;21.60000
 429.25;    5.200;   -2.200;    0.000; 7.40000
 429.54;    1.933;  -27.000;    0.000;28.93333
 429.82;    5.467;   -9.733;    0.000;15.20000
 430.11;   16.133;  -17.067;    0.000;33.20000
 430.40;    0.600;   -6.267;    0.000; 6.86667
 430.69;    0.667;   21.733;    0.000;-21.06667
 430.98;   -0.067;  -23.333;    0.000;23.26667
 431.26;  -13.000;   -4.733;    0.000;-8.26667
 431.55;  -15.733;   -1.933;    0.000;-13.80000
 431.84;    1.800;   -8.800;    0.000;10.60000
 432.13;   -2.667;   -1.600;    0.000;-1.06667
 432.41;  -24.200;  -37.667;    0.000;13.46667
 432.70;   14.667;  -14.733;    0.000;29.40000
 432.99;   -9.000;  -40.867;    0.000;31.86666
 433.28;    2.533;  -23.933;    0.000;26.46667
 433.57;    5.133;  -26.133;    0.000;31.26667
 433.85;   16.733;   -1.867;    0.000;18.60000
 434.14;   -1.200;   -9.533;    0.000; 8.33333
 434.43;   16.933;  -21.267;    0.000;38.20000
 434.72;   -1.400;   -8.533;    0.000; 7.13333
 435.00;   -4.467;  -34.933;    0.000;30.46667
 435.29;  -14.067;  -24.333;    0.000;10.26667
 435.58;    2.800;    7.067;    0.000;-4.26667
 435.87;    5.200;  -18.067;    0.000;23.26667
 436.15;    6.800;  -21.600;    0.000;28.40000
 436.44;  -12.800;   -7.000;    0.000;-5.80000
 436.73;   21.000;   -8.400;    0.000;29.40000
 437.02;  -18.267;  -20.667;    0.000; 2.40000
 437.30;   -7.333;   -1.800;    0.000;-5.53333
 437.59;    5.200;  -17.267;    0.000;22.46667
 437.88;   10.867;  -13.200;    0.000;24.06667
 438.17;    0.667;  -13.067;    0.000;13.73333
 438.45;  -12.667;  -17.467;    0.000; 4.80000
 438.74;    4.600;  -15.200;    0.000;19.80000
 439.03;   -0.267;   -1.467;    0.000; 1.20000
 439.32;  -20.467;  -22.467;    0.000; 2.00000
 439.60;  -22.133;  -10.467;    0.000;-11.66667
 439.89;  -20.733;  -21.933;    0.000; 1.20000
 440.18;   -0.733;  -26.133;    0.000;25.40000
 440.46;   -5.067;  -26.400;    0.000;21.33333
 440.75;   17.867;  -21.733;    0.000;39.60000
 441.04;  -12.667;  -30.133;    0.000;17.46667
 441.33;   -3.200;  -12.400;    0.000; 9.20000
 441.61;  -14.333;  -18.400;    0.000; 4.06667
 441.90;   16.000;   -4.333;    0.000;20.33333
 442.19;  -10.467;  -21.400;    0.000;10.93333
 442.47;    3.067;  -16.667;    0.000;19.73333
 442.76;   -9.467;  -26.333;    0.000;16.86667
 443.05;    9.333;   -8.800;    0.000;18.13333
 443.34;   -4.133;  -14.267;    0.000;10.13333
 443.62;   12.333;   -3.933;    0.000;16.26667
 443.91;   12.600;  -35.400;    0.000;48.00000
 444.20;   11.200;   -6.200;    0.000;17.40000
 444.48;  -15.867;  -29.400;    0.000;13.53333
 444.77;   26.867;   -0.267;    0.000;27.13333
 445.06;  -12.000;  -25.600;    0.000;13.60000
 445.34;   -9.667;  -19.933;    0.000;10.26667
 445.63;   14.867;   -5.267;    0.000;20.13333
 445.92;   17.867;    2.267;    0.000;15.60000
 446.21;   -5.667;  -33.667;    0.000;28.00000
 446.49;   15.000;   -1.200;    0.000;16.20000
 446.78;   21.467;   -1.933;    0.000;23.40000
 447.07;  -12.667;  -34.000;    0.000;21.33333
 447.35;   -6.867;   -8.267;    0.000; 1.40000
 447.64;    7.267;  -18.333;    0.000;25.60000
 447.93;   -7.000;  -24.267;    0.000;17.26667
 448.21;  -10.733;  -21.467;    0.000;10.73333
 448.50;   10.867;  -31.267;    0.000;42.13333
 448.79;  -27.733;  -20.333;    0.000;-7.40000
 449.07;    8.000;  -26.800;    0.000;34.80000
 449.36;   14.400;  -23.333;    0.000;37.73333
 449.65;   -4.400;  -19.067;    0.000;14.66667
 449.93;   -6.133;  -14.200;    0.000; 8.06667
 450.22;    4.733;  -15.667;    0.000;20.40000
 450.51;  -10.600;  -39.067;    0.000;28.46667
 450.79;   -6.067;  -39.600;    0.000;33.53333
 451.08;  -16.200;  -21.867;    0.000; 5.66667
 451.36;  -11.600;  -35.400;    0.000;23.80000
 451.65;   10.933;  -14.733;    0.000;25.66667
 451.94;    4.000;  -35.933;    0.000;39.93333
 452.22;   -7.000;  -32.067;    0.000;25.06667
 452.51;   -0.133;  -36.667;    0.000;36.53333
 452.80;    5.267;  -37.067;    0.000;42.33333
 453.08;  -12.800;  -30.867;    0.000;18.06667
 453.37;   -1.200;  -12.667;    0.000;11.46667
 453.66;  -11.333;  -23.067;    0.000;11.73333
 453.94;   15.600;  -31.000;    0.000;46.60000
 454.23;  -19.400;  -27.733;    0.000; 8.33333
 454.51;   18.333;   -9.933;    0.000;28.26667
 454.80;  -18.667;  -30.800;    0.000;12.13333
 455.09;    7.067;  -28.933;    0.000;36.00000
 455.37;   10.600;  -33.600;    0.000;44.20000
 455.66;   -8.667;  -28.133;    0.000;19.46667
 455.95;   -3.867;  -21.400;    0.000;17.53333
 456.23;    1.800;  -20.933;    0.000;22.73333
 456.52;  -21.800;  -28.200;    0.000; 6.40000
 456.80;  -10.933;  -29.933;    0.000;19.00000
 457.09;   -4.067;  -23.800;    0.000;19.73333
 457.38;   15.667;  -11.333;    0.000;27.00000
 457.66;   -1.133;  -13.667;    0.000;12.53333
 457.95;  -24.133;   -7.867;    0.000;-16.26667
 458.23;   -6.467;  -37.000;    0.000;30.53333
 458.52;    7.333;  -15.000;    0.000;22.33333
 458.81;   -0.933;  -10.467;    0.000; 9.53333
 459.09;  -12.000;  -26.133;    0.000;14.13333
 459.38;  -16.067;  -22.667;    0.000; 6.60000
 459.66;   -5.267;  -35.933;    0.000;30.66667
 459.95;   15.933;  -48.267;    0.000;64.20000
 460.23;   -0.867;  -12.333;    0.000;11.46667
 460.52;   -3.800;  -14.933;    0.000;11.13333
 460.81;  -14.533;  -32.000;    0.000;17.46667
 461.09;   -0.400;  -39.133;    0.000;38.73334
 461.38;   -5.467;  -21.267;    0.000;15.80000
 461.66;  -13.333;  -33.133;    0.000;19.80000
 461.95;   -9.133;  -34.067;    0.000;24.93333
 462.23;   -6.400;  -17.800;    0.000;11.40000
 462.52;    2.733;  -24.600;    0.000;27.33333
 462.81;   -2.467;  -17.533;    0.000;15.06667
 463.09;   -7.267;  -45.400;    0.000;38.13333
 463.38;   -5.067;  -31.133;    0.000;26.06667
 463.66;    4.467;  -19.467;    0.000;23.93333
 463.95;   13.533;   -5.333;    0.000;18.86667
 464.23;   10.400;  -27.333;    0.000;37.73333
 464.52;   -0.933;  -23.267;    0.000;22.33333
 464.80;   -2.400;  -18.067;    0.000;15.66667
 465.09;   19.200;  -18.333;    0.000;37.53333
 465.38;   -1.600;  -32.800;    0.000;31.20000
 465.66;  -27.000;  -11.667;    0.000;-15.33333
 465.95;   15.467;  -19.267;    0.000;34.73333
 466.23;   -9.000;  -34.400;    0.000;25.40000
 466.52;   -9.800;  -22.000;    0.000;12.20000
 466.80;   -0.133;   -6.067;    0.000; 5.93333
 467.09;   -8.400;  -29.267;    0.000;20.86667
 467.37;   -5.667;  -32.933;    0.000;27.26667
 467.66;   -0.267;    8.000;    0.000;-8.26667
 467.94;   -7.467;  -34.733;    0.000;27.26667
 468.23;    7.067;  -31.667;    0.000;38.73333
 468.51;   10.533;  -12.267;    0.000;22.80000
 468.80;   -0.400;  -25.133;    0.000;24.73333
 469.08;   10.000;  -17.067;    0.000;27.06667
 469.37;    1.600;  -38.200;    0.000;39.80000
 469.66;   -4.333;  -24.133;    0.000;19.80000
 469.94;   -5.933;  -17.200;    0.000;11.26667
 470.23;    5.067;  -13.000;    0.000;18.06667
 470.51;    3.400;  -41.600;    0.000;45.00000
 470.80;   -3.000;  -12.867;    0.000; 9.86667
 471.08;    2.133;  -20.667;    0.000;22.80000
 471.37;   21.867;  -16.600;    0.000;38.46667
 471.65;   23.933;   -2.667;    0.000;26.60000
 471.94;   -6.333;  -30.267;    0.000;23.93333
 472.22;    2.467;  -39.933;    0.000;42.40000
 472.51;   -4.600;  -15.600;    0.000;11.00000
 472.79;  -16.200;  -29.333;    0.000;13.13333
 473.08;   -7.867;  -23.333;    0.000;15.46667
 473.36;   16.533;  -19.333;    0.000;35.86667
 473.64;    6.800;  -26.667;    0.000;33.46667
 473.93;    0.333;  -20.267;    0.000;20.60000
 474.21;   -7.467;  -26.667;    0.000;19.20000
 474.50;   -2.133;  -12.800;    0.000;10.66667
 474.78;   14.800;    4.000;    0.000;10.80000
 475.07;  -18.200;  -19.267;    0.000; 1.06667
 475.35;    9.200;  -21.400;    0.000;30.60000
 475.64;   10.333;  -14.000;    0.000;24.33333
 475.92;  -13.667;  -29.800;    0.000;16.13333
 476.21;    5.467;  -21.133;    0.000;26.60000
 476.49;    5.200;  -30.800;    0.000;36.00000
 476.78;   -9.800;  -35.267;    0.000;25.46667
 477.06;   -5.467;  -28.333;    0.000;22.86667
 477.35;   13.133;   -7.867;    0.000;21.00000
 477.63;   -1.267;  -38.067;    0.000;36.80000
 477.91;    9.533;  -37.067;    0.000;46.60000
 478.20;   11.133;  -38.800;    0.000;49.93333
 478.48;   43.600;    8.600;    0.000;35.00000
 478.77;   -3.733;  -16.400;    0.000;12.66667
 479.05;   -9.267;  -29.133;    0.000;19.86667
 479.34;   -7.267;    1.133;    0.000;-8.40000
 479.62;   23.333;  -15.133;    0.000;38.46667
 479.91;   -2.733;  -23.200;    0.000;20.46667
 480.19;   13.867;  -14.733;    0.000;28.60000
 480.47;   -9.733;  -34.133;    0.000;24.40000
 480.76;    3.800;  -26.600;    0.000;30.40000
 481.04;  -14.333;  -34.000;    0.000;19.66667
 481.33;    8.933;  -16.533;    0.000;25.46667
 481.61;   -4.800;  -28.467;    0.000;23.66667
 481.90;    3.067;  -34.067;    0.000;37.13333
 482.18;   20.933;  -20.400;    0.000;41.33333
 482.46;   35.000;  -37.933;    0.000;72.93333
 482.75;   -0.867;  -35.200;    0.000;34.33333
 483.03;    1.800;  -27.667;    0.000;29.46667
 483.32;   17.600;  -28.933;    0.000;46.53333
 483.60;   30.400;  -21.400;    0.000;51.80000
 483.88;   28.000;  -22.000;    0.000;50.00000
 484.17;   40.533;  -16.133;    0.000;56.66667
 484.45;   52.933;  -23.867;    0.000;76.80000
 484.74;   35.200;  -25.533;    0.000;60.73333
 485.02;   66.600;  -17.867;    0.000;84.46667
 485.30;   56.467;   -3.333;    0.000;59.80000
 485.59;   74.333;   -9.733;    0.000;84.06667
 485.87;   87.000;  -14.267;    0.000;101.26667
 486.16;   78.267;  -27.000;    0.000;105.26667
 486.44;   92.800;  -30.867;    0.000;123.66667
 486.72;  107.333;  -25.267;    0.000;132.60000
 487.01;  114.333;  -30.533;    0.000;144.86667
 487.29;  136.067;  -37.400;    0.000;173.46667
 487.58;  140.200;  -25.133;    0.000;165.33333
 487.86;  159.267;  -24.667;    0.000;183.93333
 488.14;  183.733;  -38.800;    0.000;222.53334
 488.43;  175.333;  -19.467;    0.000;194.80000
 488.71;  197.333;  -35.133;    0.000;232.46666
 488.99;  239.400;  -16.200;    0.000;255.59999
 489.28;  250.533;  -36.933;    0.000;287.46667
 489.56;  273.000;  -24.467;    0.000;297.46667
 489.85;  305.600;  -30.000;    0.000;335.60001
 490.13;  325.800;  -22.200;    0.000;347.99999
 490.41;  369.533;  -36.867;    0.000;406.39999
 490.70;  368.667;  -52.467;    0.000;421.13332
 490.98;  408.600;  -46.933;    0.000;455.53334
 491.26;  459.000;  -48.400;    0.000;507.40000
 491.55;  491.600;  -30.067;    0.000;521.66667
 491.83;  524.067;   -7.133;    0.000;531.19998
 492.11;  559.667;  -23.000;    0.000;582.66669
 492.40;  584.333;  -27.533;    0.000;611.86665
 492.68;  668.800;  -22.400;    0.000;691.19999
 492.96;  699.267;  -35.000;    0.000;734.26666
 493.25;  765.200;  -33.867;    0.000;799.06668
 493.53;  772.867;  -26.267;    0.000;799.13330
 493.81;  850.667;  -37.267;    0.000;887.93335
 494.10;  893.467;  -29.200;    0.000;922.66668
 494.38;  931.067;  -29.067;    0.000;960.13332
 494.66;  991.400;  -19.800;    0.000;1011.20002
 494.95; 1124.933;  -24.533;    0.000;1149.46668
 495.23; 1146.067;  -19.800;    0.000;1165.86665
 495.51; 1184.467;  -18.867;    0.000;1203.33334
 495.80; 1245.400;  -26.533;    0.000;1271.93336
 496.08; 1373.733;  -15.867;    0.000;1389.59994
 496.36; 1362.067;  -11.000;    0.000;1373.06665
 496.65; 1485.800;  -30.600;    0.000;1516.40005
 496.93; 1492.400;  -43.533;    0.000;1535.93336
 497.21; 1589.133;  -20.533;    0.000;1609.66663
 497.50; 1708.400;   -9.400;    0.000;1717.80002
 497.78; 1772.733;  -36.733;    0.000;1809.46661
 498.06; 1869.333;  -22.733;    0.000;1892.06671
 498.34; 1982.467;  -20.400;    0.000;2002.86667
 498.63; 2051.933;  -34.667;    0.000;2086.60002
 498.91; 2188.400;  -23.200;    0.000;2211.59990
 499.19; 2196.533;  -16.800;    0.000;2213.33345
 499.48; 2317.867;  -23.067;    0.000;2340.93337
 499.76; 2435.267;  -19.067;    0.000;2454.33327
 500.04; 2518.533;  -23.267;    0.000;2541.80011
 500.32; 2585.600;  -15.467;    0.000;2601.06676
 500.61; 2704.000;  -34.733;    0.000;2738.73333
 500.89; 2863.533;  -26.800;    0.000;2890.33345
 501.17; 2896.200;   -9.533;    0.000;2905.73328
 501.46; 3049.000;  -34.067;    0.000;3083.06667
 501.74; 3177.400;  -31.400;    0.000;3208.79990
 502.02; 3222.200;  -12.933;    0.000;3235.13328
 502.30; 3375.067;  -29.467;    0.000;3404.53332
 502.59; 3438.533;  -32.933;    0.000;3471.46678
 502.87; 3578.600;  -34.667;    0.000;3613.26677
 503.15; 3671.867;  -13.133;    0.000;3685.00003
 503.43; 3826.067;  -26.400;    0.000;3852.46665
 503.72; 3960.333;  -34.800;    0.000;3995.13325
 504.00; 4102.800;  -18.467;    0.000;4121.26647
 504.28; 4178.600;  -34.200;    0.000;4212.80010
 504.56; 4231.333;  -17.333;    0.000;4248.66683
 504.85; 4405.200;  -14.067;    0.000;4419.26686
 505.13; 4531.933;  -43.867;    0.000;4575.79977
 505.41; 4639.933;  -30.267;    0.000;4670.19977
 505.69; 4853.867;  -28.067;    0.000;4881.93337
 505.98; 4961.267;  -13.467;    0.000;4974.73327
 506.26; 5031.267;  -30.267;    0.000;5061.53327
 506.54; 5193.867;  -19.867;    0.000;5213.73337
 506.82; 5332.533;  -33.200;    0.000;5365.73320
 507.11; 5475.800;  -35.533;    0.000;5511.33314
 507.39; 5635.733;  -37.467;    0.000;5673.20007
 507.67; 5749.400;  -33.733;    0.000;5783.13324
 507.95; 5848.733;  -27.067;    0.000;5875.80007
 508.23; 5965.200;  -27.133;    0.000;5992.33353
 508.52; 6095.467;  -32.267;    0.000;6127.73346
 508.80; 6215.667;  -48.467;    0.000;6264.13317
 509.08; 6475.000;  -35.400;    0.000;6510.40000
 509.36; 6519.600;  -38.467;    0.000;6558.06676
 509.65; 6669.333;  -23.800;    0.000;6693.13350
 509.93; 6816.133;  -40.000;    0.000;6856.13330
 510.21; 6899.000;  -36.067;    0.000;6935.06667
 510.49; 6981.867;  -33.800;    0.000;7015.66670
 510.77; 7092.933;  -31.400;    0.000;7124.33311
 511.06; 7338.133;  -34.000;    0.000;7372.13330
 511.34; 7417.667;  -28.533;    0.000;7446.19984
 511.62; 7566.867;  -52.267;    0.000;7619.13337
 511.90; 7642.200;  -44.600;    0.000;7686.80019
 512.18; 7847.867;  -43.467;    0.000;7891.33337
 512.47; 7900.067;  -27.267;    0.000;7927.33356
 512.75; 8068.800;  -54.200;    0.000;8122.99981
 513.03; 8218.533;  -20.333;    0.000;8238.86654
 513.31; 8261.200;  -32.733;    0.000;8293.93353
 513.59; 8404.733;  -34.333;    0.000;8439.06673
 513.87; 8547.134;  -46.933;    0.000;8594.06712
 514.16; 8705.000;  -11.600;    0.000;8716.60000
 514.44; 8846.267;  -20.733;    0.000;8866.99994
 514.72; 8873.200;  -35.533;    0.000;8908.73353
 515.00; 9039.467;  -20.200;    0.000;9059.66680
 515.28; 9173.600;  -15.800;    0.000;9189.39961
 515.56; 9285.333;  -37.400;    0.000;9322.73301
 515.85; 9399.066;  -21.933;    0.000;9420.99974
 516.13; 9566.467;  -42.733;    0.000;9609.20013
 516.41; 9725.866;  -30.333;    0.000;9756.19954
 516.69; 9792.267;  -45.200;    0.000;9837.46660
 516.97; 9890.866;  -20.933;    0.000;9911.79954
 517.25;10110.866;  -22.733;    0.000;10133.59954
 517.54;10081.600;  -27.200;    0.000;10108.79961
 517.82;10223.267;  -27.933;    0.000;10251.19993
 518.10;10314.000;  -14.000;    0.000;10328.00000
 518.38;10465.267;  -51.467;    0.000;10516.73327
 518.66;10542.866;  -46.000;    0.000;10588.86621
 518.94;10659.667;  -28.267;    0.000;10687.93366
 519.22;10822.733;  -20.533;    0.000;10843.26673
 519.51;10900.467;  -38.133;    0.000;10938.60013
 519.79;10914.934;  -30.867;    0.000;10945.80026
 520.07;11114.733;  -18.600;    0.000;11133.33340
 520.35;11236.934;  -26.667;    0.000;11263.60026
 520.63;11263.267;  -30.667;    0.000;11293.93327
 520.91;11413.600;  -44.400;    0.000;11457.99961
 521.19;11590.866;  -37.133;    0.000;11627.99955
 521.47;11485.533;  -30.200;    0.000;11515.73320
 521.75;11523.600;  -18.400;    0.000;11541.99961
 522.04;11714.200;  -42.867;    0.000;11757.06686
 522.32;11784.733;  -40.667;    0.000;11825.40007
 522.60;11872.467;  -16.067;    0.000;11888.53346
 522.88;12038.667;  -38.467;    0.000;12077.13366
 523.16;12018.200;  -42.933;    0.000;12061.13353
 523.44;12214.600;  -17.333;    0.000;12231.93294
 523.72;12273.533;  -19.133;    0.000;12292.66654
 524.00;12226.667;  -14.200;    0.000;12240.86699
 524.28;12469.467;  -41.333;    0.000;12510.80013
 524.57;12450.467;  -28.533;    0.000;12479.00013
 524.85;12703.533;  -20.933;    0.000;12724.46654
 525.13;12748.066;  -20.267;    0.000;12768.33307
 525.41;12696.467;  -13.533;    0.000;12710.00013
 525.69;12930.267;  -30.933;    0.000;12961.19993
 525.97;12978.800;  -13.467;    0.000;12992.26647
 526.25;13098.800;  -41.400;    0.000;13140.19981
 526.53;13258.800;  -28.467;    0.000;13287.26647
 526.81;13220.333;  -34.467;    0.000;13254.79967
 527.09;13282.000;  -26.000;    0.000;13308.00000
 527.37;13238.467;  -40.600;    0.000;13279.06680
 527.65;13371.667;  -36.933;    0.000;13408.60033
 527.93;13416.800;  -39.733;    0.000;13456.53314
 528.22;13535.800;  -12.733;    0.000;13548.53314
 528.50;13658.667;  -39.533;    0.000;13698.20033
 528.78;13607.733;  -13.867;    0.000;13621.60007
 529.06;13779.267;  -21.333;    0.000;13800.59994
 529.34;13903.400;  -27.933;    0.000;13931.33372
 529.62;13902.533;  -48.467;    0.000;13950.99987
 529.90;14003.200;  -42.733;    0.000;14045.93353
 530.18;14026.866;  -26.867;    0.000;14053.73288
 530.46;14126.800;  -23.533;    0.000;14150.33314
 530.74;14245.200;  -23.000;    0.000;14268.20020
 531.02;14224.934;  -20.800;    0.000;14245.73359
 531.30;14319.267;  -22.533;    0.000;14341.79993
 531.58;14402.733;  -30.800;    0.000;14433.53340
 531.86;14483.667;  -42.000;    0.000;14525.66699
 532.14;14455.066;  -34.733;    0.000;14489.79974
 532.42;14500.467;  -42.133;    0.000;14542.60013
 532.70;14595.134;  -27.200;    0.000;14622.33379
 532.98;14635.000;  -31.400;    0.000;14666.40000
 533.26;14648.333;  -14.000;    0.000;14662.33301
 533.54;14755.667;  -46.133;    0.000;14801.80033
 533.82;14973.267;  -33.467;    0.000;15006.73327
 534.10;14849.866;  -40.667;    0.000;14890.53288
 534.38;14908.467;  -29.267;    0.000;14937.73346
 534.66;14971.267;  -50.067;    0.000;15021.33327
 534.94;15056.066;  -21.800;    0.000;15077.86641
 535.22;15060.934;  -50.733;    0.000;15111.66693
 535.50;15145.066;  -29.933;    0.000;15174.99974
 535.78;15194.800;  -57.267;    0.000;15252.06647
 536.06;15243.066;  -50.533;    0.000;15293.59974
 536.34;15330.000;  -55.067;    0.000;15385.06667
 536.62;15283.934;  -33.400;    0.000;15317.33360
 536.90;15330.800;  -44.533;    0.000;15375.33314
 537.18;15449.200;  -23.600;    0.000;15472.80020
 537.46;15382.733;  -53.933;    0.000;15436.66673
 537.74;15584.400;  -38.400;    0.000;15622.80039
 538.02;15626.866;  -15.733;    0.000;15642.59954
 538.30;15654.800;  -30.267;    0.000;15685.06647
 538.58;15627.733;  -46.400;    0.000;15674.13340
 538.86;15759.667;  -34.733;    0.000;15794.40033
 539.14;15769.400;  -25.333;    0.000;15794.73372
 539.42;15697.267;  -22.067;    0.000;15719.33327
 539.70;15784.400;  -54.133;    0.000;15838.53373
 539.98;15936.866;  -11.467;    0.000;15948.33288
 540.26;16009.800;  -16.667;    0.000;16026.46647
 540.54;15967.533;  -38.000;    0.000;16005.53320
 540.82;15964.000;  -36.067;    0.000;16000.06667
 541.10;16136.267;  -25.067;    0.000;16161.33327
 541.38;16068.866;  -34.667;    0.000;16103.53288
 541.66;16129.200;  -18.600;    0.000;16147.80020
 541.94;16162.467;  -29.467;    0.000;16191.93346
 542.22;16235.934;  -28.533;    0.000;16264.46693
 542.50;16320.400;  -51.800;    0.000;16372.20039
 542.78;16307.200;  -26.200;    0.000;16333.40020
 543.06;16355.333;  -43.733;    0.000;16399.06634
 543.34;16336.467;  -44.200;    0.000;16380.66680
 543.62;16454.400;  -22.133;    0.000;16476.53372
 543.90;16420.867;  -31.000;    0.000;16451.86719
 544.17;16464.867;  -27.200;    0.000;16492.06719
 544.45;16460.133;  -34.667;    0.000;16494.79948
 544.73;16460.133;  -29.867;    0.000;16489.99948
 545.01;16646.334;  -10.667;    0.000;16657.00065
 545.29;16623.801;  -42.667;    0.000;16666.46745
 545.57;16690.400;  -14.400;    0.000;16704.80039
 545.85;16759.133;  -28.467;    0.000;16787.59948
 546.13;16692.732;  -19.400;    0.000;16712.13242
 546.41;16675.867;  -18.867;    0.000;16694.73385
 546.69;16744.934;  -36.600;    0.000;16781.53359
 546.97;16710.334;  -46.333;    0.000;16756.66732
 547.25;16815.467;  -34.200;    0.000;16849.66680
 547.52;16830.000;  -22.667;    0.000;16852.66667
 547.80;16788.334;  -30.600;    0.000;16818.93398
 548.08;16860.334;  -48.133;    0.000;16908.46732
 548.36;16887.666;  -28.867;    0.000;16916.53268
 548.64;16942.666;  -30.267;    0.000;16972.93268
 548.92;16888.801;  -36.800;    0.000;16925.60078
 549.20;17055.801;  -38.533;    0.000;17094.33411
 549.48;17033.066;  -27.133;    0.000;17060.19974
 549.76;17094.400;  -38.333;    0.000;17132.73372
 550.04;17073.199;  -29.867;    0.000;17103.06589
 550.31;17023.199;  -33.267;    0.000;17056.46589
 550.59;17131.533;  -31.533;    0.000;17163.06654
 550.87;17068.867;  -45.400;    0.000;17114.26719
 551.15;17080.467;  -19.267;    0.000;17099.73346
 551.43;17128.600;  -39.067;    0.000;17167.66628
 551.71;17119.533;  -31.667;    0.000;17151.19987
 551.99;17191.867;  -37.000;    0.000;17228.86719
 552.27;17024.867;  -30.533;    0.000;17055.40052
 552.54;17241.334;  -25.933;    0.000;17267.26732
 552.82;17329.732;  -26.600;    0.000;17356.33242
 553.10;17212.000;  -22.800;    0.000;17234.80000
 553.38;17342.732;  -32.333;    0.000;17375.06575
 553.66;17263.867;  -23.133;    0.000;17287.00052
 553.94;17197.133;  -36.200;    0.000;17233.33281
 554.22;17294.867;  -26.200;    0.000;17321.06719
 554.49;17335.600;  -11.067;    0.000;17346.66628
 554.77;17189.801;  -34.200;    0.000;17224.00078
 555.05;17322.666;  -24.867;    0.000;17347.53268
 555.33;17184.268;  -40.333;    0.000;17224.60091
 555.61;17195.934;  -45.733;    0.000;17241.66693
 555.89;17334.533;  -39.667;    0.000;17374.19987
 556.16;17254.533;  -49.933;    0.000;17304.46654
 556.44;17182.533;  -57.333;    0.000;17239.86654
 556.72;17304.533;  -27.000;    0.000;17331.53320
 557.00;17266.600;  -41.933;    0.000;17308.53294
 557.28;17318.400;  -31.133;    0.000;17349.53372
 557.56;17220.000;  -48.067;    0.000;17268.06667
 557.83;17264.199;  -25.400;    0.000;17289.59922
 558.11;17210.732;  -26.533;    0.000;17237.26575
 558.39;17203.533;  -50.467;    0.000;17253.99987
 558.67;17258.867;  -48.133;    0.000;17307.00052
 558.95;17205.801;  -46.600;    0.000;17252.40078
 559.23;17299.801;  -47.200;    0.000;17347.00078
 559.50;17149.467;  -35.933;    0.000;17185.40013
 559.78;17304.400;  -30.400;    0.000;17334.80039
 560.06;17182.533;  -42.667;    0.000;17225.19987
 560.34;17122.533;  -24.667;    0.000;17147.19987
 560.62;17241.801;  -29.467;    0.000;17271.26745
 560.89;17133.467;  -18.000;    0.000;17151.46680
 561.17;17150.133;  -30.733;    0.000;17180.86615
 561.45;17035.066;  -35.133;    0.000;17070.19974
 561.73;17064.334;  -32.933;    0.000;17097.26732
 562.00;17113.600;  -37.067;    0.000;17150.66628
 562.28;17132.467;  -25.000;    0.000;17157.46680
 562.56;16995.801;  -45.333;    0.000;17041.13411
 562.84;16992.732;  -17.133;    0.000;17009.86576
 563.12;17085.801;  -39.200;    0.000;17125.00078
 563.39;16998.199;  -40.267;    0.000;17038.46589
 563.67;16952.000;  -37.333;    0.000;16989.33333
 563.95;17056.600;  -17.667;    0.000;17074.26628
 564.23;16925.533;  -26.733;    0.000;16952.26654
 564.50;16929.066;  -33.533;    0.000;16962.59974
 564.78;16840.801;   -7.933;    0.000;16848.73411
 565.06;16860.467;  -30.000;    0.000;16890.46680
 565.34;16831.334;  -36.600;    0.000;16867.93398
 565.61;16845.334;  -43.600;    0.000;16888.93398
 565.89;16721.801;  -19.933;    0.000;16741.73411
 566.17;16696.934;  -34.333;    0.000;16731.26693
 566.45;16672.666;  -42.333;    0.000;16714.99935
 566.73;16647.334;  -30.200;    0.000;16677.53399
 567.00;16562.533;  -49.067;    0.000;16611.59987
 567.28;16582.732;  -40.000;    0.000;16622.73242
 567.56;16500.600;  -22.867;    0.000;16523.46628
 567.83;16561.066;  -43.533;    0.000;16604.59974
 568.11;16577.467;  -37.000;    0.000;16614.46680
 568.39;16358.667;  -27.000;    0.000;16385.66699
 568.67;16313.866;  -23.733;    0.000;16337.59954
 568.94;16500.934;  -23.600;    0.000;16524.53359
 569.22;16405.467;  -24.600;    0.000;16430.06680
 569.50;16463.934;  -43.267;    0.000;16507.20026
 569.78;16306.733;  -11.400;    0.000;16318.13340
 570.05;16341.533;  -33.333;    0.000;16374.86654
 570.33;16253.733;  -29.133;    0.000;16282.86673
 570.61;16257.533;  -40.000;    0.000;16297.53320
 570.88;16179.400;  -44.800;    0.000;16224.20039
 571.16;16130.333;  -29.467;    0.000;16159.79967
 571.44;16049.866;  -47.600;    0.000;16097.46621
 571.72;15910.600;  -31.467;    0.000;15942.06628
 571.99;15972.533;  -30.600;    0.000;16003.13320
 572.27;15912.200;  -41.133;    0.000;15953.33353
 572.55;15875.333;  -39.667;    0.000;15914.99968
 572.82;15789.333;  -27.133;    0.000;15816.46634
 573.10;15775.333;  -41.933;    0.000;15817.26634
 573.38;15714.800;  -59.867;    0.000;15774.66647
 573.65;15668.467;  -22.667;    0.000;15691.13346
 573.93;15579.667;  -48.933;    0.000;15628.60033
 574.21;15617.934;  -54.333;    0.000;15672.26693
 574.48;15524.134;  -51.267;    0.000;15575.40046
 574.76;15406.400;  -44.333;    0.000;15450.73372
 575.04;15357.533;  -25.333;    0.000;15382.86654
 575.32;15384.267;  -18.400;    0.000;15402.66660
 575.59;15324.934;  -29.333;    0.000;15354.26693
 575.87;15347.400;  -40.733;    0.000;15388.13372
 576.15;15280.000;  -20.133;    0.000;15300.13333
 576.42;15167.533;  -36.267;    0.000;15203.79987
 576.70;15003.400;  -39.467;    0.000;15042.86706
 576.98;15107.333;  -23.333;    0.000;15130.66634
 577.25;14993.467;  -37.200;    0.000;15030.66680
 577.53;14926.600;  -52.800;    0.000;14979.39961
 577.80;14885.400;  -40.333;    0.000;14925.73372
 578.08;14903.533;  -32.867;    0.000;14936.39987
 578.36;14872.533;  -36.133;    0.000;14908.66654
 578.63;14873.934;  -55.000;    0.000;14928.93359
 578.91;14711.800;  -30.867;    0.000;14742.66647
 579.19;14506.066;  -42.000;    0.000;14548.06641
 579.46;14543.134;  -32.533;    0.000;14575.66712
 579.74;14504.866;  -26.733;    0.000;14531.59954
 580.02;14415.333;  -28.267;    0.000;14443.59967
 580.29;14406.733;  -41.933;    0.000;14448.66673
 580.57;14316.267;  -45.200;    0.000;14361.46660
 580.84;14218.066;  -45.000;    0.000;14263.06641
 581.12;14160.467;   -9.333;    0.000;14169.80013
 581.40;14102.934;  -37.533;    0.000;14140.46693
 581.67;14008.200;  -44.533;    0.000;14052.73353
 581.95;13969.467;  -39.933;    0.000;14009.40013
 582.23;13943.533;  -27.800;    0.000;13971.33320
 582.50;13857.267;  -44.133;    0.000;13901.39994
 582.78;13764.866;  -38.800;    0.000;13803.66621
 583.05;13640.800;  -24.000;    0.000;13664.79980
 583.33;13696.934;  -19.800;    0.000;13716.73359
 583.61;13536.000;  -30.000;    0.000;13566.00000
 583.88;13538.134;  -38.267;    0.000;13576.40046
 584.16;13480.467;  -40.600;    0.000;13521.06680
 584.43;13349.333;  -43.933;    0.000;13393.26634
 584.71;13250.533;  -44.000;    0.000;13294.53320
 584.99;13256.066;  -27.400;    0.000;13283.46641
 585.26;13235.267;  -42.667;    0.000;13277.93327
 585.54;13128.733;  -31.200;    0.000;13159.93340
 585.81;13079.200;  -12.800;    0.000;13092.00020
 586.09;12964.134;  -17.267;    0.000;12981.40046
 586.37;12950.533;  -35.400;    0.000;12985.93320
 586.64;12741.066;  -40.267;    0.000;12781.33307
 586.92;12736.200;  -45.533;    0.000;12781.73353
 587.19;12752.600;  -41.467;    0.000;12794.06628
 587.47;12728.134;  -47.533;    0.000;12775.66712
 587.74;12655.667;  -31.467;    0.000;12687.13366
 588.02;12483.934;  -23.133;    0.000;12507.06693
 588.30;12469.066;  -46.467;    0.000;12515.53307
 588.57;12445.866;  -42.800;    0.000;12488.66621
 588.85;12276.667;  -34.267;    0.000;12310.93366
 589.12;12151.400;  -38.333;    0.000;12189.73372
 589.40;12120.400;  -27.733;    0.000;12148.13372
 589.67;12106.600;  -49.200;    0.000;12155.79961
 589.95;12009.000;  -27.400;    0.000;12036.40000
 590.22;12007.800;  -37.067;    0.000;12044.86647
 590.50;11947.000;  -45.333;    0.000;11992.33333
 590.77;11761.866;  -30.667;    0.000;11792.53288
 591.05;11773.934;  -32.600;    0.000;11806.53359
 591.33;11834.733;  -26.067;    0.000;11860.80007
 591.60;11677.600;  -55.267;    0.000;11732.86628
 591.88;11593.134;  -44.467;    0.000;11637.60046
 592.15;11416.533;  -57.200;    0.000;11473.73320
 592.43;11389.800;  -46.467;    0.000;11436.26647
 592.70;11344.066;  -40.067;    0.000;11384.13307
 592.98;11315.800;  -28.667;    0.000;11344.46647
 593.25;11228.533;  -21.467;    0.000;11249.99987
 593.53;11096.267;  -50.067;    0.000;11146.33327
 593.80;11038.733;  -49.467;    0.000;11088.20007
 594.08;10986.134;  -49.800;    0.000;11035.93379
 594.35;10893.667;  -46.200;    0.000;10939.86699
 594.63;10835.533;  -50.400;    0.000;10885.93320
 594.90;10676.533;  -29.067;    0.000;10705.59987
 595.18;10806.733;  -43.067;    0.000;10849.80006
 595.45;10671.533;  -32.600;    0.000;10704.13320
 595.73;10544.200;  -56.533;    0.000;10600.73353
 596.00;10524.066;  -39.400;    0.000;10563.46641
 596.28;10422.333;  -41.733;    0.000;10464.06634
 596.55;10398.333;  -38.867;    0.000;10437.19967
 596.83;10279.800;  -44.467;    0.000;10324.26647
 597.10;10206.333;  -24.267;    0.000;10230.59967
 597.38;10089.200;  -50.867;    0.000;10140.06686
 597.65;10078.200;  -42.400;    0.000;10120.60020
 597.93; 9982.533;  -48.267;    0.000;10030.79987
 598.20; 9813.467;  -46.133;    0.000;9859.60013
 598.48; 9695.533;  -43.733;    0.000;9739.26654
 598.75; 9866.333;  -61.400;    0.000;9927.73301
 599.03; 9663.400;  -46.400;    0.000;9709.80039
 599.30; 9691.200;  -40.667;    0.000;9731.86686
 599.58; 9517.533;  -40.400;    0.000;9557.93320
 599.85; 9494.066;  -43.533;    0.000;9537.59974
 600.12; 9472.400;  -33.000;    0.000;9505.40039
 600.40; 9341.467;  -43.933;    0.000;9385.40013
 600.67; 9314.667;  -62.400;    0.000;9377.06699
 600.95; 9175.400;  -46.800;    0.000;9222.20039
 601.22; 9186.800;  -30.733;    0.000;9217.53314
 601.50; 9077.533;  -30.800;    0.000;9108.33320
 601.77; 9088.333;  -33.333;    0.000;9121.66634
 602.05; 8944.600;  -28.800;    0.000;8973.39961
 602.32; 8928.134;  -25.533;    0.000;8953.66712
 602.59; 8884.733;  -41.467;    0.000;8926.20007
 602.87; 8789.467;  -36.133;    0.000;8825.60013
 603.14; 8671.800;  -34.733;    0.000;8706.53314
 603.42; 8719.000;  -51.733;    0.000;8770.73333
 603.69; 8622.600;  -37.733;    0.000;8660.33294
 603.97; 8595.134;  -68.133;    0.000;8663.26712
 604.24; 8581.134;  -38.933;    0.000;8620.06712
 604.51; 8426.000;  -14.667;    0.000;8440.66667
 604.79; 8279.733;  -32.267;    0.000;8312.00006
 605.06; 8311.134;  -44.133;    0.000;8355.26712
 605.34; 8194.400;  -33.400;    0.000;8227.80039
 605.61; 8145.333;  -43.000;    0.000;8188.33350
 605.89; 8114.733;  -33.867;    0.000;8148.60006
 606.16; 8067.333;  -40.200;    0.000;8107.53350
 606.43; 8023.600;  -36.800;    0.000;8060.40010
 606.71; 7982.733;  -33.933;    0.000;8016.66673
 606.98; 7896.533;  -41.467;    0.000;7937.99987
 607.26; 7857.467;  -24.000;    0.000;7881.46680
 607.53; 7853.467;  -38.867;    0.000;7892.33346
 607.80; 7730.667;  -21.067;    0.000;7751.73317
 608.08; 7756.800;  -37.600;    0.000;7794.39980
 608.35; 7669.000;  -48.333;    0.000;7717.33333
 608.62; 7539.267;  -52.200;    0.000;7591.46660
 608.90; 7518.733;  -29.733;    0.000;7548.46673
 609.17; 7521.200;  -48.600;    0.000;7569.80019
 609.45; 7468.933;  -44.933;    0.000;7513.86644
 609.72; 7428.533;  -45.133;    0.000;7473.66654
 609.99; 7281.733;  -31.933;    0.000;7313.66673
 610.27; 7359.133;  -42.600;    0.000;7401.73330
 610.54; 7288.733;  -37.333;    0.000;7326.06673
 610.81; 7214.800;  -30.200;    0.000;7244.99981
 611.09; 7212.400;  -46.933;    0.000;7259.33324
 611.36; 7092.867;  -31.333;    0.000;7124.20003
 611.64; 7099.733;  -32.600;    0.000;7132.33340
 611.91; 7022.733;  -37.000;    0.000;7059.73340
 612.18; 7003.600;  -48.267;    0.000;7051.86676
 612.46; 6990.467;  -16.667;    0.000;7007.13346
 612.73; 6949.067;  -29.933;    0.000;6979.00023
 613.00; 6886.467;  -38.533;    0.000;6925.00013
 613.28; 6748.933;  -38.267;    0.000;6787.19977
 613.55; 6716.800;  -48.067;    0.000;6764.86647
 613.82; 6678.133;  -64.267;    0.000;6742.39997
 614.10; 6686.600;  -64.067;    0.000;6750.66676
 614.37; 6571.400;  -36.533;    0.000;6607.93324
 614.64; 6484.800;  -49.333;    0.000;6534.13314
 614.92; 6436.867;  -58.667;    0.000;6495.53337
 615.19; 6366.000;  -23.533;    0.000;6389.53333
 615.46; 6242.333;  -45.133;    0.000;6287.46683
 615.74; 6183.867;  -23.200;    0.000;6207.06670
 616.01; 6134.133;  -63.467;    0.000;6197.59997
 616.28; 5956.667;  -41.467;    0.000;5998.13317
 616.56; 5945.400;  -48.600;    0.000;5993.99990
 616.83; 5745.400;  -20.467;    0.000;5765.86657
 617.10; 5687.800;  -26.333;    0.000;5714.13314
 617.37; 5783.933;  -31.933;    0.000;5815.86644
 617.65; 5831.467;  -30.933;    0.000;5862.40013
 617.92; 5894.267;  -41.733;    0.000;5935.99994
 618.19; 5773.267;  -42.533;    0.000;5815.79993
 618.47; 5813.733;  -36.667;    0.000;5850.40007
 618.74; 5703.800;  -40.933;    0.000;5744.73314
 619.01; 5706.267;  -64.067;    0.000;5770.33327
 619.28; 5661.133;  -52.800;    0.000;5713.93330
 619.56; 5645.933;  -49.533;    0.000;5695.46644
 619.83; 5630.733;  -53.467;    0.000;5684.20007
 620.10; 5567.067;  -36.667;    0.000;5603.73356
 620.38; 5593.533;  -63.933;    0.000;5657.46654
 620.65; 5531.800;  -43.400;    0.000;5575.19981
 620.92; 5483.467;  -43.000;    0.000;5526.46680
 621.19; 5496.267;  -44.133;    0.000;5540.39994
 621.47; 5468.333;  -43.133;    0.000;5511.46683
 621.74; 5523.200;  -41.000;    0.000;5564.20020
 622.01; 5440.133;  -44.333;    0.000;5484.46663
 622.28; 5496.933;  -15.200;    0.000;5512.13311
 622.56; 5443.933;  -30.200;    0.000;5474.13311
 622.83; 5448.933;  -55.067;    0.000;5503.99977
 623.10; 5423.533;  -47.267;    0.000;5470.79987
 623.38; 5471.667;  -42.600;    0.000;5514.26650
 623.65; 5428.200;  -28.333;    0.000;5456.53353
 623.92; 5469.867;  -40.933;    0.000;5510.80003
 624.19; 5333.867;  -75.400;    0.000;5409.26670
 624.46; 5227.667;  -31.400;    0.000;5259.06650
 624.74; 5303.667;  -29.600;    0.000;5333.26650
 625.01; 5196.933;  -33.333;    0.000;5230.26644
 625.28; 5177.933;  -36.800;    0.000;5214.73310
 625.55; 5140.600;  -42.667;    0.000;5183.26677
 625.83; 5211.000;  -50.200;    0.000;5261.20000
 626.10; 5189.600;  -41.667;    0.000;5231.26677
 626.37; 5124.533;  -43.333;    0.000;5167.86654
 626.64; 5143.667;  -45.867;    0.000;5189.53317
 626.92; 5052.400;  -52.467;    0.000;5104.86657
 627.19; 5090.933;  -45.600;    0.000;5136.53310
 627.46; 5043.600;  -32.800;    0.000;5076.40010
 627.73; 5018.200;  -49.800;    0.000;5068.00019
 628.00; 5064.400;  -45.533;    0.000;5109.93324
 628.28; 4957.467;  -24.533;    0.000;4982.00013
 628.55; 4991.133;  -56.267;    0.000;5047.39997
 628.82; 4947.800;  -32.667;    0.000;4980.46647
 629.09; 4892.867;  -42.467;    0.000;4935.33337
 629.36; 4915.800;  -28.733;    0.000;4944.53314
 629.64; 4854.733;  -16.333;    0.000;4871.06673
 629.91; 4951.200;  -41.467;    0.000;4992.66686
 630.18; 4784.600;  -42.667;    0.000;4827.26677
 630.45; 4859.267;  -47.933;    0.000;4907.19994
 630.72; 4773.800;  -68.667;    0.000;4842.46647
 631.00; 4776.333;  -33.333;    0.000;4809.66683
 631.27; 4759.867;  -54.867;    0.000;4814.73336
 631.54; 4683.800;  -33.400;    0.000;4717.19981
 631.81; 4648.333;  -53.667;    0.000;4702.00016
 632.08; 4611.733;  -44.267;    0.000;4656.00006
 632.35; 4680.867;  -19.867;    0.000;4700.73337
 632.63; 4686.867;  -59.067;    0.000;4745.93336
 632.90; 4673.067;  -47.600;    0.000;4720.66689
 633.17; 4559.133;  -38.333;    0.000;4597.46663
 633.44; 4516.600;  -57.467;    0.000;4574.06676
 633.71; 4583.867;  -55.667;    0.000;4639.53337
 633.98; 4540.133;  -45.000;    0.000;4585.13330
 634.25; 4514.867;  -59.133;    0.000;4574.00003
 634.53; 4513.333;  -36.333;    0.000;4549.66683
 634.80; 4563.200;  -53.333;    0.000;4616.53353
 635.07; 4595.400;  -53.933;    0.000;4649.33324
 635.34; 4566.200;  -28.400;    0.000;4594.60019
 635.61; 4542.667;  -55.533;    0.000;4598.19984
 635.88; 4485.733;  -45.200;    0.000;4530.93340
 636.15; 4498.667;  -26.200;    0.000;4524.86650
 636.43; 4593.533;  -50.200;    0.000;4643.73320
 636.70; 4534.600;  -37.467;    0.000;4572.06676
 636.97; 4481.533;  -48.867;    0.000;4530.39987
 637.24; 4423.533;  -53.067;    0.000;4476.59987
 637.51; 4360.333;  -24.800;    0.000;4385.13350
 637.78; 4343.733;  -53.000;    0.000;4396.73340
 638.05; 4269.000;  -41.067;    0.000;4310.06667
 638.32; 4302.133;  -31.533;    0.000;4333.66663
 638.60; 4247.400;  -28.133;    0.000;4275.53324
 638.87; 4246.000;  -62.667;    0.000;4308.66667
 639.14; 4174.067;  -47.867;    0.000;4221.93356
 639.41; 4193.467;  -43.867;    0.000;4237.33346
 639.68; 4123.267;  -37.467;    0.000;4160.73327
 639.95; 4111.133;  -60.533;    0.000;4171.66663
 640.22; 4061.533;  -50.000;    0.000;4111.53345
 640.49; 4065.867;  -32.400;    0.000;4098.26670
 640.76; 4004.333;  -47.200;    0.000;4051.53325
 641.03; 4006.800;  -56.133;    0.000;4062.93338
 641.30; 3872.400;  -50.933;    0.000;3923.33324
 641.58; 3842.667;  -49.000;    0.000;3891.66675
 641.85; 3866.133;  -61.467;    0.000;3927.59997
 642.12; 3802.733;  -27.933;    0.000;3830.66673
 642.39; 3732.667;  -47.933;    0.000;3780.60008
 642.66; 3717.800;  -58.133;    0.000;3775.93338
 642.93; 3694.667;  -38.733;    0.000;3733.40008
 643.20; 3706.000;  -31.133;    0.000;3737.13333
 643.47; 3695.933;  -64.467;    0.000;3760.40002
 643.74; 3695.667;  -37.067;    0.000;3732.73341
 644.01; 3624.867;  -51.000;    0.000;3675.86670
 644.28; 3578.733;  -45.000;    0.000;3623.73340
 644.55; 3532.267;  -49.200;    0.000;3581.46660
 644.82; 3510.333;  -50.000;    0.000;3560.33325
 645.09; 3543.600;  -33.600;    0.000;3577.20010
 645.36; 3466.733;  -33.333;    0.000;3500.06673
 645.63; 3451.733;  -40.467;    0.000;3492.20007
 645.91; 3387.600;  -53.600;    0.000;3441.20010
 646.18; 3456.800;  -29.533;    0.000;3486.33338
 646.45; 3385.400;  -44.933;    0.000;3430.33324
 646.72; 3404.600;  -51.000;    0.000;3455.60010
 646.99; 3385.133;  -59.867;    0.000;3444.99997
 647.26; 3349.267;  -44.200;    0.000;3393.46660
 647.53; 3307.400;  -51.133;    0.000;3358.53324
 647.80; 3272.067;  -11.667;    0.000;3283.73332
 648.07; 3266.067;  -45.933;    0.000;3311.99998
 648.34; 3290.733;  -39.000;    0.000;3329.73340
 648.61; 3210.467;  -42.267;    0.000;3252.73322
 648.88; 3234.400;  -63.800;    0.000;3298.19990
 649.15; 3204.667;  -55.333;    0.000;3260.00008
 649.42; 3154.333;  -52.400;    0.000;3206.73325
 649.69; 3125.133;  -34.733;    0.000;3159.86663
 649.96; 3113.067;  -39.267;    0.000;3152.33332
 650.23; 3125.733;  -47.333;    0.000;3173.06673
 650.50; 3089.867;  -28.600;    0.000;3118.46670
 650.77; 3078.000;  -58.200;    0.000;3136.20000
 651.04; 3035.067;  -43.867;    0.000;3078.93332
 651.31; 3033.133;  -58.400;    0.000;3091.53330
 651.58; 2989.200;  -34.667;    0.000;3023.86662
 651.85; 2981.467;  -48.400;    0.000;3029.86655
 652.12; 3035.867;  -24.933;    0.000;3060.80003
 652.39; 2927.133;  -53.933;    0.000;2981.06664
 652.66; 2973.067;  -49.333;    0.000;3022.39998
 652.93; 2862.333;  -51.133;    0.000;2913.46659
 653.20; 2908.867;  -53.467;    0.000;2962.33337
 653.47; 2915.067;  -46.133;    0.000;2961.19999
 653.74; 2849.933;  -45.200;    0.000;2895.13335
 654.01; 2900.267;  -38.533;    0.000;2938.79993
 654.28; 2780.867;  -44.867;    0.000;2825.73336
 654.55; 2778.800;  -66.867;    0.000;2845.66672
 654.81; 2772.667;  -46.467;    0.000;2819.13342
 655.08; 2791.267;  -45.133;    0.000;2836.39994
 655.35; 2767.267;  -49.533;    0.000;2816.79993
 655.62; 2673.267;  -36.400;    0.000;2709.66660
 655.89; 2716.200;  -46.267;    0.000;2762.46662
 656.16; 2650.733;  -52.133;    0.000;2702.86673
 656.43; 2669.600;  -50.867;    0.000;2720.46676
 656.70; 2582.533;  -44.800;    0.000;2627.33345
 656.97; 2657.000;  -54.200;    0.000;2711.20000
 657.24; 2609.000;  -53.267;    0.000;2662.26667
 657.51; 2610.600;  -76.267;    0.000;2686.86677
 657.78; 2591.067;  -49.733;    0.000;2640.79998
 658.05; 2583.600;  -64.067;    0.000;2647.66676
 658.32; 2533.400;  -66.333;    0.000;2599.73324
 658.59; 2500.733;  -43.133;    0.000;2543.86673
 658.86; 2478.733;  -67.133;    0.000;2545.86673
 659.12; 2508.600;  -30.000;    0.000;2538.60010
 659.39; 2475.733;  -44.133;    0.000;2519.86673
 659.66; 2407.933;  -42.267;    0.000;2450.20002
 659.93; 2434.200;  -37.867;    0.000;2472.06662
 660.20; 2455.600;  -56.133;    0.000;2511.73343
 660.47; 2433.267;  -54.200;    0.000;2487.46660
 660.74; 2399.533;  -38.400;    0.000;2437.93345
 661.01; 2379.067;  -44.133;    0.000;2423.19999
 661.28; 2315.600;  -47.667;    0.000;2363.26677
 661.55; 2345.267;   -5.533;    0.000;2350.79993
 661.81; 2276.467;  -55.200;    0.000;2331.66655
 662.08; 2322.400;  -46.733;    0.000;2369.13324
 662.35; 2285.733;  -46.800;    0.000;2332.53340
 662.62; 2254.200;  -50.000;    0.000;2304.19995
 662.89; 2262.867;  -45.600;    0.000;2308.46670
 663.16; 2228.733;  -49.867;    0.000;2278.60006
 663.43; 2220.667;  -44.733;    0.000;2265.40008
 663.70; 2183.800;  -55.667;    0.000;2239.46672
 663.96; 2186.400;  -45.267;    0.000;2231.66657
 664.23; 2158.400;  -52.600;    0.000;2210.99990
 664.50; 2166.667;  -55.600;    0.000;2222.26675
 664.77; 2141.000;  -51.333;    0.000;2192.33333
 665.04; 2126.067;  -54.400;    0.000;2180.46665
 665.31; 2090.600;  -59.800;    0.000;2150.40010
 665.58; 2108.067;  -48.133;    0.000;2156.19999
 665.84; 2057.600;  -35.333;    0.000;2092.93343
 666.11; 2039.267;  -56.733;    0.000;2096.00006
 666.38; 2035.067;  -46.600;    0.000;2081.66665
 666.65; 2011.000;  -41.400;    0.000;2052.40000
 666.92; 2004.667;  -63.600;    0.000;2068.26662
 667.19; 2002.800;  -62.200;    0.000;2065.00005
 667.46; 1982.667;  -44.067;    0.000;2026.73329
 667.72; 1964.933;  -38.333;    0.000;2003.26668
 667.99; 1932.533;  -43.200;    0.000;1975.73333
 668.26; 1896.800;  -51.867;    0.000;1948.66671
 668.53; 1873.867;  -57.067;    0.000;1930.93336
 668.80; 1895.333;  -25.333;    0.000;1920.66671
 669.06; 1855.133;  -42.933;    0.000;1898.06664
 669.33; 1878.400;  -38.533;    0.000;1916.93336
 669.60; 1873.067;  -47.800;    0.000;1920.86665
 669.87; 1791.333;  -51.467;    0.000;1842.80004
 670.14; 1837.467;  -47.467;    0.000;1884.93334
 670.41; 1823.867;  -45.600;    0.000;1869.46670
 670.67; 1822.733;  -52.333;    0.000;1875.06661
 670.94; 1753.067;  -57.067;    0.000;1810.13332
 671.21; 1793.667;  -37.133;    0.000;1830.79996
 671.48; 1753.533;  -63.533;    0.000;1817.06666
 671.75; 1717.533;  -43.867;    0.000;1761.39999
 672.01; 1730.333;  -41.267;    0.000;1771.60004
 672.28; 1728.467;  -28.467;    0.000;1756.93334
 672.55; 1707.600;  -41.200;    0.000;1748.79998
 672.82; 1675.800;  -45.133;    0.000;1720.93338
 673.08; 1649.800;  -47.667;    0.000;1697.46672
 673.35; 1669.000;  -60.000;    0.000;1729.00000
 673.62; 1636.200;  -58.933;    0.000;1695.13329
 673.89; 1622.533;  -54.067;    0.000;1676.59999
 674.16; 1608.467;  -52.267;    0.000;1660.73334
 674.42; 1573.600;  -41.133;    0.000;1614.73331
 674.69; 1597.800;  -36.733;    0.000;1634.53338
 674.96; 1598.200;  -52.933;    0.000;1651.13329
 675.23; 1531.133;  -69.933;    0.000;1601.06664
 675.49; 1529.067;  -59.400;    0.000;1588.46665
 675.76; 1525.600;  -54.733;    0.000;1580.33331
 676.03; 1516.800;  -30.667;    0.000;1547.46671
 676.30; 1528.467;  -51.600;    0.000;1580.06667
 676.56; 1505.533;  -55.533;    0.000;1561.06666
 676.83; 1493.533;  -40.467;    0.000;1533.99999
 677.10; 1507.000;  -51.133;    0.000;1558.13334
 677.37; 1483.533;  -23.667;    0.000;1507.19999
 677.63; 1435.933;  -54.933;    0.000;1490.86668
 677.90; 1430.200;  -48.200;    0.000;1478.39995
 678.17; 1443.200;  -53.200;    0.000;1496.39995
 678.44; 1373.067;  -34.333;    0.000;1407.39998
 678.70; 1373.067;  -54.533;    0.000;1427.59998
 678.97; 1405.933;  -49.000;    0.000;1454.93335
 679.24; 1360.067;  -54.000;    0.000;1414.06665
 679.50; 1331.933;  -68.267;    0.000;1400.20002
 679.77; 1383.667;  -48.267;    0.000;1431.93329
 680.04; 1351.933;  -45.800;    0.000;1397.73335
 680.31; 1312.333;  -58.333;    0.000;1370.66671
 680.57; 1337.333;  -55.400;    0.000;1392.73338
 680.84; 1353.200;  -56.933;    0.000;1410.13329
 681.11; 1311.067;  -33.533;    0.000;1344.59998
 681.37; 1296.067;  -52.000;    0.000;1348.06665
 681.64; 1269.600;  -49.067;    0.000;1318.66664
 681.91; 1285.267;  -55.267;    0.000;1340.53339
 682.17; 1268.533;  -18.133;    0.000;1286.66666
 682.44; 1231.267;  -63.867;    0.000;1295.13339
 682.71; 1234.800;  -35.200;    0.000;1270.00005
 682.98; 1191.733;  -53.000;    0.000;1244.73328
 683.24; 1219.667;  -56.733;    0.000;1276.39996
 683.51; 1231.867;  -48.467;    0.000;1280.33337
 683.78; 1216.467;  -38.467;    0.000;1254.93334
 684.04; 1176.333;  -53.400;    0.000;1229.73338
 684.31; 1109.067;  -62.267;    0.000;1171.33332
 684.58; 1163.667;  -55.800;    0.000;1219.46663
 684.84; 1176.800;  -54.133;    0.000;1230.93338
 685.11; 1089.533;  -64.200;    0.000;1153.73332
 685.38; 1135.733;  -37.000;    0.000;1172.73328
 685.64; 1123.600;  -45.133;    0.000;1168.73331
 685.91; 1112.200;  -56.400;    0.000;1168.59995
 686.17; 1101.467;  -60.733;    0.000;1162.20001
 686.44; 1117.867;  -49.867;    0.000;1167.73336
 686.71; 1069.533;  -52.733;    0.000;1122.26666
 686.97; 1108.400;  -58.733;    0.000;1167.13336
 687.24; 1082.200;  -56.467;    0.000;1138.66662
 687.51; 1071.800;  -67.800;    0.000;1139.60005
 687.77; 1084.867;  -47.467;    0.000;1132.33337
 688.04; 1051.600;  -31.133;    0.000;1082.73331
 688.31; 1008.600;  -49.200;    0.000;1057.79998
 688.57; 1018.933;  -37.867;    0.000;1056.80001
 688.84; 1029.067;  -41.667;    0.000;1070.73332
 689.10; 1023.933;  -61.867;    0.000;1085.80001
 689.37;  985.733;  -52.600;    0.000;1038.33334
 689.64;  987.467;  -71.533;    0.000;1059.00001
 689.90;  984.400;  -48.667;    0.000;1033.06669
 690.17;  940.067;  -66.267;    0.000;1006.33332
 690.44;  923.733;  -61.733;    0.000;985.46667
 690.70;  955.867;  -34.267;    0.000;990.13330
 690.97;  907.533;  -62.067;    0.000;969.59999
 691.23;  940.800;  -58.867;    0.000;999.66665
 691.50;  923.733;  -52.333;    0.000;976.06667
 691.77;  894.333;  -51.867;    0.000;946.19998
 692.03;  899.200;  -49.600;    0.000;948.80001
 692.30;  946.067;  -52.667;    0.000;998.73332
 692.56;  881.467;  -55.267;    0.000;936.73334
 692.83;  869.133;  -61.933;    0.000;931.06670
 693.10;  904.467;  -51.400;    0.000;955.86668
 693.36;  843.000;  -35.400;    0.000;878.40000
 693.63;  817.267;  -73.533;    0.000;890.80000
 693.89;  827.200;  -53.000;    0.000;880.20001
 694.16;  810.133;  -44.333;    0.000;854.46669
 694.42;  813.333;  -67.667;    0.000;880.99998
 694.69;  830.800;  -24.933;    0.000;855.73332
 694.96;  797.400;  -21.933;    0.000;819.33336
 695.22;  776.533;  -57.800;    0.000;834.33332
 695.49;  807.667;  -55.133;    0.000;862.80002
 695.75;  759.267;  -61.333;    0.000;820.59999
 696.02;  772.400;  -55.600;    0.000;828.00002
 696.28;  760.933;  -58.733;    0.000;819.66668
 696.55;  724.467;  -68.467;    0.000;792.93334
 696.81;  716.533;  -47.000;    0.000;763.53333
 697.08;  739.400;  -50.133;    0.000;789.53336
 697.34;  727.733;  -48.733;    0.000;776.46667
 697.61;  732.067;  -57.200;    0.000;789.26665
 697.88;  714.267;  -43.800;    0.000;758.06666
 698.14;  680.000;  -59.733;    0.000;739.73333
 698.41;  695.267;  -36.067;    0.000;731.33333
 698.67;  670.533;  -59.600;    0.000;730.13332
 698.94;  648.133;  -46.333;    0.000;694.46669
 699.20;  687.333;  -56.600;    0.000;743.93331
 699.47;  678.667;  -58.933;    0.000;737.60002
 699.73;  623.733;  -47.800;    0.000;671.53334
 700.00;  631.800;  -60.667;    0.000;692.46666
 700.26;  610.133;  -64.867;    0.000;675.00003
 700.53;  609.333;  -46.867;    0.000;656.19998
 700.79;  605.067;  -57.933;    0.000;662.99998
 701.06;  612.133;  -79.733;    0.000;691.86669
 701.32;  582.400;  -52.533;    0.000;634.93336
 701.59;  572.267;  -54.867;    0.000;627.13333
 701.85;  564.333;  -48.667;    0.000;612.99998
 702.12;  562.067;  -71.467;    0.000;633.53332
 702.38;  567.267;  -49.867;    0.000;617.13333
 702.65;  543.867;  -45.133;    0.000;588.99997
 702.91;  561.467;  -34.000;    0.000;595.46667
 703.18;  540.867;  -56.933;    0.000;597.79997
 703.44;  543.200;  -57.600;    0.000;600.80001
 703.71;  502.867;  -60.733;    0.000;563.60000
 703.97;  493.133;  -45.867;    0.000;539.00000
 704.24;  500.267;  -37.933;    0.000;538.20000
 704.50;  496.467;  -78.533;    0.000;575.00001
 704.76;  509.867;  -47.000;    0.000;556.86667
 705.03;  475.200;  -23.400;    0.000;498.60001
 705.29;  426.000;  -56.667;    0.000;482.66667
 705.56;  447.400;  -41.933;    0.000;489.33333
 705.82;  432.333;  -58.200;    0.000;490.53334
 706.09;  501.400;  -40.667;    0.000;542.06666
 706.35;  475.333;  -62.533;    0.000;537.86668
 706.62;  425.200;  -46.667;    0.000;471.86668
 706.88;  428.133;  -50.067;    0.000;478.20000
 707.15;  421.133;  -38.533;    0.000;459.66666
 707.41;  375.067;  -55.600;    0.000;430.66668
 707.67;  366.000;  -58.200;    0.000;424.20000
 707.94;  385.933;  -41.067;    0.000;426.99998
 708.20;  356.667;  -72.667;    0.000;429.33332
 708.47;  369.667;  -53.133;    0.000;422.79999
 708.73;  379.067;  -51.400;    0.000;430.46668
 709.00;  348.133;  -61.867;    0.000;410.00000
 709.26;  371.533;  -45.467;    0.000;416.99999
 709.52;  347.800;  -56.467;    0.000;404.26665
 709.79;  359.000;  -58.467;    0.000;417.46667
 710.05;  321.333;  -70.067;    0.000;391.40001
 710.32;  317.800;  -35.200;    0.000;352.99999
 710.58;  293.267;  -74.333;    0.000;367.60000
 710.84;  340.867;  -55.133;    0.000;396.00000
 711.11;  344.067;  -68.800;    0.000;412.86668
 711.37;  313.600;  -59.533;    0.000;373.13334
 711.64;  295.667;  -56.000;    0.000;351.66666
 711.90;  309.067;  -67.533;    0.000;376.60001
 712.16;  282.067;  -49.267;    0.000;331.33335
 712.43;  279.867;  -50.933;    0.000;330.80000
 712.69;  251.000;  -50.067;    0.000;301.06667
 712.96;  299.200;  -51.800;    0.000;351.00001
 713.22;  264.800;  -63.200;    0.000;327.99999
 713.48;  287.533;  -63.533;    0.000;351.06666
 713.75;  299.867;  -38.133;    0.000;338.00000
 714.01;  275.400;  -67.667;    0.000;343.06666
 714.27;  250.200;  -35.467;    0.000;285.66666
 714.54;  263.200;  -57.333;    0.000;320.53334
 714.80;  259.733;  -70.800;    0.000;330.53334
 715.06;  253.800;  -38.533;    0.000;292.33334
 715.33;  254.733;  -53.600;    0.000;308.33334
 715.59;  257.600;  -53.733;    0.000;311.33334
 715.86;  257.400;  -56.733;    0.000;314.13333
 716.12;  252.467;  -54.933;    0.000;307.39999
 716.38;  262.800;  -57.067;    0.000;319.86665
 716.65;  222.533;  -31.267;    0.000;253.80001
 716.91;  270.533;  -58.800;    0.000;329.33332
 717.17;  238.667;  -36.200;    0.000;274.86667
 717.44;  242.533;  -48.867;    0.000;291.40001
 717.70;  232.667;  -66.933;    0.000;299.60001
 717.96;  220.067;  -48.133;    0.000;268.20000
 718.23;  242.667;  -45.800;    0.000;288.46667
 718.49;  229.933;  -53.467;    0.000;283.40000
 718.75;  242.667;  -55.133;    0.000;297.80001
 719.02;  220.133;  -50.267;    0.000;270.40000
 719.28;  236.467;  -61.000;    0.000;297.46666
 719.54;  189.600;  -65.800;    0.000;255.40001
 719.80;  192.933;  -53.467;    0.000;246.40000
 720.07;  201.333;  -59.800;    0.000;261.13333
 720.33;  209.133;  -62.600;    0.000;271.73333
 720.59;  220.600;  -62.733;    0.000;283.33334
 720.86;  191.533;  -65.933;    0.000;257.46667
 721.12;  231.133;  -55.867;    0.000;287.00000
 721.38;  223.267;  -54.200;    0.000;277.46666
 721.65;  226.800;  -69.667;    0.000;296.46667
 721.91;  209.933;  -32.600;    0.000;242.53333
 722.17;  191.467;  -58.000;    0.000;249.46666
 722.43;  208.533;  -38.733;    0.000;247.26667
 722.70;  197.933;  -70.533;    0.000;268.46667
 722.96;  216.333;  -50.933;    0.000;267.26666
 723.22;  195.867;  -62.267;    0.000;258.13334
 723.48;  204.200;  -67.667;    0.000;271.86666
 723.75;  174.867;  -54.333;    0.000;229.20000
 724.01;  204.733;  -39.933;    0.000;244.66667
 724.27;  178.467;  -56.933;    0.000;235.39999
 724.54;  194.667;  -45.867;    0.000;240.53334
 724.80;  174.667;  -68.200;    0.000;242.86667
 725.06;  176.067;  -66.267;    0.000;242.33334
 725.32;  213.467;  -60.400;    0.000;273.86666
 725.59;  188.467;  -68.467;    0.000;256.93333
 725.85;  201.667;  -67.067;    0.000;268.73334
 726.11;  197.867;  -63.133;    0.000;261.00000
 726.37;  186.467;  -52.333;    0.000;238.79999
 726.64;  210.133;  -35.000;    0.000;245.13333
 726.90;  203.867;  -57.400;    0.000;261.26667
 727.16;  177.667;  -63.400;    0.000;241.06667
 727.42;  201.667;  -73.467;    0.000;275.13334
 727.68;  172.600;  -83.733;    0.000;256.33334
 727.95;  186.867;  -76.867;    0.000;263.73334
 728.21;  208.067;  -50.200;    0.000;258.26667
 728.47;  180.400;  -52.600;    0.000;232.99999
 728.73;  197.067;  -20.467;    0.000;217.53333
 729.00;  207.867;  -45.000;    0.000;252.86667
 729.26;  205.533;  -46.400;    0.000;251.93334
 729.52;  159.867;  -76.467;    0.000;236.33334
 729.78;  201.733;  -80.933;    0.000;282.66667
 730.04;  187.867;  -49.000;    0.000;236.86667
 730.31;  176.133;  -60.800;    0.000;236.93333
 730.57;  164.333;  -68.133;    0.000;232.46666
 730.83;  183.000;  -71.267;    0.000;254.26667
 731.09;  190.933;  -51.733;    0.000;242.66667
 731.35;  192.933;  -61.933;    0.000;254.86667
 731.62;  165.600;  -74.267;    0.000;239.86668
 731.88;  199.000;  -64.133;    0.000;263.13333
 732.14;  182.533;  -70.533;    0.000;253.06667
 732.40;  175.467;  -56.533;    0.000;231.99999
 732.66;  186.267;  -58.267;    0.000;244.53333
 732.92;  165.133;  -53.133;    0.000;218.26667
 733.19;  152.600;  -58.467;    0.000;211.06667
 733.45;  162.267;  -57.200;    0.000;219.46666
 733.71;  174.000;  -70.667;    0.000;244.66666
 733.97;  211.000;  -33.867;    0.000;244.86666
 734.23;  147.933;  -62.600;    0.000;210.53333
 734.49;  146.400;  -77.800;    0.000;224.20000
 734.76;  160.867;  -70.667;    0.000;231.53333
 735.02;  155.333;  -78.800;    0.000;234.13333
 735.28;  168.000;  -48.400;    0.000;216.40000
 735.54;  157.933;  -57.867;    0.000;215.80000
 735.80;  162.467;  -54.200;    0.000;216.66666
 736.06;  153.267;  -31.733;    0.000;185.00000
 736.32;  153.800;  -73.200;    0.000;227.00000
 736.59;  150.533;  -63.933;    0.000;214.46667
 736.85;  162.667;  -61.067;    0.000;223.73334
 737.11;  146.000;  -62.533;    0.000;208.53333
 737.37;  152.333;  -63.400;    0.000;215.73333
 737.63;  145.600;  -73.667;    0.000;219.26667
 737.89;  155.067;  -50.733;    0.000;205.80000
 738.15;  164.467;  -45.533;    0.000;209.99999
 738.41;  136.733;  -66.000;    0.000;202.73334
 738.67;  136.533;  -60.533;    0.000;197.06667
 738.94;  115.400;  -71.133;    0.000;186.53333
 739.20;  127.000;  -52.867;    0.000;179.86666
 739.46;  139.933;  -52.067;    0.000;192.00000
 739.72;  117.533;  -60.133;    0.000;177.66667
 739.98;  133.800;  -55.933;    0.000;189.73334
 740.24;  121.800;  -63.867;    0.000;185.66667
 740.50;  119.867;  -62.133;    0.000;182.00000
 740.76;  140.000;  -58.400;    0.000;198.40000
 741.02;  137.467;  -57.667;    0.000;195.13333
 741.28;  127.267;  -65.667;    0.000;192.93333
 741.54;   97.400;  -48.733;    0.000;146.13334
 741.81;  135.600;  -46.200;    0.000;181.80001
 742.07;  115.733;  -58.133;    0.000;173.86666
 742.33;  116.800;  -46.067;    0.000;162.86667
 742.59;  110.067;  -50.667;    0.000;160.73333
 742.85;  133.867;  -48.600;    0.000;182.46667
 743.11;   87.000;  -88.667;    0.000;175.66666
 743.37;  108.600;  -60.000;    0.000;168.60000
 743.63;   96.400;  -64.733;    0.000;161.13333
 743.89;  115.800;  -64.600;    0.000;180.40000
 744.15;   99.533;  -51.400;    0.000;150.93333
 744.41;  117.400;  -70.933;    0.000;188.33334
 744.67;  101.467;  -56.000;    0.000;157.46667
 744.93;   86.867;  -47.333;    0.000;134.20000
 745.19;   82.600;  -38.867;    0.000;121.46666
 745.45;  102.867;  -42.000;    0.000;144.86667
 745.71;   92.000;  -71.067;    0.000;163.06667
 745.97;  109.133;  -42.933;    0.000;152.06667
 746.23;   77.800;  -75.733;    0.000;153.53333
 746.49;   88.133;  -81.333;    0.000;169.46667
 746.75;  105.533;  -49.400;    0.000;154.93333
 747.02;  116.667;  -60.400;    0.000;177.06667
 747.28;   76.200;  -66.067;    0.000;142.26666
 747.54;  101.400;  -69.533;    0.000;170.93333
 747.80;   73.133;  -69.267;    0.000;142.40000
 748.06;   88.667;  -59.400;    0.000;148.06667
 748.32;   78.333;  -79.533;    0.000;157.86667
 748.58;   66.467;  -50.533;    0.000;117.00000
 748.84;   71.800;  -68.333;    0.000;140.13334
 749.10;  189.267;   40.067;    0.000;149.20000
 749.36;   82.000;  -54.800;    0.000;136.80000
 749.62;   68.467;  -76.400;    0.000;144.86667
 749.88;   71.467;  -60.200;    0.000;131.66667
 750.14;   84.933;  -52.933;    0.000;137.86667
 750.40;   54.867;  -66.867;    0.000;121.73333
 750.66;   81.533;  -42.267;    0.000;123.80000
 750.91;   80.667;  -65.000;    0.000;145.66666
 751.17;   84.267;  -47.800;    0.000;132.06667
 751.43;   58.867;  -63.200;    0.000;122.06667
 751.69;   51.933;  -49.200;    0.000;101.13334
 751.95;   66.267;  -55.067;    0.000;121.33334
 752.21;   65.000;  -60.867;    0.000;125.86666
 752.47;   51.600;  -65.267;    0.000;116.86667
 752.73;   60.400;  -59.400;    0.000;119.80000
 752.99;   72.600;  -65.400;    0.000;138.00000
 753.25;   43.133;  -73.400;    0.000;116.53334
 753.51;   46.733;  -59.533;    0.000;106.26667
 753.77;   28.533;  -50.333;    0.000;78.86666
 754.03;   34.800;  -60.267;    0.000;95.06667
 754.29;   52.467;  -66.800;    0.000;119.26667
 754.55;   55.800;  -50.267;    0.000;106.06667
 754.81;   42.733;  -63.000;    0.000;105.73333
 755.07;   69.000;  -47.200;    0.000;116.20000
 755.33;   42.600;  -67.200;    0.000;109.80000
 755.59;   33.400;  -77.200;    0.000;110.60000
 755.85;   46.600;  -57.800;    0.000;104.40000
 756.10;   40.133;  -52.867;    0.000;93.00000
 756.36;   31.067;  -75.333;    0.000;106.40000
 756.62;   40.533;  -74.600;    0.000;115.13333
 756.88;   49.733;  -34.600;    0.000;84.33333
 757.14;   50.000;  -54.800;    0.000;104.80000
 757.40;   35.867;  -46.000;    0.000;81.86666
 757.66;   32.800;  -63.133;    0.000;95.93333
 757.92;   37.000;  -58.133;    0.000;95.13334
 758.18;   34.067;  -64.200;    0.000;98.26666
 758.44;   25.933;  -61.867;    0.000;87.80000
 758.70;   30.800;  -54.267;    0.000;85.06667
 758.95;   35.600;  -64.600;    0.000;100.20000
 759.21;    2.200;  -65.467;    0.000;67.66667
 759.47;   21.867;  -47.933;    0.000;69.80000
 759.73;   10.733;  -52.200;    0.000;62.93333
 759.99;   42.067;  -67.200;    0.000;109.26666
 760.25;    6.067;  -85.533;    0.000;91.60000
 760.51;   19.600;  -56.267;    0.000;75.86667
 760.77;   28.933;  -59.467;    0.000;88.40000
 761.02;   36.600;  -65.533;    0.000;102.13333
 761.28;   20.267;  -75.000;    0.000;95.26667
 761.54;   21.133;  -67.067;    0.000;88.20000
 761.80;    8.733;  -59.933;    0.000;68.66667
 762.06;    2.000;  -33.267;    0.000;35.26667
 762.32;   -5.800;  -89.467;    0.000;83.66667
 762.58;   17.133;  -63.533;    0.000;80.66667
 762.83;   36.133;  -54.533;    0.000;90.66667
 763.09;   -1.267;  -56.533;    0.000;55.26667
 763.35;   21.200;  -54.800;    0.000;76.00000
 763.61;   29.600;  -50.467;    0.000;80.06667
 763.87;   28.600;  -61.667;    0.000;90.26667
 764.13;   11.333;  -69.067;    0.000;80.40000
 764.38;   -3.533;  -65.867;    0.000;62.33334
 764.64;   16.800;  -72.200;    0.000;89.00000
 764.90;   22.267;  -88.533;    0.000;110.80000
 765.16;   17.667;  -62.133;    0.000;79.80000
 765.42;   13.133;  -46.000;    0.000;59.13333
 765.68;   -4.067;  -65.800;    0.000;61.73334
 765.93;    8.867;  -66.800;    0.000;75.66667
 766.19;   22.667;  -62.400;    0.000;85.06667
 766.45;   11.267;  -74.533;    0.000;85.80000
 766.71;   22.600;  -51.667;    0.000;74.26667
 766.97;   24.133;  -63.400;    0.000;87.53333
 767.22;    4.933;  -78.733;    0.000;83.66666
 767.48;   -2.667;  -63.733;    0.000;61.06667
 767.74;   17.800;  -74.067;    0.000;91.86666
 768.00;   -6.133;  -57.333;    0.000;51.20000
 768.26;   -5.000;  -68.067;    0.000;63.06667
 768.51;   10.933;  -64.333;    0.000;75.26667
 768.77;   19.533;  -49.533;    0.000;69.06667
 769.03;   15.000;  -83.267;    0.000;98.26667
 769.29;   -9.400;  -65.467;    0.000;56.06667
 769.54;  -13.333;  -74.467;    0.000;61.13333
 769.80;  -12.467;  -68.867;    0.000;56.40000
 770.06;    0.333;  -57.933;    0.000;58.26667
 770.32;    6.667;  -61.267;    0.000;67.93333
 770.57;  -16.267;  -60.933;    0.000;44.66667
 770.83;   -5.800;  -63.000;    0.000;57.20000
 771.09;  -13.267;  -81.133;    0.000;67.86666
 771.35;    3.733;  -61.333;    0.000;65.06667
 771.61;   -2.533;  -83.200;    0.000;80.66666
 771.86;   34.000;  -65.400;    0.000;99.40000
 772.12;  -21.333;  -74.067;    0.000;52.73333
 772.38;    8.067;  -61.333;    0.000;69.40000
 772.63;    8.400;  -78.867;    0.000;87.26667
 772.89;   -3.200;  -62.933;    0.000;59.73333
 773.15;   -6.867;  -81.667;    0.000;74.80000
 773.41;  -16.933;  -64.867;    0.000;47.93334
 773.66;  -22.133;  -80.733;    0.000;58.60000
 773.92;   18.667;  -68.000;    0.000;86.66667
 774.18;   -3.800;  -76.400;    0.000;72.60000
 774.44;   -3.067;  -71.467;    0.000;68.40000
 774.69;  -10.133;  -74.933;    0.000;64.80000
 774.95;  -12.400;  -64.933;    0.000;52.53333
 775.21;  -18.333;  -53.200;    0.000;34.86667
 775.46;  -10.333;  -74.600;    0.000;64.26667
 775.72;  -14.400;  -72.733;    0.000;58.33333
 775.98;    5.667;  -45.933;    0.000;51.60000
 776.24;  -26.733;  -90.733;    0.000;64.00000
 776.49;  -24.867;  -83.400;    0.000;58.53333
 776.75;  -16.200;  -61.200;    0.000;45.00000
 777.01;  -25.800;  -78.733;    0.000;52.93333
 777.26;  -16.867;  -65.800;    0.000;48.93334
 777.52;  -23.067;  -63.133;    0.000;40.06667
 777.78;  -18.267;  -53.933;    0.000;35.66667
 778.03;   16.533;  -60.200;    0.000;76.73333
 778.29;  -12.133;  -71.733;    0.000;59.60000
 778.55;  -13.667;  -67.733;    0.000;54.06666
 778.80;  -24.533;  -77.000;    0.000;52.46667
 779.06;  -10.867;  -71.400;    0.000;60.53333
 779.32;  -14.933;  -68.067;    0.000;53.13333
 779.57;   -8.133;  -83.600;    0.000;75.46667
 779.83;  -24.467;  -69.533;    0.000;45.06667
 780.09;  -22.467;  -68.267;    0.000;45.80000
 780.34;  -12.000;  -65.200;    0.000;53.20000
 780.60;   -7.067;  -37.000;    0.000;29.93333
 780.86;  -20.600;  -63.200;    0.000;42.60000
 781.11;  -10.267;  -62.667;    0.000;52.40000
 781.37;  -15.333;  -65.133;    0.000;49.80000
 781.63;   -5.133;  -57.733;    0.000;52.60000
 781.88;   -2.400;  -61.333;    0.000;58.93333
 782.14;  -31.467;  -46.600;    0.000;15.13333
 782.39;  -22.133;  -60.067;    0.000;37.93333
 782.65;  -30.333;  -53.667;    0.000;23.33333
 782.91;  -12.800;  -52.267;    0.000;39.46667
 783.16;   -0.800;  -68.800;    0.000;68.00000
 783.42;  -37.933;  -69.600;    0.000;31.66666
 783.67;  -29.867;  -68.467;    0.000;38.60000
 783.93;  -44.667;  -86.867;    0.000;42.20000
 784.19;  -29.867;  -59.600;    0.000;29.73333
 784.44;   -4.533;  -56.933;    0.000;52.40000
 784.70;  -11.600;  -64.933;    0.000;53.33333
 784.96;  -31.000;  -66.867;    0.000;35.86667
 785.21;   -6.200;  -82.800;    0.000;76.60000
 785.47;  -26.000;  -64.800;    0.000;38.80000
 785.72;  -33.733;  -63.733;    0.000;30.00000
 785.98;  -34.133;  -62.400;    0.000;28.26667
 786.23;  -19.600;  -69.267;    0.000;49.66667
 786.49;  -25.067;  -81.600;    0.000;56.53333
 786.75;  -19.933;  -66.333;    0.000;46.40000
 787.00;  -39.200;  -48.533;    0.000; 9.33333
 787.26;  -31.533;  -73.800;    0.000;42.26667
 787.51;  -28.800;  -71.333;    0.000;42.53334
 787.77;  -11.400;  -50.067;    0.000;38.66667
 788.02;   -4.733;  -56.600;    0.000;51.86667
 788.28;  -39.600;  -69.733;    0.000;30.13333
 788.54;  -14.000;  -69.267;    0.000;55.26667
 788.79;  -13.667;  -42.400;    0.000;28.73333
 789.05;  -28.000;  -84.600;    0.000;56.60000
 789.30;  -18.333;  -57.467;    0.000;39.13333
 789.56;  -45.600;  -85.133;    0.000;39.53333
 789.81;  -16.267;  -69.400;    0.000;53.13334
 790.07;  -22.133;  -63.400;    0.000;41.26667
 790.32;  -13.933; -103.600;    0.000;89.66667
 790.58;  -33.667;  -69.133;    0.000;35.46666
 790.83;  -32.267;  -61.667;    0.000;29.40000
 791.09;  -31.867;  -83.333;    0.000;51.46667
 791.35;  -24.133;  -82.400;    0.000;58.26667
 791.60;  -44.200;  -63.867;    0.000;19.66666
 791.86;  -25.933;  -56.133;    0.000;30.20000
 792.11;  -30.133;  -50.400;    0.000;20.26667
 792.37;  -39.733;  -62.133;    0.000;22.40000
 792.62;  -39.467;  -63.867;    0.000;24.40000
 792.88;  -39.200;  -65.600;    0.000;26.40000
 793.13;  -43.400;  -80.333;    0.000;36.93333
 793.39;  -28.800;  -62.533;    0.000;33.73333
 793.64;  -20.933;  -81.467;    0.000;60.53333
 793.90;  -48.200;  -72.067;    0.000;23.86666
 794.15;  -21.800;  -72.133;    0.000;50.33333
 794.41;   -9.533;  -68.667;    0.000;59.13333
 794.66;  -30.267;  -76.733;    0.000;46.46666
 794.92;  -38.133;  -51.867;    0.000;13.73333
 795.17;  -45.400;  -73.400;    0.000;28.00000
 795.43;  -48.200;  -77.667;    0.000;29.46666
 795.68;  -48.333;  -64.200;    0.000;15.86666
 795.94;  -39.067;  -68.400;    0.000;29.33334
 796.19;  -29.667;  -69.200;    0.000;39.53333
 796.44;  -26.333;  -60.600;    0.000;34.26666
 796.70;  -30.600;  -56.667;    0.000;26.06667
 796.95;  -11.867;  -67.467;    0.000;55.60000
 797.21;  -35.667;  -76.867;    0.000;41.20000
 797.46;  -53.867;  -64.733;    0.000;10.86666
 797.72;  -51.200;  -68.533;    0.000;17.33333
 797.97;  -45.200;  -71.933;    0.000;26.73333
 798.23;  -44.200;  -68.333;    0.000;24.13334
 798.48;  -21.533;  -74.600;    0.000;53.06667
 798.74;  -43.400;  -88.200;    0.000;44.80000
 798.99;  -27.667;  -81.733;    0.000;54.06666
 799.24;  -40.667;  -77.733;    0.000;37.06666
 799.50;  -41.800;  -74.600;    0.000;32.80000
 799.75;  -39.533;  -66.000;    0.000;26.46667
 800.01;  -35.200;  -74.333;    0.000;39.13334
 800.26;  -49.000;  -78.000;    0.000;29.00000
 800.52;  -27.600;  -85.667;    0.000;58.06666
 800.77;  -49.867;  -75.933;    0.000;26.06667
 801.02;  -48.400;  -83.000;    0.000;34.60000
 801.28;  -49.267; -101.667;    0.000;52.40000
 801.53;  -45.733;  -58.800;    0.000;13.06667
 801.79;  -49.333;  -69.533;    0.000;20.20000
 802.04;  -33.267;  -64.867;    0.000;31.60000
 802.29;  -33.933;  -84.667;    0.000;50.73333
 802.55;  -39.600;  -71.133;    0.000;31.53333
 802.80;  -36.800;  -61.600;    0.000;24.80000
 803.06;  -46.400;  -60.267;    0.000;13.86666
 803.31;  -41.333;  -78.267;    0.000;36.93334
 803.56;  -26.933;  -57.400;    0.000;30.46667
 803.82;  -49.000;  -80.667;    0.000;31.66666
 804.07;  -35.200;  -55.067;    0.000;19.86666
 804.32;  -35.400;  -68.667;    0.000;33.26666
 804.58;  -48.467;  -89.067;    0.000;40.60000
 804.83;  -39.933;  -89.400;    0.000;49.46667
 805.09;  -40.333;  -64.467;    0.000;24.13334
 805.34;  -51.733;  -66.933;    0.000;15.20000
 805.59;  -31.533;  -56.267;    0.000;24.73333
 805.85;  -41.600;  -63.667;    0.000;22.06667
 806.10;  -34.267;  -57.067;    0.000;22.80000
 806.35;  -28.667;  -62.933;    0.000;34.26667
 806.61;  -26.933;  -76.933;    0.000;50.00000
 806.86;  -59.400;  -92.800;    0.000;33.40000
 807.11;  -38.467;  -68.933;    0.000;30.46667
 807.37;  -41.467;  -47.867;    0.000; 6.40000
 807.62;  -51.267;  -82.333;    0.000;31.06667
 807.87;  -51.533;  -59.600;    0.000; 8.06667
 808.13;  -62.467;  -69.400;    0.000; 6.93333
 808.38;  -41.533;  -70.200;    0.000;28.66666
 808.63;  -37.600;  -78.867;    0.000;41.26667
 808.89;  -34.667;  -77.533;    0.000;42.86666
 809.14;  -37.933;  -78.000;    0.000;40.06667
 809.39;  -62.200;  -71.600;    0.000; 9.40000
 809.65;  -54.733;  -59.800;    0.000; 5.06667
 809.90;  -52.067;  -57.000;    0.000; 4.93333
 810.15;  -61.800;  -86.600;    0.000;24.80000
 810.41;  -42.867;  -78.467;    0.000;35.60000
 810.66;  -26.333;  -68.533;    0.000;42.20000
 810.91;  -44.600;  -62.933;    0.000;18.33334
 811.16;  -59.133;  -82.533;    0.000;23.40000
 811.42;  -45.800;  -70.533;    0.000;24.73333
 811.67;  -42.333;  -66.733;    0.000;24.40000
 811.92;  -64.200;  -86.133;    0.000;21.93333
 812.18;  -33.400;  -67.067;    0.000;33.66666
 812.43;  -61.933;  -87.867;    0.000;25.93333
 812.68;  -40.133;  -80.467;    0.000;40.33333
 812.93;  -44.400;  -75.067;    0.000;30.66666
 813.19;  -15.267;  -24.667;    0.000; 9.40000
 813.44;  -54.267;  -87.467;    0.000;33.20000
 813.69;  -19.600;  -67.867;    0.000;48.26667
 813.95;  -51.333;  -72.800;    0.000;21.46667
 814.20;  -37.867;  -64.267;    0.000;26.40001
 814.45;  -56.600;  -88.133;    0.000;31.53333
 814.70;  -31.267;  -73.733;    0.000;42.46666
 814.96;  -63.133;  -85.400;    0.000;22.26667
 815.21;  -53.333;  -80.733;    0.000;27.40000
 815.46;  -63.867;  -80.333;    0.000;16.46667
 815.71;  -42.200;  -58.667;    0.000;16.46667
 815.96;  -61.467;  -64.000;    0.000; 2.53333
 816.22;  -62.600;  -81.467;    0.000;18.86667
 816.47;  -49.600;  -70.733;    0.000;21.13333
 816.72;  -65.000;  -81.733;    0.000;16.73333
 816.97;  -36.533;  -61.333;    0.000;24.80000
 817.23;  -33.667;  -71.600;    0.000;37.93333
 817.48;  -40.667;  -72.533;    0.000;31.86666
 817.73;  -29.000;  -74.467;    0.000;45.46667
 817.98;  -38.133;  -69.667;    0.000;31.53333
 818.23;  -40.133;  -54.667;    0.000;14.53333
 818.49;  -66.333;  -83.600;    0.000;17.26666
 818.74;  -27.000;  -62.733;    0.000;35.73333
 818.99;  -50.400;  -89.667;    0.000;39.26666
 819.24;  -31.533;  -62.067;    0.000;30.53333
 819.50;  -47.800;  -71.600;    0.000;23.80000
 819.75;  -50.067;  -65.667;    0.000;15.60000
 820.00;  -31.800;  -59.067;    0.000;27.26667
 820.25;  -57.867;  -70.467;    0.000;12.60000
 820.50;  -59.267;  -83.933;    0.000;24.66667
 820.75;  -26.000;  -48.400;    0.000;22.40000
 821.01;  -49.133;  -73.533;    0.000;24.40000
 821.26;  -32.333;  -70.133;    0.000;37.80000
 821.51;  -54.267;  -76.200;    0.000;21.93333
 821.76;  -41.333;  -92.000;    0.000;50.66667
 822.01;  -51.800;  -63.133;    0.000;11.33334
 822.26;  -41.867;  -64.600;    0.000;22.73333
 822.52;  -46.600;  -70.400;    0.000;23.80000
 822.77;  -51.600;  -69.733;    0.000;18.13333
 823.02;  -39.267;  -64.267;    0.000;25.00000
 823.27;  -66.533;  -72.400;    0.000; 5.86667
 823.52;  -73.133;  -87.267;    0.000;14.13334
 823.77;  -60.333;  -66.067;    0.000; 5.73333
 824.03;  -39.333;  -56.733;    0.000;17.40000
 824.28;  -67.333;  -74.600;    0.000; 7.26666
 824.53;  -36.000;  -67.933;    0.000;31.93333
 824.78;  -23.933;  -69.600;    0.000;45.66667
 825.03;  -68.667;  -83.533;    0.000;14.86667
 825.28;  -50.133;  -68.467;    0.000;18.33333
 825.53;  -65.333;  -68.867;    0.000; 3.53333
 825.78;  -32.667;  -77.333;    0.000;44.66667
 826.04;  -48.000;  -91.467;    0.000;43.46667
 826.29;  -54.267;  -86.733;    0.000;32.46666
 826.54;  -51.400;  -71.600;    0.000;20.20000
 826.79;  -35.133;  -63.733;    0.000;28.60000
 827.04;  -49.067;  -84.333;    0.000;35.26667
 827.29;  -42.800;  -56.933;    0.000;14.13334
 827.54;  -55.733;  -52.867;    0.000;-2.86667
 827.79;  -56.200;  -70.333;    0.000;14.13334
 828.04;  -57.933;  -62.933;    0.000; 5.00000
 828.29;  -57.733;  -69.600;    0.000;11.86666
 828.55;  -58.200;  -87.533;    0.000;29.33333
 828.80;  -41.200;  -68.333;    0.000;27.13334
 829.05;  -50.600;  -71.667;    0.000;21.06667
 829.30;  -60.600;  -83.333;    0.000;22.73334
 829.55;  -61.467;  -75.933;    0.000;14.46667
 829.80;  -44.267;  -64.200;    0.000;19.93333
 830.05;  -63.800;  -76.400;    0.000;12.60000
 830.30;  -54.267;  -73.067;    0.000;18.80000
 830.55;  -41.467;  -69.733;    0.000;28.26666
 830.80;  -53.267;  -86.867;    0.000;33.60000
 831.05;  -76.067;  -75.267;    0.000;-0.80000
 831.30;  -41.933;  -59.467;    0.000;17.53333
 831.55;  -50.933;  -70.867;    0.000;19.93333
 831.80;  -46.867;  -60.733;    0.000;13.86667
 832.05;  -46.600;  -69.333;    0.000;22.73334
 832.30;  -26.933;  -57.267;    0.000;30.33333
 832.56;  -65.733; -102.267;    0.000;36.53334
 832.81;  -47.867;  -71.533;    0.000;23.66667
 833.06;  -61.000;  -53.533;    0.000;-7.46667
 833.31;  -60.000; -111.533;    0.000;51.53333
 833.56;  -54.067;  -66.267;    0.000;12.20000
 833.81;  -61.000;  -89.600;    0.000;28.60000
 834.06;  -56.133;  -59.067;    0.000; 2.93333
 834.31;  -59.600;  -80.667;    0.000;21.06667
 834.56;  -45.933;  -78.333;    0.000;32.40000
 834.81;  -46.333;  -62.800;    0.000;16.46667
 835.06;  -77.067;  -76.800;    0.000;-0.26666
 835.31;  -44.267;  -70.200;    0.000;25.93333
 835.56;  -70.933;  -61.333;    0.000;-9.60000
 835.81;  -42.333;  -74.400;    0.000;32.06667
 836.06;  -45.067;  -70.733;    0.000;25.66666
 836.31;  -57.533;  -75.733;    0.000;18.20000
 836.56;  -56.067;  -61.533;    0.000; 5.46667
 836.81;  -44.267;  -85.533;    0.000;41.26667
 837.06;  -38.067;  -67.867;    0.000;29.80000
 837.31;  -45.667;  -89.933;    0.000;44.26667
 837.56;  -52.800;  -90.000;    0.000;37.20000
 837.81;  -53.267;  -79.533;    0.000;26.26667
 838.06;  -60.600;  -71.533;    0.000;10.93333
 838.31;  -63.467;  -78.800;    0.000;15.33334
 838.56;  -68.333;  -87.600;    0.000;19.26666
 838.80;  -61.400;  -66.667;    0.000; 5.26666
 839.05;  -57.533;  -74.467;    0.000;16.93333
 839.30;  -68.733;  -77.867;    0.000; 9.13334
 839.55;  -63.067;  -90.333;    0.000;27.26667
 839.80;  -61.867;  -77.133;    0.000;15.26667
 840.05;  -48.000;  -59.267;    0.000;11.26667
 840.30;  -48.400;  -67.933;    0.000;19.53333
 840.55;  -71.067;  -76.133;    0.000; 5.06667
 840.80;  -52.667;  -58.333;    0.000; 5.66666
 841.05;  -55.533;  -72.533;    0.000;17.00000
 841.30;  -48.533;  -85.533;    0.000;37.00000
 841.55;  -66.933;  -85.200;    0.000;18.26666
 841.80;  -60.667;  -68.733;    0.000; 8.06666
 842.05;  -68.800;  -86.733;    0.000;17.93333
 842.30;  -58.067;  -84.200;    0.000;26.13333
 842.55;  -58.800;  -53.200;    0.000;-5.60000
 842.79;  -54.333;  -88.600;    0.000;34.26667
 843.04;  -39.467;  -59.667;    0.000;20.20000
 843.29;  -44.600;  -63.867;    0.000;19.26667
 843.54;  -68.667;  -70.400;    0.000; 1.73334
 843.79;  -62.067;  -78.200;    0.000;16.13333
 844.04;  -53.600;  -67.133;    0.000;13.53333
 844.29;  -41.000;  -61.333;    0.000;20.33333
 844.54;  -34.867;  -72.067;    0.000;37.20000
 844.79;  -43.267;  -76.467;    0.000;33.20000
 845.04;  -46.600;  -74.200;    0.000;27.60000
 845.28;  -69.333;  -86.867;    0.000;17.53333
 845.53;  -57.000;  -81.933;    0.000;24.93333
 845.78;  -46.200;  -61.400;    0.000;15.20000
 846.03;  -60.133;  -65.400;    0.000; 5.26667
 846.28;  -24.467;  -75.400;    0.000;50.93333
 846.53;  -43.400;  -60.333;    0.000;16.93333
 846.78;  -43.800;  -72.400;    0.000;28.60000
 847.02;  -46.533;  -75.400;    0.000;28.86667
 847.27;  -40.133;  -81.467;    0.000;41.33333
 847.52;  -61.067;  -89.867;    0.000;28.80000
 847.77;  -55.467;  -76.533;    0.000;21.06667
 848.02;  -60.933;  -92.067;    0.000;31.13333
 848.27;  -61.333;  -69.133;    0.000; 7.80000
 848.52;  -66.067;  -87.733;    0.000;21.66666
 848.76;  -48.133;  -70.733;    0.000;22.59999
 849.01;  -54.733;  -71.533;    0.000;16.80000
 849.26;  -51.733;  -81.667;    0.000;29.93333
 849.51;  -51.400;  -78.867;    0.000;27.46667
 849.76;  -53.867;  -80.067;    0.000;26.20000
 850.01;  -62.933;  -86.267;    0.000;23.33334
 850.25;  -64.133;  -74.067;    0.000; 9.93333
 850.50;  -52.933;  -73.533;    0.000;20.60000
 850.75;  -50.533;  -71.400;    0.000;20.86667
 851.00;  -64.133;  -85.600;    0.000;21.46667
 851.25;  -41.667;  -72.333;    0.000;30.66667
 851.49;  -51.200;  -75.200;    0.000;24.00000
 851.74;  -47.000;  -65.933;    0.000;18.93333
 851.99;  -67.200;  -88.667;    0.000;21.46667
 852.24;  -57.333;  -57.333;    0.000; 0.00000
 852.49;  -59.400;  -90.000;    0.000;30.60000
 852.73;  -65.333;  -85.333;    0.000;20.00000
 852.98;  -46.333;  -84.133;    0.000;37.80000
 853.23;  -44.200;  -70.533;    0.000;26.33333
 853.48;  -60.800;  -68.067;    0.000; 7.26667
 853.73;  -59.800;  -81.467;    0.000;21.66667
 853.97;  -55.000;  -71.733;    0.000;16.73333
 854.22;  -51.533;  -76.867;    0.000;25.33334
 854.47;  -54.600;  -81.467;    0.000;26.86667
 854.72;  -52.400;  -51.200;    0.000;-1.20000
 854.96;  -49.933;  -77.600;    0.000;27.66666
 855.21;  -58.667;  -41.133;    0.000;-17.53333
 855.46;  -42.000;  -43.267;    0.000; 1.26667
 855.71;  -71.600;  -74.067;    0.000; 2.46667
 855.95;  -54.667;  -68.800;    0.000;14.13334
 856.20;  -64.200;  -74.267;    0.000;10.06667
 856.45;  -57.600;  -75.800;    0.000;18.20000
 856.70;  -51.600;  -70.200;    0.000;18.60000
 856.94;  -52.667;  -84.733;    0.000;32.06666
 857.19;  -38.400;  -60.533;    0.000;22.13333
 857.44;  -67.400;  -81.667;    0.000;14.26666
 857.69;  -50.733;  -57.800;    0.000; 7.06667
 857.93;  -76.800;  -75.133;    0.000;-1.66667
 858.18;  -39.667;  -61.000;    0.000;21.33333
 858.43;  -52.600;  -87.067;    0.000;34.46667
 858.67;  -53.667;  -57.133;    0.000; 3.46667
 858.92;  -72.000;  -69.667;    0.000;-2.33334
 859.17;  -49.533;  -38.067;    0.000;-11.46667
 859.42;  -82.533;  -86.667;    0.000; 4.13333
 859.66;  -64.933;  -94.467;    0.000;29.53333
 859.91;  -62.800;  -87.200;    0.000;24.40000
 860.16;  -52.933;  -85.800;    0.000;32.86667
 860.40;  -61.333;  -62.867;    0.000; 1.53333
 860.65;  -53.067;  -78.800;    0.000;25.73334
 860.90;  -72.000;  -75.267;    0.000; 3.26667
 861.14;  -39.867;  -71.733;    0.000;31.86666
 861.39;  -76.267;  -79.933;    0.000; 3.66666
 861.64;  -61.200;  -79.067;    0.000;17.86666
 861.88;  -68.133;  -71.200;    0.000; 3.06667
 862.13;  -51.933;  -64.000;    0.000;12.06667
 862.38;  -68.867;  -97.267;    0.000;28.40000
 862.62;  -60.200;  -82.400;    0.000;22.20000
 862.87;  -58.733;  -74.133;    0.000;15.40000
 863.12;  -38.933;  -60.467;    0.000;21.53333
 863.36;  -75.467;  -95.667;    0.000;20.20000
 863.61;  -56.200;  -74.333;    0.000;18.13334
 863.86;  -60.267;  -88.600;    0.000;28.33333
 864.10;  -50.133;  -80.733;    0.000;30.59999
 864.35;  -74.067;  -83.067;    0.000; 9.00000
 864.60;  -64.200;  -73.067;    0.000; 8.86667
 864.84;  -61.133;  -63.667;    0.000; 2.53333
 865.09;  -42.200;  -83.133;    0.000;40.93333
 865.33;  -64.067;  -63.133;    0.000;-0.93333
 865.58;  -45.133;  -73.467;    0.000;28.33333
 865.83;  -53.200;  -67.333;    0.000;14.13334
 866.07;  -78.867;  -83.133;    0.000; 4.26666
 866.32;  -26.933;  -46.800;    0.000;19.86667
 866.57;  -52.867;  -50.000;    0.000;-2.86666
 866.81;  -64.667;  -63.133;    0.000;-1.53333
 867.06;  -58.200;  -92.933;    0.000;34.73333
 867.30;  -55.067; -100.800;    0.000;45.73334
 867.55;  -52.267;  -64.267;    0.000;12.00000
 867.80;  -57.000;  -80.067;    0.000;23.06667
 868.04;  -72.133;  -71.933;    0.000;-0.20000
 868.29;  -73.467;  -74.400;    0.000; 0.93333
 868.53;  -79.467;  -89.933;    0.000;10.46667
 868.78;  -59.933;  -63.267;    0.000; 3.33333
 869.03;  -61.933;  -58.933;    0.000;-3.00000
 869.27;  -66.933;  -77.333;    0.000;10.40000
 869.52;  -55.267;  -63.800;    0.000; 8.53333
 869.76;  -75.733;  -69.533;    0.000;-6.20000
 870.01;  -48.667;  -65.733;    0.000;17.06666
 870.25;  -62.733;  -58.133;    0.000;-4.60000
 870.50;  -50.200;  -69.067;    0.000;18.86666
 870.75;  -73.733;  -86.600;    0.000;12.86667
 870.99;  -47.267;  -66.133;    0.000;18.86666
 871.24;  -37.667;  -61.267;    0.000;23.60000
 871.48;  -42.867;  -73.533;    0.000;30.66667
 871.73;  -62.467;  -60.133;    0.000;-2.33333
 871.97;  -82.267;  -95.400;    0.000;13.13333
 872.22;  -45.667;  -61.200;    0.000;15.53333
 872.46;  -67.867;  -75.933;    0.000; 8.06667
 872.71;  -57.667;  -91.600;    0.000;33.93333
 872.95;  -44.200;  -66.800;    0.000;22.60000
 873.20;  -50.533;  -71.400;    0.000;20.86667
 873.44;  -30.200;  -48.267;    0.000;18.06667
 873.69;  -76.133;  -72.000;    0.000;-4.13333
 873.94;  -62.533;  -80.600;    0.000;18.06667
 874.18;  -73.133;  -71.867;    0.000;-1.26666
 874.43;  -66.400;  -52.733;    0.000;-13.66667
 874.67;  -72.000;  -70.333;    0.000;-1.66666
 874.92;  -38.467;  -58.200;    0.000;19.73333
 875.16;  -60.600;  -77.933;    0.000;17.33334
 875.41;  -71.000;  -67.400;    0.000;-3.60000
 875.65;  -68.000;  -62.867;    0.000;-5.13334
 875.90;  -59.600;  -51.067;    0.000;-8.53333
 876.14;  -83.200;  -94.333;    0.000;11.13334
 876.39;  -40.867;  -78.867;    0.000;38.00000
 876.63;  -58.800;  -60.867;    0.000; 2.06667
 876.88;  -54.267;  -54.467;    0.000; 0.20000
 877.12;  -70.533;  -64.933;    0.000;-5.60000
 877.36;  -60.667;  -68.333;    0.000; 7.66667
 877.61;  -42.267;  -81.000;    0.000;38.73333
 877.85;  -58.667;  -50.933;    0.000;-7.73333
 878.10;  -63.267;  -65.400;    0.000; 2.13334
 878.34;  -70.333;  -51.133;    0.000;-19.20000
 878.59;  -50.133;  -72.400;    0.000;22.26667
 878.83;  -49.800;  -71.400;    0.000;21.60000
 879.08;  -61.267;  -68.267;    0.000; 7.00000
 879.32;  -59.267;  -73.800;    0.000;14.53334
 879.57;  -60.400;  -63.333;    0.000; 2.93333
 879.81;  -37.133;  -62.267;    0.000;25.13333
 880.05;  -39.333;  -43.733;    0.000; 4.40000
 880.30;  -51.533;  -63.733;    0.000;12.20000
 880.54;  -68.467;  -67.067;    0.000;-1.40000
 880.79;  -56.267;  -80.867;    0.000;24.60000
 881.03;  -35.133;  -50.667;    0.000;15.53333
 881.28;  -50.533;  -65.067;    0.000;14.53333
 881.52;  -71.400;  -70.267;    0.000;-1.13333
 881.76;  -40.267;  -58.333;    0.000;18.06667
 882.01;  -56.533;  -68.600;    0.000;12.06667
 882.25;  -58.867;  -60.467;    0.000; 1.60000
 882.50;  -57.400;  -83.800;    0.000;26.40000
 882.74;  -51.000;  -74.200;    0.000;23.20000
 882.98;  -68.400;  -63.067;    0.000;-5.33334
 883.23;  -49.933;  -51.800;    0.000; 1.86666
 883.47;  -43.933;  -83.067;    0.000;39.13333
 883.72;  -54.267;  -49.800;    0.000;-4.46667
 883.96;  -51.200;  -82.000;    0.000;30.80000
 884.20;  -60.067;  -58.733;    0.000;-1.33333
 884.45;  -46.133;  -49.933;    0.000; 3.80000
 884.69;  -45.200;  -55.733;    0.000;10.53333
 884.94;  -33.267;  -39.267;    0.000; 6.00000
 885.18;  -39.800;  -80.733;    0.000;40.93333
 885.42;  -54.200;  -70.333;    0.000;16.13334
 885.67;  -41.200;  -76.467;    0.000;35.26667
 885.91;  -48.000;  -86.933;    0.000;38.93333
 886.15;  -60.467;  -58.533;    0.000;-1.93333
 886.40;  -69.200;  -43.733;    0.000;-25.46666
 886.64;  -68.800;  -75.133;    0.000; 6.33333
 886.88;  -60.200;  -73.800;    0.000;13.60000
 887.13;  -34.667;  -38.000;    0.000; 3.33333
 887.37;  -48.400;  -62.200;    0.000;13.80000
 887.62;  -38.067;  -59.600;    0.000;21.53333
 887.86;  -39.933;  -69.067;    0.000;29.13333
 888.10;  -42.933;  -49.933;    0.000; 7.00000
 888.35;  -27.267;  -47.400;    0.000;20.13334
 888.59;  -41.267;  -45.133;    0.000; 3.86667
 888.83;  -54.533;  -50.867;    0.000;-3.66667
 889.07;  -33.133;  -48.400;    0.000;15.26667
 889.32;  -38.733;  -79.267;    0.000;40.53334
 889.56;  -51.400;  -60.933;    0.000; 9.53333
 889.80;  -50.000;  -58.933;    0.000; 8.93333
 890.05;  -38.600;  -58.600;    0.000;20.00000
 890.29;  -49.333;  -53.867;    0.000; 4.53333
 890.53;  -26.800;  -65.267;    0.000;38.46667
 890.78;  -57.267;  -63.667;    0.000; 6.40000
 891.02;  -23.600;  -57.667;    0.000;34.06667
 891.26;  -51.400;  -77.400;    0.000;26.00000
 891.51;  -21.533;  -58.267;    0.000;36.73333
 891.75;  -37.600;  -39.000;    0.000; 1.40000
 891.99;  -26.733;  -59.200;    0.000;32.46667
 892.23;  -56.000;  -64.467;    0.000; 8.46667
 892.48;  -12.600;  -37.800;    0.000;25.20000
 892.72;  -17.467;  -51.467;    0.000;34.00000
 892.96;  -13.933;  -30.000;    0.000;16.06667
 893.20;  -40.600;  -45.867;    0.000; 5.26667
 893.45;  -42.733;  -49.400;    0.000; 6.66667
 893.69;  -31.333;  -49.400;    0.000;18.06667
 893.93;  -29.533;  -34.400;    0.000; 4.86667
 894.17;  -37.067;  -40.400;    0.000; 3.33334
 894.42;  -54.867;  -47.600;    0.000;-7.26667
 894.66;  -44.000;  -43.067;    0.000;-0.93333
 894.90;  -28.933;  -56.267;    0.000;27.33333
 895.14;  -31.400;  -27.200;    0.000;-4.20000
 895.39;  -12.733;  -47.267;    0.000;34.53333
 895.63;  -10.600;  -31.600;    0.000;21.00000
 895.87;  -31.933;  -22.000;    0.000;-9.93333
 896.11;  -26.133;  -50.533;    0.000;24.40000
 896.36;  -17.400;  -47.333;    0.000;29.93333
 896.60;  -41.267;  -46.933;    0.000; 5.66667
 896.84;   -4.067;  -11.200;    0.000; 7.13333
 897.08;  -24.133;  -20.133;    0.000;-4.00000
 897.32;  -11.267;  -21.733;    0.000;10.46667
 897.57;  -17.533;  -10.467;    0.000;-7.06667
 897.81;  -23.600;  -28.467;    0.000; 4.86667
 898.05;   -3.133;  -29.467;    0.000;26.33333
 898.29;    0.400;    1.067;    0.000;-0.66667
 898.53;   -6.933;  -28.600;    0.000;21.66667
 898.78;   -7.733;   -6.667;    0.000;-1.06667
 899.02;  -12.067;  -13.933;    0.000; 1.86667
 899.26;   15.267;    3.933;    0.000;11.33333
 899.50;   32.333;   28.600;    0.000; 3.73333
 899.74;    4.000;    1.067;    0.000; 2.93333
 899.99;   -0.333;   -0.133;    0.000;-0.20000
 900.23;   13.533;    9.000;    0.000; 4.53333
 900.47;   12.933;   29.733;    0.000;-16.80000
 900.71;   40.400;   20.800;    0.000;19.60000
 900.95;   38.200;   40.533;    0.000;-2.33333
 901.19;   73.800;   60.733;    0.000;13.06667
 901.44;   54.467;   33.933;    0.000;20.53333
 901.68;   77.533;   70.600;    0.000; 6.93333
 901.92;   80.800;  100.133;    0.000;-19.33333
 902.16;   93.200;  102.200;    0.000;-9.00000
 902.40;  103.533;  106.800;    0.000;-3.26667
 902.64;  129.267;  130.600;    0.000;-1.33334
 902.88;  151.067;  171.533;    0.000;-20.46667
 903.13;  179.133;  185.200;    0.000;-6.06667

