point5
Integration time [ms]:  30.000
Averaging Nr. [scans]: 15
Smoothing Nr. [pixels]: 0
Data measured with spectrometer [name]: 1307077U2
Wave   ;Sample   ;Dark     ;Reference;Scope Corrected for Dark
[nm]   ;[counts] ;[counts] ;[counts] 

 350.80;   23.333;  -10.667;    0.000;34.00000
 351.10;   -2.867;   -8.067;    0.000; 5.20000
 351.39;   49.067;   26.067;    0.000;23.00000
 351.69;  -17.867;   -3.733;    0.000;-14.13333
 351.99;   13.533;   -3.067;    0.000;16.60000
 352.28;  -16.267;  -15.133;    0.000;-1.13333
 352.58;   -3.733;  -14.067;    0.000;10.33333
 352.88;  -10.467;  -14.133;    0.000; 3.66667
 353.17;    6.800;   14.200;    0.000;-7.40000
 353.47;    2.733;  -16.667;    0.000;19.40000
 353.76;   10.800;  -10.600;    0.000;21.40000
 354.06;   13.600;  -14.867;    0.000;28.46667
 354.36;    7.867;   -5.800;    0.000;13.66667
 354.65;   22.533;   14.067;    0.000; 8.46667
 354.95;    2.267;   -1.600;    0.000; 3.86667
 355.24;   -8.733;  -15.667;    0.000; 6.93333
 355.54;   11.867;   -5.000;    0.000;16.86667
 355.84;   -5.800;   -6.600;    0.000; 0.80000
 356.13;   40.867;   12.733;    0.000;28.13333
 356.43;  -10.800;  -19.667;    0.000; 8.86667
 356.72;   -8.267;  -21.133;    0.000;12.86667
 357.02;   -4.800;    2.133;    0.000;-6.93333
 357.31;   18.200;    4.667;    0.000;13.53333
 357.61;    6.200;    0.200;    0.000; 6.00000
 357.91;  -21.467;  -11.800;    0.000;-9.66667
 358.20;   -0.067;   -3.400;    0.000; 3.33333
 358.50;   -3.800;  -28.600;    0.000;24.80000
 358.79;   -2.200;    9.933;    0.000;-12.13333
 359.09;    5.000;   10.067;    0.000;-5.06667
 359.38;   -1.800;   -0.600;    0.000;-1.20000
 359.68;   -9.800;  -34.933;    0.000;25.13333
 359.98;   -3.067;   -6.533;    0.000; 3.46667
 360.27;   13.467;    3.667;    0.000; 9.80000
 360.57;  -21.800;    7.267;    0.000;-29.06667
 360.86;    8.133;  -18.067;    0.000;26.20000
 361.16;  -11.267;  -31.667;    0.000;20.40000
 361.45;    8.467;   -6.333;    0.000;14.80000
 361.75;  -13.600;  -27.533;    0.000;13.93333
 362.04;   37.000;   17.200;    0.000;19.80000
 362.34;   -8.533;   -6.667;    0.000;-1.86667
 362.64;   13.133;    2.267;    0.000;10.86667
 362.93;  -10.467;    0.600;    0.000;-11.06667
 363.23;   -4.400;  -25.467;    0.000;21.06667
 363.52;  -30.267;  -21.333;    0.000;-8.93333
 363.82;   10.800;  -17.933;    0.000;28.73333
 364.11;    5.733;  -12.867;    0.000;18.60000
 364.41;   -2.467;  -22.067;    0.000;19.60000
 364.70;  -11.267;    3.333;    0.000;-14.60000
 365.00;   -7.400;  -18.133;    0.000;10.73333
 365.29;   -0.400;  -21.267;    0.000;20.86667
 365.59;    6.600;  -18.800;    0.000;25.40000
 365.88;  -18.067;  -11.133;    0.000;-6.93333
 366.18;  -19.267;   -9.533;    0.000;-9.73333
 366.47;  -15.733;  -19.333;    0.000; 3.60000
 366.77;   16.533;  -15.067;    0.000;31.60000
 367.06;   -0.200;  -14.133;    0.000;13.93333
 367.36;    2.867;    0.467;    0.000; 2.40000
 367.65;    9.733;   -4.733;    0.000;14.46667
 367.95;    5.933;  -20.400;    0.000;26.33333
 368.24;  -11.667;    2.467;    0.000;-14.13333
 368.54;    7.400;  -22.867;    0.000;30.26667
 368.83;    0.667;   11.067;    0.000;-10.40000
 369.13;   19.200;    1.133;    0.000;18.06667
 369.42;   -1.800;  -12.000;    0.000;10.20000
 369.72;   -9.133;    6.800;    0.000;-15.93333
 370.01;   -2.933;   -6.733;    0.000; 3.80000
 370.31;   33.200;   -5.067;    0.000;38.26667
 370.60;   -0.867;   28.667;    0.000;-29.53333
 370.90;    0.133;  -16.200;    0.000;16.33333
 371.19;  -14.400;  -13.867;    0.000;-0.53333
 371.49;  -19.867;  -27.000;    0.000; 7.13333
 371.78;  -10.400;  -13.800;    0.000; 3.40000
 372.08;    7.800;  -15.333;    0.000;23.13333
 372.37;    1.267;    3.200;    0.000;-1.93333
 372.67;    3.333;   -0.533;    0.000; 3.86667
 372.96;  -17.867;  -21.667;    0.000; 3.80000
 373.26;   -9.333;  -18.467;    0.000; 9.13333
 373.55;  -15.933;   -9.867;    0.000;-6.06667
 373.85;  -10.267;   -1.933;    0.000;-8.33333
 374.14;  -12.467;    3.333;    0.000;-15.80000
 374.43;    1.800;  -28.533;    0.000;30.33333
 374.73;   -0.200;  -17.400;    0.000;17.20000
 375.02;    5.867;    6.933;    0.000;-1.06667
 375.32;  -16.800;  -13.000;    0.000;-3.80000
 375.61;   -4.533;  -28.133;    0.000;23.60000
 375.91;  -11.000;   -3.067;    0.000;-7.93333
 376.20;    1.733;  -32.933;    0.000;34.66667
 376.50;  -18.733;  -31.933;    0.000;13.20000
 376.79;  -13.200;  -14.400;    0.000; 1.20000
 377.08;  -27.533;  -19.400;    0.000;-8.13333
 377.38;   -3.533;  -25.333;    0.000;21.80000
 377.67;   -3.267;  -22.733;    0.000;19.46667
 377.97;  -20.933;  -36.200;    0.000;15.26667
 378.26;  -19.800;    7.000;    0.000;-26.80000
 378.56;  -15.867;  -28.000;    0.000;12.13333
 378.85;  -20.800;   -7.867;    0.000;-12.93333
 379.14;   -8.333;  -26.200;    0.000;17.86667
 379.44;  -26.533;    1.600;    0.000;-28.13333
 379.73;    1.600;   -8.333;    0.000; 9.93333
 380.03;   -1.067;   -5.000;    0.000; 3.93333
 380.32;    7.133;  -14.000;    0.000;21.13333
 380.62;  -19.200;    4.000;    0.000;-23.20000
 380.91;   21.133;   -8.933;    0.000;30.06667
 381.20;   -8.000;    1.133;    0.000;-9.13333
 381.50;  -17.733;  -19.467;    0.000; 1.73333
 381.79;   -9.600;  -13.600;    0.000; 4.00000
 382.09;  -19.333;  -21.400;    0.000; 2.06667
 382.38;  -33.733;    8.867;    0.000;-42.60000
 382.67;    0.600;  -24.733;    0.000;25.33333
 382.97;  -16.533;  -13.200;    0.000;-3.33333
 383.26;  -15.600;    3.467;    0.000;-19.06667
 383.56;  -14.400;   -0.267;    0.000;-14.13333
 383.85;    3.000;  -25.267;    0.000;28.26667
 384.14;   -2.000;   20.000;    0.000;-22.00000
 384.44;    1.467;  -19.600;    0.000;21.06667
 384.73;  -14.867;  -17.200;    0.000; 2.33333
 385.02;  -15.600;  -20.200;    0.000; 4.60000
 385.32;   -8.333;  -14.933;    0.000; 6.60000
 385.61;  -19.933;  -26.667;    0.000; 6.73333
 385.91;   11.267;   -2.333;    0.000;13.60000
 386.20;  -32.867;  -23.533;    0.000;-9.33333
 386.49;  -16.267;  -21.800;    0.000; 5.53333
 386.79;  -10.533;  -18.800;    0.000; 8.26667
 387.08;   -4.333;  -15.467;    0.000;11.13333
 387.37;    1.867;  -16.733;    0.000;18.60000
 387.67;  -15.733;  -18.667;    0.000; 2.93333
 387.96;   -8.600;  -20.533;    0.000;11.93333
 388.25;   -2.267;   18.467;    0.000;-20.73333
 388.55;  -10.200;  -22.933;    0.000;12.73333
 388.84;  -17.000;  -23.867;    0.000; 6.86667
 389.14;  -13.600;  -27.800;    0.000;14.20000
 389.43;  -10.200;   -8.267;    0.000;-1.93333
 389.72;  -12.733;  -30.867;    0.000;18.13333
 390.02;  -23.200;   -6.533;    0.000;-16.66667
 390.31;  -15.333;  -15.667;    0.000; 0.33333
 390.60;   -7.800;  -17.267;    0.000; 9.46667
 390.90;  -16.600;  -27.867;    0.000;11.26667
 391.19;  -17.400;   -2.933;    0.000;-14.46667
 391.48;  -13.000;   -2.333;    0.000;-10.66667
 391.78;  -17.067;   -2.867;    0.000;-14.20000
 392.07;   53.533;   34.933;    0.000;18.60000
 392.36;  -26.533;   -3.400;    0.000;-23.13333
 392.66;  -20.600;  -14.733;    0.000;-5.86667
 392.95;  -22.533;  -17.867;    0.000;-4.66667
 393.24;  -12.133;  -34.867;    0.000;22.73333
 393.53;   -5.667;   -1.600;    0.000;-4.06667
 393.83;   -8.467;  -34.933;    0.000;26.46667
 394.12;   -8.067;   -8.600;    0.000; 0.53333
 394.41;   -7.133;  -29.600;    0.000;22.46667
 394.71;   -8.600;   -6.600;    0.000;-2.00000
 395.00;  -12.000;  -28.000;    0.000;16.00000
 395.29;  -15.800;   -1.800;    0.000;-14.00000
 395.59;  -21.667;  -28.533;    0.000; 6.86667
 395.88;  -11.133;  -21.267;    0.000;10.13333
 396.17;  -27.000;  -20.067;    0.000;-6.93333
 396.46;   17.933;    5.867;    0.000;12.06667
 396.76;  -18.000;  -37.933;    0.000;19.93333
 397.05;   17.267;   10.333;    0.000; 6.93333
 397.34;  -18.000;  -40.800;    0.000;22.80000
 397.64;  -15.067;   -8.133;    0.000;-6.93333
 397.93;    8.067;  -30.533;    0.000;38.60000
 398.22;  -21.200;  -32.133;    0.000;10.93333
 398.51;  -16.467;  -13.467;    0.000;-3.00000
 398.81;  -13.200;   -3.000;    0.000;-10.20000
 399.10;  -13.467;   -8.800;    0.000;-4.66667
 399.39;   -6.800;   -8.067;    0.000; 1.26667
 399.69;   -2.200;   -5.067;    0.000; 2.86667
 399.98;   25.533;    1.200;    0.000;24.33333
 400.27;   -4.667;  -36.133;    0.000;31.46667
 400.56;   -7.467;   -8.467;    0.000; 1.00000
 400.86;  -12.733;  -19.333;    0.000; 6.60000
 401.15;    9.667;  -11.067;    0.000;20.73333
 401.44;   -6.400;  -40.467;    0.000;34.06667
 401.73;    4.467;    0.133;    0.000; 4.33333
 402.03;  -10.200;   -9.000;    0.000;-1.20000
 402.32;  -20.800;  -26.933;    0.000; 6.13333
 402.61;   -3.800;   -7.467;    0.000; 3.66667
 402.90;  -30.333;  -32.067;    0.000; 1.73333
 403.20;  -12.000;    2.933;    0.000;-14.93333
 403.49;   -4.867;  -12.067;    0.000; 7.20000
 403.78;  -11.600;  -33.600;    0.000;22.00000
 404.07;   -4.867;  -20.400;    0.000;15.53333
 404.37;  -17.400;  -10.867;    0.000;-6.53333
 404.66;   -3.267;    6.467;    0.000;-9.73333
 404.95;  -12.533;   -8.400;    0.000;-4.13333
 405.24;  -20.800;   -6.800;    0.000;-14.00000
 405.53;   -2.867;  -17.333;    0.000;14.46667
 405.83;   -4.800;    1.600;    0.000;-6.40000
 406.12;  -26.400;  -21.133;    0.000;-5.26667
 406.41;    5.200;   15.533;    0.000;-10.33333
 406.70;   -1.000;  -22.467;    0.000;21.46667
 407.00;  -11.733;    5.067;    0.000;-16.80000
 407.29;  -11.400;  -20.000;    0.000; 8.60000
 407.58;  -30.400;  -19.000;    0.000;-11.40000
 407.87;  -20.867;  -29.333;    0.000; 8.46667
 408.16;  -14.600;  -21.400;    0.000; 6.80000
 408.46;  -13.533;  -36.867;    0.000;23.33333
 408.75;  -20.600;  -28.667;    0.000; 8.06667
 409.04;    2.600;  -29.733;    0.000;32.33333
 409.33;  -10.467;  -13.533;    0.000; 3.06667
 409.62;    2.333;    2.267;    0.000; 0.06667
 409.92;  -11.533;  -16.000;    0.000; 4.46667
 410.21;  -11.733;  -34.867;    0.000;23.13333
 410.50;  -19.867;  -19.000;    0.000;-0.86667
 410.79;    6.867;   -0.933;    0.000; 7.80000
 411.08;  -18.000;  -12.267;    0.000;-5.73333
 411.37;  -24.267;  -24.400;    0.000; 0.13333
 411.67;  -17.733;  -24.667;    0.000; 6.93333
 411.96;  -14.067;  -21.533;    0.000; 7.46667
 412.25;  -15.800;  -11.000;    0.000;-4.80000
 412.54;  -26.333;  -18.200;    0.000;-8.13333
 412.83;  -13.867;  -14.667;    0.000; 0.80000
 413.13;   -8.400;  -19.400;    0.000;11.00000
 413.42;  -17.933;  -18.667;    0.000; 0.73333
 413.71;    8.800;  -21.000;    0.000;29.80000
 414.00;  -33.467;  -32.467;    0.000;-1.00000
 414.29;  -15.600;  -19.867;    0.000; 4.26667
 414.58;  -23.933;  -29.867;    0.000; 5.93333
 414.87;  -13.733;  -40.667;    0.000;26.93333
 415.17;  -27.400;  -30.333;    0.000; 2.93333
 415.46;  -15.000;  -29.000;    0.000;14.00000
 415.75;  -14.733;   -8.733;    0.000;-6.00000
 416.04;  -19.933;  -10.400;    0.000;-9.53333
 416.33;  -12.067;  -15.933;    0.000; 3.86667
 416.62;  -22.800;  -25.867;    0.000; 3.06667
 416.91;  -17.467;   14.667;    0.000;-32.13333
 417.21;  -16.867;  -36.667;    0.000;19.80000
 417.50;  -17.933;  -42.533;    0.000;24.60000
 417.79;  -17.667;  -17.800;    0.000; 0.13333
 418.08;   -5.733;   -5.933;    0.000; 0.20000
 418.37;   -8.000;  -20.867;    0.000;12.86667
 418.66;  -15.733;  -16.133;    0.000; 0.40000
 418.95;    8.800;  -16.733;    0.000;25.53333
 419.24;  -25.067;  -30.933;    0.000; 5.86666
 419.54;   -3.067;  -19.600;    0.000;16.53333
 419.83;  -12.467;  -17.600;    0.000; 5.13333
 420.12;  -16.733;  -29.933;    0.000;13.20000
 420.41;    2.733;   17.667;    0.000;-14.93333
 420.70;  -17.467;  -33.733;    0.000;16.26667
 420.99;  -16.533;   -4.667;    0.000;-11.86667
 421.28;    4.600;  -20.067;    0.000;24.66667
 421.57;  -18.133;   -5.067;    0.000;-13.06667
 421.86;   28.600;    1.267;    0.000;27.33333
 422.16;    2.533;  -14.000;    0.000;16.53333
 422.45;    5.000;  -40.467;    0.000;45.46667
 422.74;  -23.000;  -16.867;    0.000;-6.13333
 423.03;  -14.400;  -15.133;    0.000; 0.73333
 423.32;  -38.800;  -11.533;    0.000;-27.26667
 423.61;   17.000;  -12.733;    0.000;29.73333
 423.90;   -8.933;  -27.000;    0.000;18.06667
 424.19;   47.733;   27.933;    0.000;19.80000
 424.48;  -16.267;  -15.733;    0.000;-0.53333
 424.77;   -7.467;  -11.533;    0.000; 4.06667
 425.06;    2.133;    0.400;    0.000; 1.73333
 425.35;    8.067;   -3.200;    0.000;11.26667
 425.65;  -18.333;  -21.733;    0.000; 3.40000
 425.94;   -5.800;  -35.067;    0.000;29.26667
 426.23;  -32.667;  -37.200;    0.000; 4.53333
 426.52;  -13.067;  -32.333;    0.000;19.26667
 426.81;   16.933;   30.267;    0.000;-13.33333
 427.10;  -26.800;  -34.267;    0.000; 7.46667
 427.39;  -10.933;  -18.133;    0.000; 7.20000
 427.68;  -21.267;  -21.067;    0.000;-0.20000
 427.97;  -22.600;    5.667;    0.000;-28.26667
 428.26;  -25.333;  -31.667;    0.000; 6.33333
 428.55;   -0.400;   -6.133;    0.000; 5.73333
 428.84;  -10.400;   -9.933;    0.000;-0.46667
 429.13;  -20.067;  -28.067;    0.000; 8.00000
 429.42;  -11.400;  -16.867;    0.000; 5.46667
 429.71;   -1.733;  -20.600;    0.000;18.86667
 430.00;  -23.533;   -8.267;    0.000;-15.26667
 430.29;  -17.533;  -40.733;    0.000;23.20000
 430.58;  -32.067;  -24.933;    0.000;-7.13333
 430.87;  -13.600;  -30.667;    0.000;17.06667
 431.16;  -24.200;  -11.200;    0.000;-13.00000
 431.46;  -10.067;  -15.733;    0.000; 5.66667
 431.75;  -19.333;  -28.133;    0.000; 8.80000
 432.04;   -2.267;  -15.867;    0.000;13.60000
 432.33;   -6.400;  -12.800;    0.000; 6.40000
 432.62;  -16.400;  -21.933;    0.000; 5.53333
 432.91;  -20.133;  -26.333;    0.000; 6.20000
 433.20;   -5.467;  -20.867;    0.000;15.40000
 433.49;  -19.000;  -45.733;    0.000;26.73333
 433.78;   -8.467;  -30.000;    0.000;21.53333
 434.07;   -9.333;  -22.133;    0.000;12.80000
 434.36;  -25.200;  -20.933;    0.000;-4.26667
 434.65;  -25.933;  -26.733;    0.000; 0.80000
 434.94;  -22.400;  -41.800;    0.000;19.40000
 435.23;    4.933;  -13.067;    0.000;18.00000
 435.52;  -16.400;   -6.467;    0.000;-9.93333
 435.81;   -9.467;  -18.200;    0.000; 8.73333
 436.10;  -16.067;  -25.267;    0.000; 9.20000
 436.39;    6.467;  -15.267;    0.000;21.73333
 436.68;   -8.867;  -22.333;    0.000;13.46667
 436.97;  -25.200;  -24.333;    0.000;-0.86667
 437.26;  -15.200;   -8.200;    0.000;-7.00000
 437.55;    7.667;  -33.800;    0.000;41.46667
 437.83;  -33.267;  -24.733;    0.000;-8.53333
 438.12;  -18.333;  -37.200;    0.000;18.86667
 438.41;  -13.333;  -15.267;    0.000; 1.93333
 438.70;   29.200;   23.600;    0.000; 5.60000
 438.99;    3.133;   -2.933;    0.000; 6.06667
 439.28;   -3.133;  -22.600;    0.000;19.46667
 439.57;  -22.200;  -18.667;    0.000;-3.53333
 439.86;  -18.533;  -32.467;    0.000;13.93333
 440.15;  -10.000;   -6.933;    0.000;-3.06667
 440.44;  -15.133;  -29.667;    0.000;14.53333
 440.73;  -22.800;  -41.400;    0.000;18.60000
 441.02;   -4.200;  -29.800;    0.000;25.60000
 441.31;  -15.800;  -15.733;    0.000;-0.06667
 441.60;   -4.067;  -20.667;    0.000;16.60000
 441.89;  -50.000;  -26.867;    0.000;-23.13333
 442.18;    0.067;  -16.800;    0.000;16.86667
 442.47;  -27.600;  -13.200;    0.000;-14.40000
 442.76;  -21.067;  -26.667;    0.000; 5.60000
 443.05;    2.933;  -11.400;    0.000;14.33333
 443.34;   -6.667;  -25.333;    0.000;18.66667
 443.63;  -31.867;  -34.067;    0.000; 2.20000
 443.91;  -17.933;  -28.533;    0.000;10.60000
 444.20;  -28.400;  -36.600;    0.000; 8.20000
 444.49;  -30.800;  -36.200;    0.000; 5.40000
 444.78;  -13.333;    1.933;    0.000;-15.26667
 445.07;   -8.133;  -20.067;    0.000;11.93333
 445.36;  -36.467;  -35.800;    0.000;-0.66667
 445.65;  -17.467;  -16.267;    0.000;-1.20000
 445.94;  -30.933;  -21.400;    0.000;-9.53333
 446.23;   -7.067;  -38.067;    0.000;31.00000
 446.52;   -9.333;   -5.467;    0.000;-3.86667
 446.81;  -20.467;  -17.400;    0.000;-3.06667
 447.10;  -23.933;  -19.533;    0.000;-4.40000
 447.38;  -32.933;  -38.600;    0.000; 5.66666
 447.67;  -19.533;  -50.000;    0.000;30.46667
 447.96;  -27.200;  -49.267;    0.000;22.06667
 448.25;  -30.933;  -11.933;    0.000;-19.00000
 448.54;   94.333;   81.200;    0.000;13.13334
 448.83;  -21.467;  -28.067;    0.000; 6.60000
 449.12;  -33.000;  -47.133;    0.000;14.13334
 449.41;   -2.400;  -25.467;    0.000;23.06667
 449.70;   -9.667;  -39.867;    0.000;30.20000
 449.98;  -33.533;  -28.800;    0.000;-4.73333
 450.27;    8.267;  -24.600;    0.000;32.86667
 450.56;  -35.000;  -23.733;    0.000;-11.26667
 450.85;  -10.867;  -14.533;    0.000; 3.66667
 451.14;  -23.867;  -27.867;    0.000; 4.00000
 451.43;  -34.600;  -44.133;    0.000; 9.53334
 451.72;  -24.000;  -29.800;    0.000; 5.80000
 452.01;   -2.067;  -25.533;    0.000;23.46667
 452.29;  -26.600;  -27.533;    0.000; 0.93333
 452.58;  -18.133;  -35.333;    0.000;17.20000
 452.87;  -16.067;  -17.133;    0.000; 1.06667
 453.16;   -9.200;  -26.533;    0.000;17.33333
 453.45;    1.467;   -0.200;    0.000; 1.66667
 453.74;    4.067;  -14.467;    0.000;18.53333
 454.03;  -17.933;  -18.267;    0.000; 0.33333
 454.31;  -12.933;  -32.933;    0.000;20.00000
 454.60;  -29.000;  -23.133;    0.000;-5.86667
 454.89;   -2.733;  -17.333;    0.000;14.60000
 455.18;  -29.000;  -21.933;    0.000;-7.06667
 455.47;  -34.267;  -49.200;    0.000;14.93333
 455.76;  -20.400;  -17.267;    0.000;-3.13333
 456.04;   -1.333;  -30.333;    0.000;29.00000
 456.33;  -26.200;  -26.533;    0.000; 0.33333
 456.62;  -15.267;  -24.867;    0.000; 9.60000
 456.91;  -23.400;  -47.000;    0.000;23.60000
 457.20;  -11.800;  -13.333;    0.000; 1.53333
 457.49;  -22.067;  -22.933;    0.000; 0.86666
 457.77;  -26.600;  -28.667;    0.000; 2.06667
 458.06;  -14.267;  -19.333;    0.000; 5.06667
 458.35;  -26.533;  -35.133;    0.000; 8.60000
 458.64;   -6.333;  -13.733;    0.000; 7.40000
 458.93;   -7.400;  -33.933;    0.000;26.53333
 459.21;  -16.200;  -45.267;    0.000;29.06667
 459.50;  -12.133;  -24.333;    0.000;12.20000
 459.79;  -29.400;  -36.400;    0.000; 7.00000
 460.08;   -8.467;  -42.400;    0.000;33.93334
 460.37;  -19.867;  -24.333;    0.000; 4.46667
 460.65;    3.000;  -26.333;    0.000;29.33333
 460.94;  -22.467;  -36.333;    0.000;13.86666
 461.23;  -14.600;  -32.533;    0.000;17.93333
 461.52;    6.000;   17.333;    0.000;-11.33333
 461.81;  -16.267;  -33.933;    0.000;17.66667
 462.09;   -1.067;  -24.667;    0.000;23.60000
 462.38;  -20.133;  -53.333;    0.000;33.20000
 462.67;   -5.467;  -15.400;    0.000; 9.93333
 462.96;   -3.867;  -40.267;    0.000;36.40000
 463.24;  -20.667;  -18.467;    0.000;-2.20000
 463.53;   -6.200;  -25.467;    0.000;19.26667
 463.82;  -27.533;   -2.667;    0.000;-24.86667
 464.11;   -8.333;  -34.867;    0.000;26.53333
 464.40;  -11.333;  -35.800;    0.000;24.46667
 464.68;  -30.667;  -47.400;    0.000;16.73334
 464.97;  -30.333;  -32.333;    0.000; 2.00000
 465.26;  -24.000;   -9.533;    0.000;-14.46667
 465.55;  -11.600;  -12.600;    0.000; 1.00000
 465.83;  -20.133;  -36.467;    0.000;16.33333
 466.12;  -25.000;  -22.400;    0.000;-2.60000
 466.41;   -3.533;  -38.200;    0.000;34.66667
 466.70;  -19.800;  -33.533;    0.000;13.73333
 466.98;   -8.867;  -44.333;    0.000;35.46667
 467.27;  -14.333;  -12.800;    0.000;-1.53333
 467.56;  -16.000;   -5.267;    0.000;-10.73333
 467.85;  -17.200;  -13.867;    0.000;-3.33333
 468.13;  -22.533;  -48.000;    0.000;25.46667
 468.42;  -12.533;  -30.467;    0.000;17.93333
 468.71;   -1.133;  -39.200;    0.000;38.06667
 468.99;  -15.133;  -11.267;    0.000;-3.86667
 469.28;  -15.400;  -31.867;    0.000;16.46667
 469.57;  -33.400;  -35.200;    0.000; 1.80000
 469.86;  -20.267;  -50.333;    0.000;30.06667
 470.14;  -36.400;  -14.333;    0.000;-22.06667
 470.43;   10.267;  -24.800;    0.000;35.06667
 470.72;  -29.200;  -28.933;    0.000;-0.26667
 471.00;  -15.467;  -41.667;    0.000;26.20000
 471.29;    9.800;   12.733;    0.000;-2.93333
 471.58;    4.200;   -6.133;    0.000;10.33333
 471.87;  -43.267;  -29.800;    0.000;-13.46667
 472.15;  -10.800;  -34.400;    0.000;23.60000
 472.44;  -15.067;    8.400;    0.000;-23.46667
 472.73;  -30.400;  -59.467;    0.000;29.06667
 473.01;  -30.533;  -23.667;    0.000;-6.86667
 473.30;   -2.867;  -31.000;    0.000;28.13333
 473.59;  -34.867;  -31.467;    0.000;-3.40000
 473.87;  -22.400;  -26.933;    0.000; 4.53333
 474.16;  -40.267;  -33.600;    0.000;-6.66667
 474.45;  -20.933;  -42.133;    0.000;21.20000
 474.74;  -21.400;  -44.467;    0.000;23.06667
 475.02;    1.600;  -35.067;    0.000;36.66667
 475.31;   -9.733;  -24.800;    0.000;15.06667
 475.60;   -0.667;  -15.400;    0.000;14.73333
 475.88;  -19.133;  -26.733;    0.000; 7.60000
 476.17;   11.067;   -1.333;    0.000;12.40000
 476.46;   -7.067;  -39.867;    0.000;32.80000
 476.74;  -18.400;  -49.867;    0.000;31.46667
 477.03;  -30.867;  -24.000;    0.000;-6.86667
 477.32;    4.467;    2.133;    0.000; 2.33333
 477.60;  -17.067;  -24.133;    0.000; 7.06667
 477.89;  -11.600;  -30.400;    0.000;18.80000
 478.18;  -13.467;    0.067;    0.000;-13.53333
 478.46;   -5.200;  -30.333;    0.000;25.13333
 478.75;  -13.600;  -35.267;    0.000;21.66667
 479.03;  -16.267;  -44.067;    0.000;27.80000
 479.32;  -23.000;  -44.533;    0.000;21.53333
 479.61;  -11.067;  -42.200;    0.000;31.13333
 479.89;  -13.600;  -29.667;    0.000;16.06667
 480.18;   -5.133;  -38.467;    0.000;33.33333
 480.47;  -10.533;   -6.133;    0.000;-4.40000
 480.75;  -25.333;  -42.133;    0.000;16.80000
 481.04;  -26.933;  -16.667;    0.000;-10.26667
 481.33;   -3.400;  -30.800;    0.000;27.40000
 481.61;  -21.667;  -19.933;    0.000;-1.73333
 481.90;  -40.933;  -63.733;    0.000;22.80000
 482.18;  -14.267;   -9.067;    0.000;-5.20000
 482.47;   10.200;  -22.667;    0.000;32.86667
 482.76;  -22.733;  -45.333;    0.000;22.60000
 483.04;  -10.400;  -37.667;    0.000;27.26667
 483.33;  -26.933;  -22.333;    0.000;-4.60000
 483.61;  -20.667;  -40.933;    0.000;20.26667
 483.90;  -18.733;  -16.333;    0.000;-2.40000
 484.19;  -23.067;  -46.400;    0.000;23.33333
 484.47;  -18.933;  -21.733;    0.000; 2.80000
 484.76;  -24.333;  -59.933;    0.000;35.60000
 485.05;   -9.000;  -19.600;    0.000;10.60000
 485.33;   -8.200;  -16.000;    0.000; 7.80000
 485.62;  -36.000;  -34.400;    0.000;-1.60000
 485.90;   -1.133;  -30.133;    0.000;29.00000
 486.19;   -4.733;  -33.000;    0.000;28.26667
 486.47;  -15.667;   -8.200;    0.000;-7.46667
 486.76;  -29.933;  -31.467;    0.000; 1.53333
 487.05;   11.667;  -10.333;    0.000;22.00000
 487.33;  -23.600;  -27.067;    0.000; 3.46667
 487.62;    4.400;  -68.133;    0.000;72.53333
 487.90;  -20.533;  -23.600;    0.000; 3.06667
 488.19;    6.733;  -18.533;    0.000;25.26667
 488.47;   -5.200;  -20.467;    0.000;15.26667
 488.76;  -25.133;  -36.333;    0.000;11.20000
 489.05;   -0.933;    1.000;    0.000;-1.93333
 489.33;   -5.933;  -36.867;    0.000;30.93333
 489.62;    6.800;  -14.000;    0.000;20.80000
 489.90;    6.000;  -38.533;    0.000;44.53333
 490.19;  -15.867;  -51.933;    0.000;36.06667
 490.47;    9.133;  -24.200;    0.000;33.33333
 490.76;    1.667;  -36.733;    0.000;38.40000
 491.05;   19.000;  -16.533;    0.000;35.53333
 491.33;   30.267;  -19.267;    0.000;49.53333
 491.62;    5.867;  -30.267;    0.000;36.13333
 491.90;   18.133;  -27.867;    0.000;46.00000
 492.19;   23.133;  -30.133;    0.000;53.26667
 492.47;   29.000;  -37.333;    0.000;66.33333
 492.76;   47.067;  -42.867;    0.000;89.93333
 493.04;   42.467;  -25.800;    0.000;68.26667
 493.33;   67.000;  -39.733;    0.000;106.73333
 493.61;   74.933;  -22.400;    0.000;97.33333
 493.90;   87.867;  -21.200;    0.000;109.06667
 494.18;  105.600;  -20.400;    0.000;126.00000
 494.47;  113.600;  -32.400;    0.000;146.00000
 494.75;   94.733;  -39.067;    0.000;133.80000
 495.04;  145.333;  -26.733;    0.000;172.06666
 495.32;  136.267;  -21.733;    0.000;158.00000
 495.61;  145.467;  -37.333;    0.000;182.79999
 495.89;  183.467;  -36.000;    0.000;219.46666
 496.18;  181.267;  -30.333;    0.000;211.60000
 496.46;  217.867;  -37.533;    0.000;255.40000
 496.75;  254.400;  -29.400;    0.000;283.79999
 497.03;  268.800;  -29.600;    0.000;298.39999
 497.32;  258.133;  -39.400;    0.000;297.53333
 497.60;  292.933;  -52.200;    0.000;345.13332
 497.89;  351.867;  -42.200;    0.000;394.06667
 498.17;  383.067;  -17.667;    0.000;400.73335
 498.46;  416.667;  -34.067;    0.000;450.73332
 498.74;  457.600;  -29.533;    0.000;487.13334
 499.03;  476.467;  -39.000;    0.000;515.46667
 499.31;  549.800;  -31.867;    0.000;581.66665
 499.60;  567.933;  -12.933;    0.000;580.86668
 499.88;  636.333;   -4.267;    0.000;640.59998
 500.17;  657.600;  -41.800;    0.000;699.39997
 500.45;  689.067;  -25.400;    0.000;714.46665
 500.74;  755.400;  -10.133;    0.000;765.53336
 501.02;  793.333;  -39.933;    0.000;833.26665
 501.31;  831.000;  -54.867;    0.000;885.86666
 501.59;  926.867;  -21.000;    0.000;947.86664
 501.88;  991.200;  -40.667;    0.000;1031.86668
 502.16; 1051.267;  -30.400;    0.000;1081.66672
 502.45; 1073.467;  -35.400;    0.000;1108.86668
 502.73; 1119.933;  -27.067;    0.000;1147.00002
 503.01; 1194.867;  -29.133;    0.000;1224.00003
 503.30; 1241.067;  -24.000;    0.000;1265.06665
 503.58; 1326.467;  -41.333;    0.000;1367.80001
 503.87; 1379.400;  -26.600;    0.000;1406.00002
 504.15; 1420.600;  -50.067;    0.000;1470.66664
 504.44; 1514.867;  -17.267;    0.000;1532.13337
 504.72; 1639.933;  -13.600;    0.000;1653.53335
 505.00; 1683.400;  -13.800;    0.000;1697.20002
 505.29; 1774.533;  -11.600;    0.000;1786.13333
 505.57; 1840.267;   -9.867;    0.000;1850.13339
 505.86; 1918.267;  -41.533;    0.000;1959.80006
 506.14; 1977.533;  -44.800;    0.000;2022.33332
 506.43; 2087.200;  -21.267;    0.000;2108.46662
 506.71; 2180.000;  -54.400;    0.000;2234.40000
 506.99; 2233.133;  -38.133;    0.000;2271.26664
 507.28; 2318.467;  -29.667;    0.000;2348.13322
 507.56; 2392.133;  -60.133;    0.000;2452.26664
 507.85; 2493.133;  -35.067;    0.000;2528.19997
 508.13; 2572.467;  -49.667;    0.000;2622.13322
 508.41; 2763.800;    8.133;    0.000;2755.66672
 508.70; 2771.333;  -51.733;    0.000;2823.06659
 508.98; 2872.800;  -44.333;    0.000;2917.13338
 509.27; 3005.667;  -22.600;    0.000;3028.26675
 509.55; 3141.933;  -29.467;    0.000;3171.40002
 509.83; 3156.333;  -49.867;    0.000;3206.19992
 510.12; 3263.133;  -51.267;    0.000;3314.39997
 510.40; 3396.533;  -24.867;    0.000;3421.40011
 510.69; 3443.933;  -34.133;    0.000;3478.06668
 510.97; 3541.000;  -31.800;    0.000;3572.80000
 511.25; 3593.667;  -23.400;    0.000;3617.06675
 511.54; 3707.200;  -37.933;    0.000;3745.13329
 511.82; 3848.133;  -34.067;    0.000;3882.19997
 512.11; 3918.133;  -59.467;    0.000;3977.59997
 512.39; 3982.400;  -46.467;    0.000;4028.86657
 512.67; 4164.600;  -50.600;    0.000;4215.20010
 512.96; 4184.333;  -34.533;    0.000;4218.86683
 513.24; 4319.533;  -33.200;    0.000;4352.73320
 513.52; 4354.667;  -25.933;    0.000;4380.59984
 513.81; 4527.267;  -26.267;    0.000;4553.53327
 514.09; 4580.333;  -41.533;    0.000;4621.86683
 514.37; 4710.467;  -47.200;    0.000;4757.66680
 514.66; 4788.533;  -16.733;    0.000;4805.26654
 514.94; 4841.467;  -24.667;    0.000;4866.13346
 515.22; 4874.133;  -39.133;    0.000;4913.26664
 515.51; 5015.533;  -47.133;    0.000;5062.66654
 515.79; 5112.000;  -46.467;    0.000;5158.46667
 516.07; 5180.533;  -38.200;    0.000;5218.73320
 516.36; 5270.333;  -33.133;    0.000;5303.46683
 516.64; 5361.333;  -40.867;    0.000;5402.20016
 516.92; 5479.533;  -45.533;    0.000;5525.06654
 517.21; 5649.133;  -66.133;    0.000;5715.26663
 517.49; 5689.467;  -37.800;    0.000;5727.26680
 517.77; 5869.067;  -41.933;    0.000;5911.00023
 518.06; 5872.400;  -37.667;    0.000;5910.06657
 518.34; 6091.200;  -19.533;    0.000;6110.73353
 518.62; 6169.800;  -19.933;    0.000;6189.73314
 518.91; 6266.800;  143.200;    0.000;6123.59981
 519.19; 6316.000;  -42.733;    0.000;6358.73333
 519.47; 6429.867;  -29.533;    0.000;6459.40003
 519.76; 6476.267;  -29.133;    0.000;6505.39993
 520.04; 6513.267;  -37.467;    0.000;6550.73327
 520.32; 6509.667;    4.267;    0.000;6505.39984
 520.61; 6734.800;  -10.333;    0.000;6745.13314
 520.89; 6689.733;  -35.467;    0.000;6725.20007
 521.17; 6859.200;  -45.800;    0.000;6905.00019
 521.45; 6948.800;  -30.800;    0.000;6979.59980
 521.74; 7006.400;  -43.467;    0.000;7049.86657
 522.02; 7103.933;  -10.000;    0.000;7113.93311
 522.30; 7173.133;  -40.667;    0.000;7213.79997
 522.59; 7223.267;  -12.467;    0.000;7235.73327
 522.87; 7366.733;  -34.000;    0.000;7400.73340
 523.15; 7390.133;  -25.667;    0.000;7415.79997
 523.43; 7402.600;  -52.067;    0.000;7454.66676
 523.72; 7524.067;  -17.933;    0.000;7542.00023
 524.00; 7552.000;  -49.067;    0.000;7601.06667
 524.28; 7686.400;  -19.733;    0.000;7706.13324
 524.57; 7746.600;  -24.000;    0.000;7770.60010
 524.85; 7784.800;  -39.667;    0.000;7824.46647
 525.13; 7829.000;  -37.800;    0.000;7866.80000
 525.41; 7963.133;  -15.933;    0.000;7979.06663
 525.70; 7993.467;  -39.200;    0.000;8032.66680
 525.98; 8026.333;  -40.000;    0.000;8066.33350
 526.26; 8172.267;  -38.467;    0.000;8210.73327
 526.54; 8232.400;   -6.133;    0.000;8238.53372
 526.83; 8226.467;  -41.067;    0.000;8267.53346
 527.11; 8251.066;  -10.600;    0.000;8261.66641
 527.39; 8323.333;  -42.867;    0.000;8366.19967
 527.67; 8316.200;  -26.533;    0.000;8342.73353
 527.96; 8405.400;  -44.800;    0.000;8450.20039
 528.24; 8573.866;  -36.800;    0.000;8610.66621
 528.52; 8581.066;  -45.200;    0.000;8626.26641
 528.80; 8739.600;  -20.667;    0.000;8760.26628
 529.08; 8667.267;  -61.067;    0.000;8728.33327
 529.37; 8816.267;  -22.000;    0.000;8838.26660
 529.65; 8811.267;  -42.133;    0.000;8853.39994
 529.93; 8810.866;  -33.733;    0.000;8844.59954
 530.21; 8917.667;  -60.200;    0.000;8977.86699
 530.50; 8938.134;   -5.600;    0.000;8943.73379
 530.78; 8990.066;  -45.933;    0.000;9035.99974
 531.06; 9123.533;  -44.533;    0.000;9168.06654
 531.34; 9156.667;  -43.400;    0.000;9200.06699
 531.62; 9085.934;  -60.400;    0.000;9146.33360
 531.91; 9231.934;  -48.733;    0.000;9280.66693
 532.19; 9223.934;  -35.600;    0.000;9259.53359
 532.47; 9302.800;  -39.333;    0.000;9342.13314
 532.75; 9371.934;  -25.400;    0.000;9397.33359
 533.03; 9410.866;  -13.067;    0.000;9423.93288
 533.32; 9395.533;  -30.467;    0.000;9425.99987
 533.60; 9500.600;  -42.733;    0.000;9543.33294
 533.88; 9517.000;  -23.133;    0.000;9540.13333
 534.16; 9555.333;  -39.933;    0.000;9595.26634
 534.44; 9707.400;  -14.400;    0.000;9721.80039
 534.72; 9701.066;  -56.267;    0.000;9757.33307
 535.01; 9639.467;  -38.467;    0.000;9677.93346
 535.29; 9783.866;  -60.267;    0.000;9844.13288
 535.57; 9750.066;  -51.667;    0.000;9801.73307
 535.85; 9770.533;  -37.467;    0.000;9807.99987
 536.13; 9794.200;  -35.267;    0.000;9829.46686
 536.42; 9866.800;  -50.600;    0.000;9917.39980
 536.70; 9920.134;  -37.933;    0.000;9958.06712
 536.98; 9929.000;  -29.933;    0.000;9958.93333
 537.26;10015.800;  -47.867;    0.000;10063.66647
 537.54;10064.866;  -68.200;    0.000;10133.06621
 537.82;10053.000;  -30.533;    0.000;10083.53333
 538.10;10106.066;  -36.067;    0.000;10142.13307
 538.39;10164.400;  -26.133;    0.000;10190.53372
 538.67;10211.467;  -35.733;    0.000;10247.20013
 538.95;10179.533;  -55.667;    0.000;10235.19987
 539.23;10221.800;  -45.333;    0.000;10267.13314
 539.51;10304.533;  -18.133;    0.000;10322.66654
 539.79;10335.934;  -36.133;    0.000;10372.06693
 540.07;10341.134;  -44.267;    0.000;10385.40046
 540.36;10364.533;  -52.133;    0.000;10416.66654
 540.64;10391.134;  -50.933;    0.000;10442.06712
 540.92;10459.866;  -51.133;    0.000;10510.99955
 541.20;10490.733;  -29.667;    0.000;10520.40006
 541.48;10633.866;   -2.533;    0.000;10636.39954
 541.76;10565.600;  -34.000;    0.000;10599.59961
 542.04;10536.333;  -58.333;    0.000;10594.66634
 542.32;10620.400;  -50.533;    0.000;10670.93372
 542.61;10690.934;  -35.467;    0.000;10726.40026
 542.89;10657.934;  -21.867;    0.000;10679.80026
 543.17;10735.533;  -37.333;    0.000;10772.86654
 543.45;10770.934;  -43.733;    0.000;10814.66693
 543.73;10789.866;  -50.933;    0.000;10840.79955
 544.01;10717.800;  -29.200;    0.000;10746.99981
 544.29;10837.000;  -28.600;    0.000;10865.60000
 544.57;10835.066;  -43.333;    0.000;10878.39974
 544.85;10766.134;  -50.400;    0.000;10816.53379
 545.13;10779.667;  -24.733;    0.000;10804.40033
 545.42;10948.400;  -45.733;    0.000;10994.13372
 545.70;10896.066;  -25.267;    0.000;10921.33307
 545.98;11050.333;  -58.867;    0.000;11109.19967
 546.26;10942.733;  -45.400;    0.000;10988.13340
 546.54;10865.400;  -54.400;    0.000;10919.80039
 546.82;10950.866;  -27.000;    0.000;10977.86621
 547.10;11098.667;  -21.800;    0.000;11120.46699
 547.38;11018.134;  -47.733;    0.000;11065.86712
 547.66;11019.467;  -34.933;    0.000;11054.40013
 547.94;10981.400;  -39.333;    0.000;11020.73372
 548.22;11055.000;  -43.200;    0.000;11098.20000
 548.50;11075.934;  -43.800;    0.000;11119.73359
 548.78;11139.134;  -38.667;    0.000;11177.80046
 549.06;10998.066;  -30.533;    0.000;11028.59974
 549.34;11092.267;  -50.667;    0.000;11142.93327
 549.63;11089.267;  -27.533;    0.000;11116.79993
 549.91;11084.267;  -40.800;    0.000;11125.06660
 550.19;11152.200;  -15.933;    0.000;11168.13353
 550.47;11060.667;  -53.400;    0.000;11114.06699
 550.75;11204.600;  -66.600;    0.000;11271.19961
 551.03;11181.600;  -61.600;    0.000;11243.19961
 551.31;11141.800;  -33.000;    0.000;11174.79980
 551.59;11186.467;  -65.733;    0.000;11252.20013
 551.87;11146.267;  -17.733;    0.000;11163.99994
 552.15;11175.267;  -62.133;    0.000;11237.39994
 552.43;11261.600;  -23.733;    0.000;11285.33294
 552.71;11225.267;  -52.067;    0.000;11277.33327
 552.99;11103.667;  -41.533;    0.000;11145.20033
 553.27;11151.866;  -51.067;    0.000;11202.93288
 553.55;11225.200;  -47.400;    0.000;11272.60020
 553.83;11280.000;  -50.333;    0.000;11330.33333
 554.11;11302.934;  -27.467;    0.000;11330.40026
 554.39;11343.600;  -29.467;    0.000;11373.06628
 554.67;11250.934;  -38.667;    0.000;11289.60026
 554.95;11262.733;  -32.133;    0.000;11294.86673
 555.23;11269.533;  -29.133;    0.000;11298.66654
 555.51;11199.200;  -56.467;    0.000;11255.66686
 555.79;11161.800;  -30.933;    0.000;11192.73314
 556.07;11203.333;  -48.267;    0.000;11251.59967
 556.35;11097.467;  -44.000;    0.000;11141.46680
 556.63;11230.934;  -51.200;    0.000;11282.13359
 556.91;11239.200;  -14.133;    0.000;11253.33353
 557.19;11209.733;  -57.133;    0.000;11266.86673
 557.47;11132.667;  -29.533;    0.000;11162.20033
 557.75;11084.200;  -55.667;    0.000;11139.86686
 558.03;11196.733;  -43.400;    0.000;11240.13340
 558.31;11077.934;  -55.267;    0.000;11133.20026
 558.59;11146.267;  -40.467;    0.000;11186.73327
 558.87;11194.134;  -44.467;    0.000;11238.60046
 559.15;11190.733;  -37.600;    0.000;11228.33340
 559.43;11212.066;  -44.400;    0.000;11256.46641
 559.71;11150.267;  -25.267;    0.000;11175.53327
 559.99;11111.200;  -46.133;    0.000;11157.33353
 560.27;11162.467;  -17.800;    0.000;11180.26680
 560.55;11167.533;  -41.533;    0.000;11209.06654
 560.82;11088.600;  -48.000;    0.000;11136.59961
 561.10;11170.533;  -60.000;    0.000;11230.53320
 561.38;11150.533;  -54.533;    0.000;11205.06654
 561.66;11111.667;  -33.133;    0.000;11144.80033
 561.94;11096.200;  -42.200;    0.000;11138.40020
 562.22;11002.267;  -47.267;    0.000;11049.53327
 562.50;11211.800;  -27.333;    0.000;11239.13314
 562.78;11132.533;  -32.267;    0.000;11164.79987
 563.06;11041.667;  -44.600;    0.000;11086.26699
 563.34;11028.733;  -42.067;    0.000;11070.80006
 563.62;11040.866;  -45.200;    0.000;11086.06621
 563.90;10914.267;  -55.533;    0.000;10969.79993
 564.18;11078.134;  -32.867;    0.000;11111.00045
 564.46;10947.866;  -42.267;    0.000;10990.13288
 564.74;10998.934;  -34.067;    0.000;11033.00026
 565.01;10962.000;  -41.467;    0.000;11003.46667
 565.29;10918.333;  -33.333;    0.000;10951.66634
 565.57;10920.800;  -52.200;    0.000;10972.99981
 565.85;10867.533;  -26.467;    0.000;10893.99987
 566.13;10839.467;  -61.067;    0.000;10900.53346
 566.41;10881.000;  -17.067;    0.000;10898.06667
 566.69;10857.200;  -44.133;    0.000;10901.33353
 566.97;10806.533;  -41.267;    0.000;10847.79987
 567.25;10851.600;  -57.933;    0.000;10909.53294
 567.53;10770.533;  -48.267;    0.000;10818.79987
 567.80;10675.267;  -41.000;    0.000;10716.26660
 568.08;10657.066;  -31.333;    0.000;10688.39974
 568.36;10624.600;  -40.867;    0.000;10665.46627
 568.64;10589.267;  -38.933;    0.000;10628.19994
 568.92;10600.800;  -20.733;    0.000;10621.53314
 569.20;10622.134;  -49.400;    0.000;10671.53379
 569.48;10615.000;  -63.267;    0.000;10678.26667
 569.76;10530.667;  -44.600;    0.000;10575.26699
 570.03;10491.333;  -34.933;    0.000;10526.26634
 570.31;10525.600;  -19.800;    0.000;10545.39961
 570.59;10442.000;  -51.333;    0.000;10493.33333
 570.87;10406.866;  -29.933;    0.000;10436.79954
 571.15;10423.934;  -77.933;    0.000;10501.86693
 571.43;10373.733;  -28.867;    0.000;10402.60007
 571.71;10400.200;  -53.333;    0.000;10453.53353
 571.98;10381.467;  -39.733;    0.000;10421.20013
 572.26;10393.200;  -46.533;    0.000;10439.73353
 572.54;10276.134;  -47.733;    0.000;10323.86712
 572.82;10262.667;  -45.267;    0.000;10307.93366
 573.10;10241.134;  -42.667;    0.000;10283.80046
 573.38;10288.000;  -47.267;    0.000;10335.26667
 573.66;10082.200;  -47.000;    0.000;10129.20020
 573.93;10060.667;  -58.800;    0.000;10119.46699
 574.21;10089.533;  -51.600;    0.000;10141.13320
 574.49;10011.200;  -62.467;    0.000;10073.66686
 574.77; 9979.800;  -44.533;    0.000;10024.33314
 575.05;10024.600;  -34.733;    0.000;10059.33294
 575.33; 9942.533;  -58.333;    0.000;10000.86654
 575.60; 9960.467;  -44.867;    0.000;10005.33346
 575.88; 9978.467;  -36.333;    0.000;10014.80013
 576.16; 9883.134;  -35.267;    0.000;9918.40046
 576.44; 9801.467;  -30.733;    0.000;9832.20013
 576.72; 9748.467;  -62.067;    0.000;9810.53346
 576.99; 9723.467;  -55.067;    0.000;9778.53346
 577.27; 9717.066;  -45.600;    0.000;9762.66640
 577.55; 9686.733;   -8.667;    0.000;9695.40007
 577.83; 9634.467;  -47.533;    0.000;9682.00013
 578.11; 9686.934;  -63.867;    0.000;9750.80026
 578.38; 9614.066;  -41.533;    0.000;9655.59974
 578.66; 9564.400;  -65.267;    0.000;9629.66706
 578.94; 9533.934;  -43.400;    0.000;9577.33360
 579.22; 9393.866;  -52.733;    0.000;9446.59954
 579.50; 9496.866;  -21.133;    0.000;9517.99954
 579.77; 9402.667;  -47.400;    0.000;9450.06699
 580.05; 9376.267;  -49.467;    0.000;9425.73327
 580.33; 9271.066;  -45.600;    0.000;9316.66640
 580.61; 9257.733;  -56.000;    0.000;9313.73340
 580.88; 9206.000;  -35.933;    0.000;9241.93333
 581.16; 9196.866;  -50.200;    0.000;9247.06621
 581.44; 9167.934;  -24.467;    0.000;9192.40026
 581.72; 9137.267;  -71.133;    0.000;9208.39993
 581.99; 9060.333;  -30.200;    0.000;9090.53301
 582.27; 9055.733;  -58.133;    0.000;9113.86673
 582.55; 8936.667;  -51.400;    0.000;8988.06699
 582.83; 9009.800;  -30.533;    0.000;9040.33314
 583.10; 8889.333;  -26.133;    0.000;8915.46634
 583.38; 8829.134;  -70.733;    0.000;8899.86712
 583.66; 8864.066;  -32.533;    0.000;8896.59974
 583.94; 8864.533;  -46.333;    0.000;8910.86654
 584.21; 8736.866;  -53.400;    0.000;8790.26621
 584.49; 8666.066;  -62.467;    0.000;8728.53307
 584.77; 8579.200;  -44.600;    0.000;8623.80019
 585.05; 8494.934;  -70.867;    0.000;8565.80026
 585.32; 8501.200;  -40.067;    0.000;8541.26686
 585.60; 8547.333;  -53.067;    0.000;8600.39967
 585.88; 8542.667;  -39.267;    0.000;8581.93366
 586.16; 8390.066;  -42.067;    0.000;8432.13307
 586.43; 8371.733;   -5.200;    0.000;8376.93340
 586.71; 8289.400;  -29.000;    0.000;8318.40039
 586.99; 8283.934;  -64.400;    0.000;8348.33360
 587.26; 8263.333;  -57.400;    0.000;8320.73301
 587.54; 8060.400;  -38.000;    0.000;8098.39990
 587.82; 8120.400;  -54.400;    0.000;8174.79990
 588.10; 8169.400;  -23.133;    0.000;8192.53324
 588.37; 7973.467;  -46.867;    0.000;8020.33346
 588.65; 7947.067;  -44.600;    0.000;7991.66689
 588.93; 7981.400;  -50.600;    0.000;8031.99990
 589.20; 7897.267;  -41.000;    0.000;7938.26660
 589.48; 7831.467;  -30.800;    0.000;7862.26680
 589.76; 7853.533;   -9.667;    0.000;7863.19987
 590.03; 7699.933;  -39.800;    0.000;7739.73310
 590.31; 7695.267;  -41.400;    0.000;7736.66660
 590.59; 7760.200;  -38.467;    0.000;7798.66686
 590.86; 7591.533;  -34.067;    0.000;7625.59987
 591.14; 7541.733;  -62.400;    0.000;7604.13340
 591.42; 7484.667;  -60.200;    0.000;7544.86650
 591.70; 7468.600;  -55.400;    0.000;7524.00010
 591.97; 7467.933;  -46.600;    0.000;7514.53310
 592.25; 7384.400;  -38.400;    0.000;7422.79990
 592.53; 7375.533;  -30.467;    0.000;7405.99987
 592.80; 7287.600;  -42.533;    0.000;7330.13343
 593.08; 7245.667;  -36.933;    0.000;7282.59984
 593.36; 7173.400;   -5.267;    0.000;7178.66657
 593.63; 7144.933;  -32.933;    0.000;7177.86644
 593.91; 7084.000;  -47.467;    0.000;7131.46667
 594.18; 7063.600;  -29.667;    0.000;7093.26676
 594.46; 7059.533;  -50.333;    0.000;7109.86654
 594.74; 6945.800;  -54.667;    0.000;7000.46647
 595.01; 6931.400;  -70.800;    0.000;7002.19991
 595.29; 6790.800;  -78.067;    0.000;6868.86647
 595.57; 6785.400;  -29.000;    0.000;6814.39990
 595.84; 6727.800;  -48.867;    0.000;6776.66647
 596.12; 6753.000;  -46.267;    0.000;6799.26667
 596.40; 6616.267;  -65.200;    0.000;6681.46660
 596.67; 6591.933;  -68.267;    0.000;6660.19978
 596.95; 6539.667;  -41.667;    0.000;6581.33317
 597.22; 6480.533;  -55.267;    0.000;6535.79987
 597.50; 6467.067;  -26.067;    0.000;6493.13356
 597.78; 6477.133;  -53.067;    0.000;6530.19997
 598.05; 6365.467;  -44.933;    0.000;6410.40013
 598.33; 6325.267;  -52.867;    0.000;6378.13327
 598.61; 6275.133;  -48.333;    0.000;6323.46663
 598.88; 6255.600;  -42.200;    0.000;6297.80010
 599.16; 6170.400;  -51.133;    0.000;6221.53324
 599.43; 6155.800;  -70.800;    0.000;6226.59981
 599.71; 6146.200;  -55.933;    0.000;6202.13353
 599.99; 6058.267;  -58.400;    0.000;6116.66660
 600.26; 6072.533;  -53.400;    0.000;6125.93320
 600.54; 6006.800;  -34.467;    0.000;6041.26647
 600.81; 5912.667;  -35.000;    0.000;5947.66650
 601.09; 5878.933;  -41.400;    0.000;5920.33311
 601.36; 5856.800;  -49.267;    0.000;5906.06647
 601.64; 5849.267;  -43.800;    0.000;5893.06660
 601.92; 5697.800;  -37.467;    0.000;5735.26647
 602.19; 5699.733;  -64.600;    0.000;5764.33340
 602.47; 5627.067;  -65.467;    0.000;5692.53356
 602.74; 5635.000;  -45.667;    0.000;5680.66667
 603.02; 5555.800;  -29.200;    0.000;5584.99981
 603.29; 5570.333;  -35.800;    0.000;5606.13350
 603.57; 5512.267;  -62.533;    0.000;5574.79993
 603.85; 5442.600;  -53.267;    0.000;5495.86676
 604.12; 5472.733;  -18.000;    0.000;5490.73340
 604.40; 5523.067;  -52.800;    0.000;5575.86689
 604.67; 5353.400;  -37.600;    0.000;5390.99990
 604.95; 5362.867;  -59.400;    0.000;5422.26670
 605.22; 5320.800;  -48.333;    0.000;5369.13314
 605.50; 5271.400;  -40.467;    0.000;5311.86657
 605.77; 5184.800;  -26.200;    0.000;5210.99981
 606.05; 5143.000;  -56.600;    0.000;5199.60000
 606.33; 5122.400;  -41.333;    0.000;5163.73323
 606.60; 5128.133;  -52.533;    0.000;5180.66663
 606.88; 5105.933;  -26.400;    0.000;5132.33311
 607.15; 5088.067;  -44.933;    0.000;5133.00023
 607.43; 5022.733;  -33.267;    0.000;5056.00006
 607.70; 4935.867;  -34.133;    0.000;4970.00003
 607.98; 4928.800;  -55.200;    0.000;4983.99981
 608.25; 4880.200;  -67.333;    0.000;4947.53353
 608.53; 4865.467;  -55.200;    0.000;4920.66680
 608.80; 4834.867;  -67.400;    0.000;4902.26670
 609.08; 4870.933;  -55.600;    0.000;4926.53310
 609.35; 4781.067;  -59.400;    0.000;4840.46690
 609.63; 4728.533;  -62.667;    0.000;4791.19987
 609.90; 4672.600;  -63.133;    0.000;4735.73343
 610.18; 4776.733;  -27.600;    0.000;4804.33340
 610.45; 4693.533;  -59.733;    0.000;4753.26654
 610.73; 4645.400;  -53.200;    0.000;4698.59990
 611.00; 4654.067;  -17.533;    0.000;4671.60023
 611.28; 4593.800;  -49.733;    0.000;4643.53314
 611.55; 4571.400;  -72.867;    0.000;4644.26657
 611.83; 4509.733;  -50.467;    0.000;4560.20007
 612.10; 4517.867;  -58.000;    0.000;4575.86670
 612.38; 4506.000;  -39.333;    0.000;4545.33333
 612.65; 4433.933;  -44.467;    0.000;4478.39977
 612.93; 4425.533;  -65.867;    0.000;4491.39987
 613.20; 4435.867;  -41.600;    0.000;4477.46670
 613.48; 4362.533;  -60.267;    0.000;4422.79987
 613.75; 4357.333;  -78.933;    0.000;4436.26683
 614.03; 4353.733;  -53.400;    0.000;4407.13340
 614.30; 4323.533;  -75.000;    0.000;4398.53320
 614.57; 4251.267;  -69.800;    0.000;4321.06660
 614.85; 4285.333;  -60.333;    0.000;4345.66683
 615.12; 4208.133;  -51.133;    0.000;4259.26664
 615.40; 4208.733;  -61.267;    0.000;4270.00006
 615.67; 4173.200;  -51.467;    0.000;4224.66686
 615.95; 4115.467;  -53.800;    0.000;4169.26680
 616.22; 4118.400;  -55.467;    0.000;4173.86657
 616.50; 4135.600;  -45.333;    0.000;4180.93343
 616.77; 4082.467;  -50.933;    0.000;4133.39989
 617.05; 4119.267;  -51.133;    0.000;4170.39994
 617.32; 4001.400;  -51.400;    0.000;4052.79990
 617.59; 3977.133;  -59.800;    0.000;4036.93330
 617.87; 3887.200;  -62.333;    0.000;3949.53328
 618.14; 3897.600;  -73.733;    0.000;3971.33343
 618.42; 3843.600;  -44.267;    0.000;3887.86676
 618.69; 3802.800;  -71.333;    0.000;3874.13338
 618.97; 3804.267;  -62.467;    0.000;3866.73327
 619.24; 3790.067;  -49.600;    0.000;3839.66665
 619.51; 3712.800;  -49.867;    0.000;3762.66671
 619.79; 3662.533;  -53.333;    0.000;3715.86678
 620.06; 3586.067;  -56.000;    0.000;3642.06665
 620.34; 3544.400;  -87.400;    0.000;3631.79990
 620.61; 3457.600;  -41.733;    0.000;3499.33343
 620.88; 3500.467;  -47.200;    0.000;3547.66655
 621.16; 3495.733;  -43.000;    0.000;3538.73340
 621.43; 3530.600;  -65.333;    0.000;3595.93343
 621.71; 3579.133;  -59.200;    0.000;3638.33330
 621.98; 3545.267;  -37.333;    0.000;3582.59993
 622.25; 3404.400;  -50.533;    0.000;3454.93324
 622.53; 3466.600;  -53.733;    0.000;3520.33343
 622.80; 3378.800;  -47.733;    0.000;3426.53338
 623.08; 3413.600;  -65.533;    0.000;3479.13343
 623.35; 3365.867;  -57.600;    0.000;3423.46670
 623.62; 3329.400;  -59.933;    0.000;3389.33324
 623.90; 3329.600;  -60.600;    0.000;3390.20010
 624.17; 3311.333;  -44.600;    0.000;3355.93325
 624.44; 3282.000;  -54.533;    0.000;3336.53333
 624.72; 3239.400;  -41.267;    0.000;3280.66657
 624.99; 3230.333;  -62.933;    0.000;3293.26659
 625.26; 3159.867;  -68.533;    0.000;3228.40003
 625.54; 3255.800;  -41.400;    0.000;3297.20005
 625.81; 3271.400;  -68.467;    0.000;3339.86657
 626.09; 3263.933;  -37.267;    0.000;3301.20002
 626.36; 3251.000;  -57.667;    0.000;3308.66667
 626.63; 3168.333;  -36.733;    0.000;3205.06659
 626.91; 3201.000;  -73.333;    0.000;3274.33334
 627.18; 3214.733;  -41.133;    0.000;3255.86673
 627.45; 3137.333;  -64.800;    0.000;3202.13326
 627.73; 3133.667;  -59.400;    0.000;3193.06675
 628.00; 3128.133;  -82.733;    0.000;3210.86663
 628.27; 3113.600;  -17.933;    0.000;3131.53343
 628.55; 3079.267;  -58.533;    0.000;3137.79993
 628.82; 3076.267;  -66.200;    0.000;3142.46660
 629.09; 3060.200;  -32.067;    0.000;3092.26662
 629.37; 3114.667;  -47.133;    0.000;3161.80008
 629.64; 2989.600;  -55.800;    0.000;3045.40010
 629.91; 3009.667;  -51.533;    0.000;3061.20008
 630.18; 3006.600;  -85.400;    0.000;3092.00010
 630.46; 3017.867;  -34.267;    0.000;3052.13337
 630.73; 3021.467;  -46.133;    0.000;3067.59989
 631.00; 2996.667;  -42.933;    0.000;3039.60008
 631.28; 2969.000;  -81.200;    0.000;3050.20000
 631.55; 2932.733;  -47.667;    0.000;2980.40007
 631.82; 2965.000;  -54.600;    0.000;3019.60000
 632.10; 2932.800;  -33.067;    0.000;2965.86671
 632.37; 2943.267;  -52.667;    0.000;2995.93327
 632.64; 2895.800;  -46.600;    0.000;2942.40005
 632.91; 2965.400;  -65.267;    0.000;3030.66657
 633.19; 2911.533;  -54.867;    0.000;2966.40011
 633.46; 2844.267;  -73.000;    0.000;2917.26660
 633.73; 2942.333;  -27.467;    0.000;2969.79992
 634.01; 2876.267;  -50.000;    0.000;2926.26660
 634.28; 2905.133;  -46.267;    0.000;2951.39997
 634.55; 2897.133;  -34.067;    0.000;2931.19997
 634.82; 2872.867;  -53.400;    0.000;2926.26670
 635.10; 2871.733;  -46.400;    0.000;2918.13340
 635.37; 2873.333;  -51.600;    0.000;2924.93325
 635.64; 2854.467;  -63.600;    0.000;2918.06655
 635.91; 2906.333;  -58.600;    0.000;2964.93325
 636.19; 2876.267;  -65.733;    0.000;2941.99993
 636.46; 2899.667;  -37.867;    0.000;2937.53341
 636.73; 2873.200;  -40.067;    0.000;2913.26662
 637.00; 2955.067;  -34.800;    0.000;2989.86665
 637.28; 2883.600;  -66.933;    0.000;2950.53343
 637.55; 2961.200;  -12.933;    0.000;2974.13328
 637.82; 2861.200;  -57.800;    0.000;2918.99995
 638.09; 2826.667;  -28.600;    0.000;2855.26675
 638.37; 2797.400;  -76.200;    0.000;2873.59990
 638.64; 2780.733;  -55.933;    0.000;2836.66673
 638.91; 2777.733;  -70.200;    0.000;2847.93340
 639.18; 2724.467;  -43.867;    0.000;2768.33322
 639.46; 2711.467;  -80.267;    0.000;2791.73322
 639.73; 2691.667;  -35.467;    0.000;2727.13342
 640.00; 2671.200;  -69.667;    0.000;2740.86662
 640.27; 2640.800;  -72.933;    0.000;2713.73338
 640.54; 2679.267;  -59.533;    0.000;2738.79993
 640.82; 2629.067;  -46.400;    0.000;2675.46665
 641.09; 2585.600;  -62.400;    0.000;2648.00010
 641.36; 2604.267;  -54.133;    0.000;2658.39994
 641.63; 2540.333;  -54.733;    0.000;2595.06659
 641.91; 2504.667;  -58.000;    0.000;2562.66675
 642.18; 2441.267;  -68.533;    0.000;2509.79993
 642.45; 2469.533;  -47.267;    0.000;2516.80011
 642.72; 2457.067;  -74.133;    0.000;2531.19998
 642.99; 2474.333;  -27.000;    0.000;2501.33325
 643.26; 2464.533;  -45.067;    0.000;2509.60011
 643.54; 2360.067;  -34.133;    0.000;2394.19999
 643.81; 2402.467;  -69.267;    0.000;2471.73322
 644.08; 2357.133;  -46.133;    0.000;2403.26664
 644.35; 2318.267;  -49.400;    0.000;2367.66660
 644.62; 2299.067;  -53.400;    0.000;2352.46665
 644.90; 2351.267;  -52.400;    0.000;2403.66660
 645.17; 2267.000;  -53.867;    0.000;2320.86666
 645.44; 2237.733;  -70.333;    0.000;2308.06673
 645.71; 2231.600;  -62.133;    0.000;2293.73343
 645.98; 2245.333;  -74.600;    0.000;2319.93325
 646.25; 2217.533;  -54.867;    0.000;2272.40011
 646.53; 2205.933;  -59.667;    0.000;2265.60002
 646.80; 2174.733;  -51.867;    0.000;2226.60006
 647.07; 2100.467;  -77.333;    0.000;2177.79989
 647.34; 2128.400;  -48.533;    0.000;2176.93324
 647.61; 2138.000;  -62.600;    0.000;2200.60000
 647.88; 2165.400;  -28.600;    0.000;2193.99990
 648.15; 2096.800;  -51.867;    0.000;2148.66671
 648.43; 2122.467;  -46.600;    0.000;2169.06655
 648.70; 2125.267;  -62.933;    0.000;2188.19994
 648.97; 2042.867;  -59.867;    0.000;2102.73336
 649.24; 2090.133;  -50.333;    0.000;2140.46663
 649.51; 2043.467;  -58.600;    0.000;2102.06667
 649.78; 2050.200;  -79.467;    0.000;2129.66662
 650.05; 2039.467;  -45.667;    0.000;2085.13334
 650.32; 2152.400;   32.333;    0.000;2120.06657
 650.60; 1987.467;  -51.000;    0.000;2038.46667
 650.87; 1989.933;  -53.600;    0.000;2043.53335
 651.14; 1981.333;  -50.267;    0.000;2031.60004
 651.41; 1938.467;  -72.133;    0.000;2010.60001
 651.68; 1923.200;  -51.533;    0.000;1974.73328
 651.95; 1923.733;  -41.667;    0.000;1965.39994
 652.22; 1881.200;  -63.267;    0.000;1944.46662
 652.49; 1874.667;  -82.200;    0.000;1956.86662
 652.76; 1862.800;  -69.467;    0.000;1932.26672
 653.03; 1892.067;  -47.533;    0.000;1939.59998
 653.31; 1828.800;  -66.000;    0.000;1894.80005
 653.58; 1874.533;  -66.867;    0.000;1941.39999
 653.85; 1788.867;  -45.467;    0.000;1834.33337
 654.12; 1781.933;  -53.867;    0.000;1835.80001
 654.39; 1834.533;  -11.267;    0.000;1845.79999
 654.66; 1849.267;  -27.933;    0.000;1877.20006
 654.93; 1807.867;  -35.000;    0.000;1842.86670
 655.20; 1757.867;  -72.133;    0.000;1830.00003
 655.47; 1769.067;  -56.400;    0.000;1825.46665
 655.74; 1781.933;  -55.067;    0.000;1837.00002
 656.01; 1722.600;  -63.400;    0.000;1785.99998
 656.28; 1722.067;  -65.600;    0.000;1787.66665
 656.55; 1722.000;  -38.400;    0.000;1760.40000
 656.83; 1714.667;  -59.667;    0.000;1774.33329
 657.10; 1699.933;  -66.400;    0.000;1766.33335
 657.37; 1672.267;  -63.667;    0.000;1735.93339
 657.64; 1662.533;  -59.200;    0.000;1721.73333
 657.91; 1672.200;  -67.267;    0.000;1739.46662
 658.18; 1661.733;  -39.333;    0.000;1701.06661
 658.45; 1649.667;  -72.267;    0.000;1721.93330
 658.72; 1618.067;  -56.667;    0.000;1674.73332
 658.99; 1604.800;  -68.667;    0.000;1673.46671
 659.26; 1645.800;  -30.667;    0.000;1676.46671
 659.53; 1562.467;  -77.000;    0.000;1639.46667
 659.80; 1570.867;  -52.933;    0.000;1623.80003
 660.07; 1571.867;  -41.200;    0.000;1613.06670
 660.34; 1567.667;  -61.800;    0.000;1629.46663
 660.61; 1545.800;  -98.733;    0.000;1644.53338
 660.88; 1521.467;  -64.933;    0.000;1586.40001
 661.15; 1539.400;  -51.267;    0.000;1590.66669
 661.42; 1537.333;  -49.867;    0.000;1587.20004
 661.69; 1552.933;  -61.667;    0.000;1614.60002
 661.96; 1442.933;  -83.733;    0.000;1526.66668
 662.23; 1485.333;  -59.333;    0.000;1544.66671
 662.50; 1476.400;  -62.067;    0.000;1538.46669
 662.77; 1454.133;  -59.867;    0.000;1513.99997
 663.04; 1457.400;  -50.867;    0.000;1508.26669
 663.31; 1457.267;  -58.733;    0.000;1516.00006
 663.58; 1419.400;  -42.933;    0.000;1462.33336
 663.85; 1416.067;  -64.067;    0.000;1480.13332
 664.12; 1400.600;  -64.533;    0.000;1465.13331
 664.39; 1407.067;  -67.467;    0.000;1474.53332
 664.66; 1386.600;  -67.067;    0.000;1453.66664
 664.93; 1388.333;  -71.200;    0.000;1459.53337
 665.20; 1379.267;  -63.000;    0.000;1442.26672
 665.47; 1373.400;  -63.267;    0.000;1436.66669
 665.74; 1358.133;  -74.467;    0.000;1432.59997
 666.01; 1347.733;  -48.400;    0.000;1396.13328
 666.28; 1312.867;  -75.400;    0.000;1388.26670
 666.55; 1343.933;  -57.533;    0.000;1401.46668
 666.82; 1297.533;  -60.733;    0.000;1358.26666
 667.09; 1308.733;  -50.533;    0.000;1359.26661
 667.36; 1274.133;  -58.133;    0.000;1332.26664
 667.63; 1333.533;  -61.800;    0.000;1395.33332
 667.90; 1286.800;  -67.200;    0.000;1354.00005
 668.16; 1234.600;  -66.933;    0.000;1301.53331
 668.43; 1249.400;  -79.267;    0.000;1328.66669
 668.70; 1293.667;  -54.533;    0.000;1348.19996
 668.97; 1235.333;  -59.200;    0.000;1294.53337
 669.24; 1244.933;  -54.533;    0.000;1299.46668
 669.51; 1205.867;  -63.000;    0.000;1268.86670
 669.78; 1201.800;  -76.667;    0.000;1278.46671
 670.05; 1210.600;  -59.867;    0.000;1270.46664
 670.32; 1213.067;  -57.600;    0.000;1270.66665
 670.59; 1170.733;  -57.467;    0.000;1228.19994
 670.86; 1182.067;  -66.800;    0.000;1248.86665
 671.13; 1179.467;  -42.667;    0.000;1222.13334
 671.40; 1149.667;  -58.600;    0.000;1208.26662
 671.67; 1146.267;  -40.933;    0.000;1187.20006
 671.93; 1125.333;  -73.267;    0.000;1198.60004
 672.20; 1114.467;  -68.333;    0.000;1182.80001
 672.47; 1099.733;  -77.467;    0.000;1177.19994
 672.74; 1107.467;  -54.000;    0.000;1161.46667
 673.01; 1052.867;  -70.733;    0.000;1123.60003
 673.28; 1074.533;  -42.267;    0.000;1116.79999
 673.55; 1092.333;  -73.333;    0.000;1165.66671
 673.82; 1065.067;  -56.333;    0.000;1121.39998
 674.09; 1100.133;  -72.267;    0.000;1172.39997
 674.35; 1036.600;  -69.267;    0.000;1105.86665
 674.62; 1024.800;  -61.733;    0.000;1086.53338
 674.89; 1046.133;  -61.667;    0.000;1107.79997
 675.16; 1017.867;  -70.200;    0.000;1088.06664
 675.43;  974.667;  -56.000;    0.000;1030.66669
 675.70; 1034.000;  -36.533;    0.000;1070.53333
 675.97;  990.667;  -46.333;    0.000;1037.00002
 676.24; 1013.800;  -55.400;    0.000;1069.19999
 676.50;  977.667;  -56.333;    0.000;1034.00002
 676.77;  985.933;  -72.533;    0.000;1058.46668
 677.04;  987.400;  -54.600;    0.000;1042.00002
 677.31;  965.133;  -70.200;    0.000;1035.33336
 677.58;  974.267;  -58.200;    0.000;1032.46666
 677.85;  980.200;  -39.133;    0.000;1019.33335
 678.12;  951.800;  -53.667;    0.000;1005.46666
 678.38;  949.933;  -52.000;    0.000;1001.93335
 678.65;  913.133;  -69.867;    0.000;983.00003
 678.92;  902.200;  -71.733;    0.000;973.93334
 679.19;  957.267;  -30.733;    0.000;988.00000
 679.46;  896.933;  -61.733;    0.000;958.66668
 679.73;  887.333;  -60.200;    0.000;947.53331
 679.99;  888.200;  -86.000;    0.000;974.20001
 680.26;  833.400;  -83.867;    0.000;917.26669
 680.53;  872.333;  -75.933;    0.000;948.26665
 680.80;  862.333;  -65.733;    0.000;928.06664
 681.07;  844.933;  -67.733;    0.000;912.66668
 681.33;  889.000;  -55.133;    0.000;944.13334
 681.60;  866.067;  -77.933;    0.000;943.99998
 681.87;  833.533;  -65.800;    0.000;899.33333
 682.14;  847.333;  -46.067;    0.000;893.39998
 682.41;  813.067;  -70.933;    0.000;883.99998
 682.67;  827.867;  -45.667;    0.000;873.53331
 682.94;  806.867;  -70.467;    0.000;877.33331
 683.21;  817.000;  -76.133;    0.000;893.13333
 683.48;  814.800;  -50.933;    0.000;865.73332
 683.75;  801.667;  -58.000;    0.000;859.66669
 684.01;  777.000;  -51.933;    0.000;828.93333
 684.28;  780.533;  -66.333;    0.000;846.86666
 684.55;  784.733;  -56.933;    0.000;841.66667
 684.82;  789.000;  -82.467;    0.000;871.46667
 685.09;  767.933;  -49.467;    0.000;817.40002
 685.35;  759.600;  -43.467;    0.000;803.06664
 685.62;  754.533;  -42.400;    0.000;796.93333
 685.89;  767.933;  -37.800;    0.000;805.73335
 686.16;  739.733;  -66.600;    0.000;806.33334
 686.42;  740.133;  -71.600;    0.000;811.73336
 686.69;  749.800;  -41.267;    0.000;791.06665
 686.96;  714.400;  -73.200;    0.000;787.60002
 687.23;  741.933;  -39.400;    0.000;781.33335
 687.49;  705.933;  -25.133;    0.000;731.06668
 687.76;  673.600;  -63.333;    0.000;736.93331
 688.03;  707.200;  -57.067;    0.000;764.26668
 688.30;  666.000;  -74.933;    0.000;740.93333
 688.56;  659.333;  -71.733;    0.000;731.06664
 688.83;  663.867;  -87.133;    0.000;750.99997
 689.10;  687.600;  -55.733;    0.000;743.33331
 689.37;  632.733;  -77.600;    0.000;710.33334
 689.63;  664.467;  -54.467;    0.000;718.93334
 689.90;  659.533;  -52.933;    0.000;712.46666
 690.17;  649.933;  -75.000;    0.000;724.93335
 690.44;  636.067;  -54.600;    0.000;690.66665
 690.70;  605.400;  -74.000;    0.000;679.40002
 690.97;  648.533;  -50.933;    0.000;699.46666
 691.24;  647.200;  -40.400;    0.000;687.60001
 691.50;  604.933;  -78.133;    0.000;683.06668
 691.77;  598.600;  -73.533;    0.000;672.13331
 692.04;  605.267;  -61.467;    0.000;666.73333
 692.30;  631.267;  -73.067;    0.000;704.33333
 692.57;  612.067;  -51.267;    0.000;663.33332
 692.84;  582.200;  -84.467;    0.000;666.66668
 693.11;  583.467;  -51.333;    0.000;634.80001
 693.37;  560.733;  -71.600;    0.000;632.33334
 693.64;  532.467;  -66.067;    0.000;598.53334
 693.91;  563.733;  -65.400;    0.000;629.13334
 694.17;  573.467;  -65.733;    0.000;639.20000
 694.44;  574.467;  -82.000;    0.000;656.46667
 694.71;  551.800;  -52.800;    0.000;604.59999
 694.97;  550.333;  -62.800;    0.000;613.13331
 695.24;  495.067;  -71.267;    0.000;566.33335
 695.51;  524.133;  -92.533;    0.000;616.66669
 695.77;  513.733;  -50.733;    0.000;564.46667
 696.04;  505.400;  -73.267;    0.000;578.66666
 696.31;  483.800;  -64.733;    0.000;548.53332
 696.57;  547.267;  -50.000;    0.000;597.26666
 696.84;  478.400;  -58.133;    0.000;536.53333
 697.11;  504.133;  -55.267;    0.000;559.40000
 697.37;  483.333;  -35.533;    0.000;518.86668
 697.64;  467.600;  -76.600;    0.000;544.20000
 697.91;  460.533;  -59.133;    0.000;519.66666
 698.17;  440.933;  -75.200;    0.000;516.13332
 698.44;  463.000;  -48.733;    0.000;511.73333
 698.71;  478.867;  -63.933;    0.000;542.80000
 698.97;  431.333;  -57.000;    0.000;488.33334
 699.24;  469.933;  -51.667;    0.000;521.59999
 699.50;  444.067;  -52.467;    0.000;496.53335
 699.77;  456.733;  -41.133;    0.000;497.86667
 700.04;  405.333;  -64.333;    0.000;469.66668
 700.30;  390.733;  -73.133;    0.000;463.86667
 700.57;  384.667;  -63.333;    0.000;447.99999
 700.84;  397.600;  -63.467;    0.000;461.06667
 701.10;  374.400;  -65.867;    0.000;440.26666
 701.37;  390.267;  -75.867;    0.000;466.13333
 701.63;  368.933;  -76.933;    0.000;445.86665
 701.90;  408.533;  -58.667;    0.000;467.19999
 702.17;  384.133;  -34.933;    0.000;419.06667
 702.43;  364.400;  -70.067;    0.000;434.46666
 702.70;  366.933;  -16.800;    0.000;383.73332
 702.96;  370.267;  -62.267;    0.000;432.53333
 703.23;  342.533;  -67.867;    0.000;410.39999
 703.50;  321.667;  -74.200;    0.000;395.86665
 703.76;  323.667;  -68.333;    0.000;391.99999
 704.03;  330.600;  -57.267;    0.000;387.86667
 704.29;  327.067;  -51.267;    0.000;378.33335
 704.56;  303.467;  -65.867;    0.000;369.33334
 704.82;  285.800;  -56.267;    0.000;342.06665
 705.09;  303.267;  -57.733;    0.000;361.00000
 705.36;  291.800;  -86.867;    0.000;378.66666
 705.62;  330.933;  -30.000;    0.000;360.93332
 705.89;  283.600;  -58.600;    0.000;342.20000
 706.15;  263.933;  -80.667;    0.000;344.59998
 706.42;  293.600;  -44.000;    0.000;337.60001
 706.68;  262.733;  -79.667;    0.000;342.40000
 706.95;  288.800;  -40.800;    0.000;329.59999
 707.21;  237.533;  -89.600;    0.000;327.13334
 707.48;  262.200;  -62.333;    0.000;324.53334
 707.75;  249.800;  -64.267;    0.000;314.06667
 708.01;  262.467;  -70.867;    0.000;333.33334
 708.28;  261.933;  -63.800;    0.000;325.73332
 708.54;  255.667;  -54.600;    0.000;310.26667
 708.81;  242.867;  -42.000;    0.000;284.86667
 709.07;  206.467;  -64.000;    0.000;270.46666
 709.34;  248.533;  -80.467;    0.000;329.00001
 709.60;  203.733;  -74.000;    0.000;277.73334
 709.87;  233.067;  -42.733;    0.000;275.80000
 710.13;  190.933;  -78.600;    0.000;269.53333
 710.40;  206.933;  -88.600;    0.000;295.53333
 710.66;  189.267;  -68.533;    0.000;257.80000
 710.93;  194.933;  -68.467;    0.000;263.40000
 711.19;  170.533;  -68.667;    0.000;239.20000
 711.46;  212.133;  -57.333;    0.000;269.46666
 711.72;  199.333;  -60.533;    0.000;259.86666
 711.99;  190.733;  -64.333;    0.000;255.06667
 712.25;  198.867;  -40.867;    0.000;239.73333
 712.52;  181.467;  -65.467;    0.000;246.93333
 712.78;  195.067;  -58.067;    0.000;253.13333
 713.05;  194.667;  -70.400;    0.000;265.06667
 713.31;  187.533;  -74.867;    0.000;262.40001
 713.58;  176.267;  -63.200;    0.000;239.46666
 713.84;  171.400;  -56.933;    0.000;228.33333
 714.11;  199.000;  -61.600;    0.000;260.60000
 714.37;  179.667;  -37.200;    0.000;216.86667
 714.64;  182.200;  -62.467;    0.000;244.66666
 714.90;  162.067;  -48.000;    0.000;210.06667
 715.17;  152.400;  -73.333;    0.000;225.73333
 715.43;  137.067;  -57.000;    0.000;194.06667
 715.70;  156.933;  -75.133;    0.000;232.06667
 715.96;  140.467;  -66.733;    0.000;207.19999
 716.22;  161.667;  -68.733;    0.000;230.40000
 716.49;  151.867;  -86.533;    0.000;238.40000
 716.75;  156.867;  -93.600;    0.000;250.46667
 717.02;  146.467;  -68.267;    0.000;214.73333
 717.28;  168.400;  -84.933;    0.000;253.33333
 717.55;  131.800;  -80.267;    0.000;212.06667
 717.81;  175.333;  -59.400;    0.000;234.73333
 718.08;  141.600;  -56.133;    0.000;197.73334
 718.34;  144.867;  -85.333;    0.000;230.20000
 718.60;  147.867;  -55.400;    0.000;203.26667
 718.87;  152.267;  -56.600;    0.000;208.86666
 719.13;  146.800;  -68.400;    0.000;215.20000
 719.40;  172.200;  -73.933;    0.000;246.13333
 719.66;  134.400;  -79.400;    0.000;213.80000
 719.93;  142.067;  -54.600;    0.000;196.66666
 720.19;  147.067;  -66.733;    0.000;213.80000
 720.45;  119.933;  -73.800;    0.000;193.73334
 720.72;  153.800;  -67.933;    0.000;221.73334
 720.98;  156.400;  -63.600;    0.000;219.99999
 721.25;  127.733;  -65.133;    0.000;192.86666
 721.51;  145.333;  -76.600;    0.000;221.93333
 721.77;  136.933;  -57.200;    0.000;194.13334
 722.04;  142.667;  -63.600;    0.000;206.26667
 722.30;  141.000;  -46.667;    0.000;187.66667
 722.57;  141.800;  -76.467;    0.000;218.26667
 722.83;  111.133;  -56.667;    0.000;167.80000
 723.09;  117.800;  -77.467;    0.000;195.26667
 723.36;  113.400;  -70.600;    0.000;184.00000
 723.62;  147.733;  -57.267;    0.000;205.00000
 723.88;  158.200;  -44.467;    0.000;202.66666
 724.15;  141.933;  -60.667;    0.000;202.60000
 724.41;  117.667;  -84.067;    0.000;201.73333
 724.68;  143.533;  -74.867;    0.000;218.40001
 724.94;  156.933;  -63.133;    0.000;220.06667
 725.20;  147.867;  -84.933;    0.000;232.80000
 725.47;  113.400;  -66.867;    0.000;180.26667
 725.73;  131.200;  -87.800;    0.000;219.00000
 725.99;  137.867;  -77.667;    0.000;215.53333
 726.26;  149.467;  -81.333;    0.000;230.80000
 726.52;  115.800;  -58.867;    0.000;174.66667
 726.78;  135.133;  -64.600;    0.000;199.73333
 727.05;  139.600;  -32.600;    0.000;172.20000
 727.31;  130.800;  -79.600;    0.000;210.40000
 727.57;  139.800;  -67.267;    0.000;207.06667
 727.84;  130.467;  -56.733;    0.000;187.19999
 728.10;  148.000;  -64.267;    0.000;212.26667
 728.36;  124.933;  -57.667;    0.000;182.60000
 728.63;  140.000;  -59.533;    0.000;199.53333
 728.89;  109.133;  -82.267;    0.000;191.40000
 729.15;  131.933;  -65.000;    0.000;196.93333
 729.42;   92.400;  -74.333;    0.000;166.73334
 729.68;  123.933;  -58.800;    0.000;182.73333
 729.94;  102.733;  -90.333;    0.000;193.06667
 730.21;  105.067;  -77.133;    0.000;182.20000
 730.47;  120.200;  -73.333;    0.000;193.53333
 730.73;  137.333;  -62.533;    0.000;199.86666
 731.00;  106.533;  -55.533;    0.000;162.06667
 731.26;  131.267;  -72.600;    0.000;203.86666
 731.52;  112.867;  -72.400;    0.000;185.26667
 731.78;  110.200;  -66.267;    0.000;176.46667
 732.05;  121.067;  -89.533;    0.000;210.60000
 732.31;  112.933;  -55.267;    0.000;168.20000
 732.57;  105.333;  -71.867;    0.000;177.20000
 732.84;  100.333;  -67.067;    0.000;167.40000
 733.10;  110.533;  -81.133;    0.000;191.66666
 733.36;   97.800;  -69.667;    0.000;167.46667
 733.62;   81.867;  -72.267;    0.000;154.13334
 733.89;   91.000;  -79.000;    0.000;170.00000
 734.15;  105.600;  -77.333;    0.000;182.93333
 734.41;   87.867;  -49.667;    0.000;137.53334
 734.67;   87.733;  -76.000;    0.000;163.73333
 734.94;   92.000;  -69.667;    0.000;161.66666
 735.20;  104.200;  -68.133;    0.000;172.33333
 735.46;   99.400;  -52.467;    0.000;151.86667
 735.73;   97.133;  -63.200;    0.000;160.33333
 735.99;   68.600;  -72.733;    0.000;141.33333
 736.25;  101.800;  -84.267;    0.000;186.06667
 736.51;   83.467;  -50.800;    0.000;134.26667
 736.77;   93.000;  -74.133;    0.000;167.13333
 737.04;   97.800;  -60.667;    0.000;158.46667
 737.30;   92.933;  -76.933;    0.000;169.86667
 737.56;   86.800;  -34.267;    0.000;121.06667
 737.82;   88.533;  -91.600;    0.000;180.13333
 738.09;   68.533;  -65.733;    0.000;134.26666
 738.35;   75.200;  -81.067;    0.000;156.26666
 738.61;  103.333;  -51.333;    0.000;154.66667
 738.87;   95.000;  -72.667;    0.000;167.66666
 739.14;   76.133;  -60.533;    0.000;136.66666
 739.40;   75.600; -110.533;    0.000;186.13333
 739.66;   61.200;  -47.267;    0.000;108.46667
 739.92;   61.600;  -73.267;    0.000;134.86667
 740.18;   57.133;  -62.000;    0.000;119.13334
 740.45;   76.000;  -93.133;    0.000;169.13333
 740.71;   67.000;  -51.200;    0.000;118.20000
 740.97;   85.333;  -59.667;    0.000;145.00000
 741.23;   57.733;  -66.533;    0.000;124.26667
 741.49;   78.400;  -82.600;    0.000;161.00000
 741.76;   45.933;  -60.000;    0.000;105.93333
 742.02;   52.467;  -94.333;    0.000;146.80000
 742.28;   51.467;  -60.733;    0.000;112.20000
 742.54;   70.733;  -77.400;    0.000;148.13333
 742.80;   68.867;  -62.600;    0.000;131.46667
 743.06;   67.000;  -66.800;    0.000;133.80000
 743.33;   86.533;  -54.600;    0.000;141.13333
 743.59;   58.533;  -94.400;    0.000;152.93333
 743.85;   55.933;  -65.000;    0.000;120.93333
 744.11;   33.533;  -79.333;    0.000;112.86667
 744.37;   65.400;  -56.600;    0.000;122.00000
 744.63;   64.133;  -84.267;    0.000;148.40000
 744.90;   58.733;  -70.467;    0.000;129.20000
 745.16;   54.067;  -77.467;    0.000;131.53333
 745.42;   36.400;  -53.200;    0.000;89.60000
 745.68;   57.000;  -69.667;    0.000;126.66666
 745.94;   91.067;  -41.400;    0.000;132.46667
 746.20;   48.600;  -76.933;    0.000;125.53333
 746.46;   72.667;  -45.467;    0.000;118.13333
 746.72;   62.667;  -64.067;    0.000;126.73333
 746.99;   34.467;  -60.933;    0.000;95.40000
 747.25;   82.667;  -51.133;    0.000;133.80000
 747.51;   38.000;  -68.667;    0.000;106.66666
 747.77;   49.067;  -70.333;    0.000;119.40000
 748.03;   38.733;  -82.333;    0.000;121.06667
 748.29;   29.933;  -76.867;    0.000;106.80000
 748.55;   42.867;  -69.800;    0.000;112.66667
 748.81;   43.200;  -76.733;    0.000;119.93333
 749.08;   40.533;  -46.333;    0.000;86.86666
 749.34;   56.267;  -55.800;    0.000;112.06667
 749.60;   39.933;  -54.667;    0.000;94.60000
 749.86;   48.400;  -66.467;    0.000;114.86667
 750.12;   28.267;  -68.533;    0.000;96.80000
 750.38;   36.400;  -82.333;    0.000;118.73334
 750.64;   25.267;  -60.133;    0.000;85.40000
 750.90;   51.400;  -52.200;    0.000;103.60000
 751.16;   13.800;  -79.933;    0.000;93.73333
 751.42;   29.933;  -69.600;    0.000;99.53333
 751.68;   48.133;  -41.467;    0.000;89.60000
 751.95;    6.133;  -81.733;    0.000;87.86666
 752.21;   19.600;  -71.067;    0.000;90.66667
 752.47;   14.600;  -90.800;    0.000;105.40000
 752.73;   23.933;  -78.067;    0.000;102.00000
 752.99;   22.867;  -93.933;    0.000;116.80000
 753.25;   10.333;  -72.800;    0.000;83.13334
 753.51;   29.600;  -77.000;    0.000;106.60000
 753.77;   13.867;  -66.867;    0.000;80.73334
 754.03;    7.733;  -86.733;    0.000;94.46666
 754.29;   14.133;  -59.267;    0.000;73.40000
 754.55;   29.733;  -74.800;    0.000;104.53334
 754.81;   10.667;  -73.800;    0.000;84.46667
 755.07;   24.267;  -87.067;    0.000;111.33333
 755.33;   12.533;  -65.867;    0.000;78.40000
 755.59;    0.867;  -81.733;    0.000;82.60000
 755.85;   10.600;  -77.600;    0.000;88.20000
 756.11;    4.133;  -76.600;    0.000;80.73333
 756.37;   -3.467;  -82.800;    0.000;79.33334
 756.63;   43.867;  -52.067;    0.000;95.93333
 756.89;   -6.400;  -85.400;    0.000;79.00000
 757.15;  -21.000;  -86.000;    0.000;65.00000
 757.41;   21.867;  -37.733;    0.000;59.60000
 757.68;    3.867;  -83.133;    0.000;87.00000
 757.94;   20.933;  -53.400;    0.000;74.33333
 758.20;   22.800;  -70.533;    0.000;93.33333
 758.46;   -4.400;  -83.067;    0.000;78.66667
 758.72;    0.533;  -82.467;    0.000;83.00000
 758.98;   23.800;  -65.000;    0.000;88.80000
 759.24;    3.867;  -78.800;    0.000;82.66667
 759.50;   -4.933;  -66.200;    0.000;61.26666
 759.76;   21.600;  -70.333;    0.000;91.93334
 760.02;   11.000;  -45.267;    0.000;56.26667
 760.27;   13.000;  -79.133;    0.000;92.13333
 760.53;   27.800;  -48.867;    0.000;76.66666
 760.79;    9.667;  -77.933;    0.000;87.60000
 761.05;   -1.000;  -63.133;    0.000;62.13334
 761.31;   19.733;  -72.867;    0.000;92.60000
 761.57;    3.867;  -54.200;    0.000;58.06667
 761.83;  -12.067;  -68.733;    0.000;56.66666
 762.09;   -9.600;  -72.733;    0.000;63.13333
 762.35;  -19.067;  -79.400;    0.000;60.33333
 762.61;   -7.400;  -60.333;    0.000;52.93333
 762.87;   24.400;  -69.067;    0.000;93.46667
 763.13;   -9.533;  -82.000;    0.000;72.46667
 763.39;   16.067;  -57.600;    0.000;73.66667
 763.65;  -15.067;  -73.600;    0.000;58.53333
 763.91;   -1.133;  -69.867;    0.000;68.73334
 764.17;   -7.400;  -52.133;    0.000;44.73334
 764.43;   12.467;  -65.733;    0.000;78.20000
 764.69;  -28.667;  -61.600;    0.000;32.93333
 764.95;    4.333;  -72.800;    0.000;77.13334
 765.21;  -13.133;  -61.533;    0.000;48.40000
 765.47;    0.933;  -82.400;    0.000;83.33333
 765.73;   -8.933;  -62.667;    0.000;53.73333
 765.98;  -10.000;  -67.200;    0.000;57.20000
 766.24;  -13.467;  -77.000;    0.000;63.53333
 766.50;  -17.667;  -80.533;    0.000;62.86667
 766.76;    1.267;  -48.867;    0.000;50.13333
 767.02;  -12.667;  -68.400;    0.000;55.73333
 767.28;  -20.533;  -68.867;    0.000;48.33334
 767.54;    5.133;  -85.067;    0.000;90.20000
 767.80;  -21.400;  -66.867;    0.000;45.46667
 768.06;    4.200;  -53.867;    0.000;58.06666
 768.32;   -3.667;  -62.467;    0.000;58.80000
 768.58;   -6.067;  -71.133;    0.000;65.06666
 768.83;   -4.667;  -71.333;    0.000;66.66667
 769.09;  -20.867;  -73.667;    0.000;52.80000
 769.35;  -10.867;  -61.800;    0.000;50.93333
 769.61;    7.533;  -80.400;    0.000;87.93333
 769.87;  -27.533;  -55.667;    0.000;28.13334
 770.13;   -8.800;  -60.267;    0.000;51.46667
 770.39;  -36.667;  -82.733;    0.000;46.06666
 770.65;  -13.133;  -64.000;    0.000;50.86667
 770.90;  -33.400;  -73.333;    0.000;39.93333
 771.16;  -35.000;  -82.933;    0.000;47.93333
 771.42;  -11.200;  -68.467;    0.000;57.26667
 771.68;  -25.333;  -81.400;    0.000;56.06667
 771.94;  -22.600;  -61.867;    0.000;39.26666
 772.20;  -26.400;  -79.067;    0.000;52.66667
 772.46;  -31.867;  -71.200;    0.000;39.33333
 772.71;  -19.800;  -85.267;    0.000;65.46667
 772.97;  -13.600;  -52.267;    0.000;38.66667
 773.23;  -33.933;  -78.200;    0.000;44.26666
 773.49;  -18.000;  -40.667;    0.000;22.66667
 773.75;  -40.667;  -82.200;    0.000;41.53333
 774.01;  -33.533;  -85.067;    0.000;51.53333
 774.26;  -20.733;  -92.400;    0.000;71.66667
 774.52;  -14.933;  -54.600;    0.000;39.66667
 774.78;  -33.133;  -89.600;    0.000;56.46666
 775.04;   13.933;  -26.200;    0.000;40.13333
 775.30;    4.000;  -52.400;    0.000;56.40000
 775.56;  -22.467;  -71.533;    0.000;49.06667
 775.81;   -1.067;  -73.000;    0.000;71.93333
 776.07;  -43.733;  -78.400;    0.000;34.66667
 776.33;  -24.067;  -79.933;    0.000;55.86667
 776.59;  -32.800;  -73.400;    0.000;40.60000
 776.85;  -35.867;  -83.533;    0.000;47.66667
 777.10;  -43.200;  -55.200;    0.000;12.00000
 777.36;  -48.133;  -73.533;    0.000;25.40000
 777.62;  -11.667;  -49.400;    0.000;37.73333
 777.88;  -39.667;  -79.800;    0.000;40.13334
 778.14;  -35.133;  -60.133;    0.000;25.00000
 778.39;  -21.933;  -73.800;    0.000;51.86667
 778.65;  -39.000;  -68.733;    0.000;29.73333
 778.91;  -41.600;  -95.267;    0.000;53.66667
 779.17;  -12.933;  -56.000;    0.000;43.06667
 779.42;  -41.000; -105.133;    0.000;64.13333
 779.68;  -47.533;  -72.267;    0.000;24.73334
 779.94;  -23.733;  -92.533;    0.000;68.80000
 780.20;  -46.600;  -56.867;    0.000;10.26667
 780.46;  -23.133;  -87.333;    0.000;64.20000
 780.71;  -28.600;  -53.600;    0.000;25.00000
 780.97;  -19.267;  -80.600;    0.000;61.33333
 781.23;  -38.067;  -69.333;    0.000;31.26667
 781.49;  -37.067;  -68.667;    0.000;31.60000
 781.74;  -33.267;  -85.533;    0.000;52.26667
 782.00;  -34.600;  -98.000;    0.000;63.40000
 782.26;  -31.533;  -69.267;    0.000;37.73334
 782.52;  -23.667;  -85.400;    0.000;61.73334
 782.77;  -29.333;  -42.000;    0.000;12.66667
 783.03;  -44.600;  -83.867;    0.000;39.26667
 783.29;  -40.533;  -82.600;    0.000;42.06667
 783.54;  -30.133;  -81.533;    0.000;51.40000
 783.80;   -9.867;  -27.200;    0.000;17.33333
 784.06;  -14.733;  -72.267;    0.000;57.53334
 784.32;  -41.000;  -72.733;    0.000;31.73333
 784.57;    1.467;  -67.533;    0.000;69.00000
 784.83;  -50.933;  -89.200;    0.000;38.26666
 785.09;  -53.667;  -84.400;    0.000;30.73333
 785.34;  -47.200;  -53.600;    0.000; 6.40000
 785.60;  -18.067;  -69.467;    0.000;51.40000
 785.86;  -46.467;  -65.533;    0.000;19.06667
 786.12;   -9.400;  -62.667;    0.000;53.26667
 786.37;  -32.933;  -52.600;    0.000;19.66666
 786.63;  -61.133; -109.867;    0.000;48.73333
 786.89;  -24.067;  -70.467;    0.000;46.40000
 787.14;  -23.867;  -62.133;    0.000;38.26667
 787.40;  -64.467;  -63.667;    0.000;-0.80000
 787.66;  -38.600;  -64.133;    0.000;25.53333
 787.91;  -19.467;  -46.000;    0.000;26.53333
 788.17;  -40.200;  -84.400;    0.000;44.20000
 788.43;  -53.333;  -78.600;    0.000;25.26667
 788.68;  -40.867;  -83.133;    0.000;42.26667
 788.94;  -46.267;  -69.267;    0.000;23.00000
 789.20;  -31.933;  -73.400;    0.000;41.46667
 789.45;  -53.867;  -81.267;    0.000;27.40001
 789.71;  -46.400;  -82.200;    0.000;35.80000
 789.97;  -22.933;  -40.333;    0.000;17.40000
 790.22;  -48.067;  -61.133;    0.000;13.06667
 790.48;  -44.800;  -83.133;    0.000;38.33333
 790.74;  -27.533;  -71.933;    0.000;44.40000
 790.99;  -34.867;  -58.533;    0.000;23.66667
 791.25;  -44.933;  -93.200;    0.000;48.26666
 791.51;  -50.600;  -91.200;    0.000;40.60000
 791.76;  -29.200;  -59.600;    0.000;30.40000
 792.02;  -41.467;  -65.600;    0.000;24.13333
 792.27;  -12.600;  -68.733;    0.000;56.13333
 792.53;  -39.000;  -62.800;    0.000;23.80000
 792.79;  -47.133;  -82.467;    0.000;35.33333
 793.04;  -59.000;  -72.667;    0.000;13.66666
 793.30;  -47.133;  -64.867;    0.000;17.73333
 793.56;  -51.667;  -61.800;    0.000;10.13333
 793.81;  -15.933;  -45.000;    0.000;29.06667
 794.07;  -52.133;  -63.600;    0.000;11.46666
 794.32;  -31.600;  -87.267;    0.000;55.66667
 794.58;  -44.267;  -83.333;    0.000;39.06667
 794.84;  -44.400;  -83.867;    0.000;39.46667
 795.09;  -25.467;  -54.067;    0.000;28.60000
 795.35;  -20.600;  -65.200;    0.000;44.60000
 795.60;  -28.533;  -45.800;    0.000;17.26667
 795.86;  -23.467;  -51.867;    0.000;28.40000
 796.12;  -69.800;  -69.933;    0.000; 0.13333
 796.37;  -52.933;  -81.333;    0.000;28.40000
 796.63;  -36.733;  -57.200;    0.000;20.46667
 796.88;  -38.867;  -75.533;    0.000;36.66667
 797.14;  -45.133;  -53.333;    0.000; 8.20000
 797.39;  -37.733;  -58.000;    0.000;20.26667
 797.65;  -47.667;  -73.800;    0.000;26.13334
 797.91;  -36.600;  -82.200;    0.000;45.60000
 798.16;  -42.000;  -60.333;    0.000;18.33333
 798.42;  -52.400;  -91.933;    0.000;39.53333
 798.67;  -58.067;  -67.600;    0.000; 9.53333
 798.93;  -44.333;  -91.800;    0.000;47.46667
 799.18;  -57.800;  -74.067;    0.000;16.26667
 799.44;  -45.133;  -92.067;    0.000;46.93333
 799.69;  -52.800;  -89.600;    0.000;36.80000
 799.95;  -51.600; -108.133;    0.000;56.53333
 800.21;  -50.133;  -75.200;    0.000;25.06666
 800.46;  -30.200;  -50.800;    0.000;20.60000
 800.72;  -75.933;  -78.867;    0.000; 2.93333
 800.97;  -67.067;  -79.067;    0.000;12.00000
 801.23;  -61.133;  -74.400;    0.000;13.26667
 801.48;  -49.800;  -82.867;    0.000;33.06667
 801.74;  -59.133;  -74.533;    0.000;15.40000
 801.99;  -33.533;  -63.267;    0.000;29.73333
 802.25;  -51.867;  -68.733;    0.000;16.86666
 802.50;  -26.067;  -75.600;    0.000;49.53333
 802.76;  -42.533;  -57.533;    0.000;15.00000
 803.01;  -76.133; -105.867;    0.000;29.73334
 803.27;  -43.133;  -72.467;    0.000;29.33333
 803.52;  -53.933;  -69.800;    0.000;15.86667
 803.78;  -38.200;  -55.733;    0.000;17.53333
 804.03;  -53.333;  -80.533;    0.000;27.20000
 804.29;  -75.800;  -73.467;    0.000;-2.33334
 804.54;  -43.600;  -78.533;    0.000;34.93333
 804.80;  -55.467;  -87.267;    0.000;31.80000
 805.05;  -57.133;  -67.267;    0.000;10.13334
 805.31;  -29.467;  -44.667;    0.000;15.20000
 805.56;  -29.200;  -64.600;    0.000;35.40000
 805.82;  -56.267;  -74.800;    0.000;18.53334
 806.07;  -39.200;  -66.800;    0.000;27.60000
 806.33;  -46.533;  -85.867;    0.000;39.33334
 806.58;  -57.000;  -93.200;    0.000;36.20000
 806.84;  -56.200;  -62.467;    0.000; 6.26667
 807.09;  -45.267;  -68.800;    0.000;23.53334
 807.34;  -54.667;  -56.067;    0.000; 1.40000
 807.60;  -46.333;  -78.733;    0.000;32.40000
 807.85;  -40.667;  -49.667;    0.000; 9.00000
 808.11;  -58.600;  -83.200;    0.000;24.60000
 808.36;  -39.200;  -59.400;    0.000;20.20000
 808.62;  -47.000;  -84.200;    0.000;37.20000
 808.87;  -58.733;  -86.000;    0.000;27.26667
 809.13;  -59.067;  -85.467;    0.000;26.40000
 809.38;  -50.667;  -52.467;    0.000; 1.80000
 809.63;  -42.400;  -79.133;    0.000;36.73333
 809.89;  -17.000;  -48.667;    0.000;31.66667
 810.14;  -66.533;  -63.067;    0.000;-3.46667
 810.40;  -50.733;  -59.067;    0.000; 8.33333
 810.65;  -39.267;  -84.333;    0.000;45.06667
 810.91;  -64.333;  -83.000;    0.000;18.66666
 811.16;  -28.867;  -76.533;    0.000;47.66667
 811.41;  -56.267;  -57.733;    0.000; 1.46667
 811.67;  -57.267;  -75.333;    0.000;18.06667
 811.92;  -55.267;  -51.600;    0.000;-3.66667
 812.18;  -44.267;  -85.200;    0.000;40.93333
 812.43;  -51.733;  -66.667;    0.000;14.93333
 812.68;  -45.733;  -71.733;    0.000;26.00000
 812.94;  -69.333;  -59.467;    0.000;-9.86667
 813.19;  -62.867;  -67.200;    0.000; 4.33333
 813.45;  -17.333;  -29.333;    0.000;12.00000
 813.70;  -51.200;  -71.533;    0.000;20.33333
 813.95;  -46.667;  -63.267;    0.000;16.60000
 814.21;  -36.400;  -66.400;    0.000;30.00000
 814.46;  -53.933;  -80.600;    0.000;26.66666
 814.71;  -53.133;  -86.200;    0.000;33.06666
 814.97;  -62.400;  -57.667;    0.000;-4.73333
 815.22;  -50.400;  -90.867;    0.000;40.46667
 815.48;  -53.333;  -83.133;    0.000;29.80000
 815.73;   14.067;  -27.667;    0.000;41.73333
 815.98;  -51.333;  -61.067;    0.000; 9.73333
 816.24;  -46.867;  -78.867;    0.000;32.00000
 816.49;  -50.400;  -68.400;    0.000;18.00000
 816.74;  -43.533;  -65.600;    0.000;22.06667
 817.00;  -24.000;  -44.933;    0.000;20.93333
 817.25;  -51.133;  -72.333;    0.000;21.20000
 817.50;  -56.467;  -74.067;    0.000;17.60000
 817.76;  -45.800;  -80.933;    0.000;35.13334
 818.01;  -66.133;  -69.133;    0.000; 3.00000
 818.26;  -69.200;  -76.800;    0.000; 7.60001
 818.52;  -54.600;  -82.333;    0.000;27.73334
 818.77;  -57.733;  -76.400;    0.000;18.66667
 819.02;  172.467;  140.600;    0.000;31.86665
 819.28;  -59.267;  -80.067;    0.000;20.80000
 819.53;  -72.133;  -79.733;    0.000; 7.60000
 819.78;  -44.733;  -61.733;    0.000;17.00000
 820.04;  -60.800;  -59.000;    0.000;-1.80000
 820.29;  -46.000;  -65.067;    0.000;19.06667
 820.54;  -27.667;  -57.733;    0.000;30.06667
 820.79;  -33.600;  -50.133;    0.000;16.53334
 821.05;  -72.933;  -91.400;    0.000;18.46667
 821.30;   -4.933;  -40.000;    0.000;35.06667
 821.55;  -51.800;  -22.267;    0.000;-29.53333
 821.81;  -50.667;  -69.733;    0.000;19.06666
 822.06;  -57.467;  -66.800;    0.000; 9.33334
 822.31;  -36.800;  -48.267;    0.000;11.46667
 822.56;  -68.800;  -76.933;    0.000; 8.13333
 822.82;  -59.867;  -83.933;    0.000;24.06667
 823.07;  -44.733;  -34.133;    0.000;-10.60000
 823.32;  -56.400;  -96.267;    0.000;39.86667
 823.58;  -42.800;  -77.533;    0.000;34.73333
 823.83;  -59.200;  -77.533;    0.000;18.33333
 824.08;  -63.133;  -81.067;    0.000;17.93333
 824.33;  -62.600;  -91.267;    0.000;28.66667
 824.59;  -83.600;  -70.400;    0.000;-13.20000
 824.84;  -51.267;  -85.067;    0.000;33.80000
 825.09;  -59.533;  -80.733;    0.000;21.20000
 825.34;  -62.467;  -72.200;    0.000; 9.73333
 825.60;  -61.467;  -68.733;    0.000; 7.26666
 825.85;  -61.800; -110.267;    0.000;48.46667
 826.10;  -79.800;  -92.200;    0.000;12.39999
 826.35;  -42.067;  -91.667;    0.000;49.60000
 826.61;  -82.600;  -85.333;    0.000; 2.73334
 826.86;  -66.133;  -84.667;    0.000;18.53333
 827.11;  -64.267;  -68.733;    0.000; 4.46666
 827.36;  -56.200;  -88.600;    0.000;32.40000
 827.61;  -80.067;  -86.867;    0.000; 6.80000
 827.87;  -60.933;  -77.333;    0.000;16.40000
 828.12;  -62.200;  -67.400;    0.000; 5.20000
 828.37;  -55.667;  -66.867;    0.000;11.20000
 828.62;  -55.067;  -75.533;    0.000;20.46667
 828.88;  -48.600;  -58.533;    0.000; 9.93333
 829.13;  -52.600;  -41.800;    0.000;-10.80000
 829.38;  -62.533;  -80.333;    0.000;17.80000
 829.63;  -77.733;  -57.267;    0.000;-20.46666
 829.88;  -52.400; -112.000;    0.000;59.60000
 830.14;  -58.600;  -67.600;    0.000; 9.00000
 830.39;  -29.800;  -56.400;    0.000;26.60000
 830.64;  -81.667;  -77.533;    0.000;-4.13333
 830.89;  -49.467;  -71.667;    0.000;22.20000
 831.14;  -45.200;  -64.933;    0.000;19.73333
 831.39;  -71.267;  -86.733;    0.000;15.46666
 831.65;  -86.467;  -91.933;    0.000; 5.46667
 831.90;  -84.800;  -68.667;    0.000;-16.13334
 832.15;  -62.600;  -58.733;    0.000;-3.86666
 832.40;  -34.133;  -59.267;    0.000;25.13333
 832.65;  -68.133;  -72.600;    0.000; 4.46667
 832.90;  -64.200;  -90.467;    0.000;26.26667
 833.16;  -47.333;  -64.933;    0.000;17.60000
 833.41;  -60.867;  -81.667;    0.000;20.80000
 833.66;  -83.933;  -62.867;    0.000;-21.06667
 833.91;  -57.800;  -79.067;    0.000;21.26667
 834.16;  -53.267;  -91.467;    0.000;38.20000
 834.41;  -41.133;  -73.800;    0.000;32.66667
 834.66;  -49.267;  -46.333;    0.000;-2.93333
 834.92;  -64.867;  -85.067;    0.000;20.20000
 835.17;  -71.333;  -77.200;    0.000; 5.86666
 835.42;  -52.533;  -74.200;    0.000;21.66666
 835.67;  -48.667;  -67.200;    0.000;18.53333
 835.92;  -66.000;  -78.867;    0.000;12.86667
 836.17;  -68.267;  -69.867;    0.000; 1.60000
 836.42;  -69.600;  -79.133;    0.000; 9.53333
 836.67;  -75.200;  -82.733;    0.000; 7.53333
 836.93;  -75.400;  -74.667;    0.000;-0.73334
 837.18;  -63.067;  -59.000;    0.000;-4.06667
 837.43;  -60.867;  -81.600;    0.000;20.73333
 837.68;  -64.200;  -70.600;    0.000; 6.40000
 837.93;  -83.600;  -93.733;    0.000;10.13333
 838.18;  -78.200;  -70.133;    0.000;-8.06667
 838.43;  -72.867;  -93.333;    0.000;20.46667
 838.68;  -58.067;  -70.400;    0.000;12.33334
 838.93;  -64.267;  -70.933;    0.000; 6.66666
 839.18;  -65.267;  -49.933;    0.000;-15.33334
 839.43;  -47.600;  -80.400;    0.000;32.80000
 839.69;  -82.200;  -82.800;    0.000; 0.60001
 839.94;  -65.000;  -89.200;    0.000;24.20000
 840.19;  -63.533;  -71.333;    0.000; 7.80000
 840.44;  -43.400;  -72.267;    0.000;28.86667
 840.69;  -55.200;  -50.400;    0.000;-4.80000
 840.94;  -51.067;  -76.667;    0.000;25.60000
 841.19;  -52.000;  -47.000;    0.000;-5.00000
 841.44;  -47.800;  -69.533;    0.000;21.73333
 841.69;  -37.933;  -45.067;    0.000; 7.13333
 841.94;  -57.000;  -73.533;    0.000;16.53333
 842.19;  -62.333;  -87.133;    0.000;24.80000
 842.44;  -81.600;  -76.800;    0.000;-4.80000
 842.69;  -65.533;  -71.000;    0.000; 5.46667
 842.94;  -67.733;  -69.667;    0.000; 1.93333
 843.19;  -73.533;  -76.267;    0.000; 2.73334
 843.44;  -55.533;  -73.267;    0.000;17.73334
 843.69;  -69.800;  -91.933;    0.000;22.13333
 843.94;  -15.133;   -9.400;    0.000;-5.73333
 844.19;  -72.800;  -76.733;    0.000; 3.93333
 844.44;  -42.533;  -87.733;    0.000;45.20000
 844.69;  -67.667;  -49.867;    0.000;-17.80000
 844.95;  -53.867;  -73.467;    0.000;19.60000
 845.20;  -82.800;  -86.600;    0.000; 3.80000
 845.45;  -49.267;  -63.000;    0.000;13.73333
 845.70;  -81.333;  -68.333;    0.000;-13.00000
 845.95;  -68.867;  -78.533;    0.000; 9.66666
 846.20;  -49.733;  -77.267;    0.000;27.53334
 846.45;  -68.667;  -72.000;    0.000; 3.33334
 846.70;  -62.000;  -49.333;    0.000;-12.66667
 846.95;  -73.733;  -74.467;    0.000; 0.73334
 847.20;  -85.333;  -81.267;    0.000;-4.06667
 847.44;  -49.467;  -34.000;    0.000;-15.46667
 847.69;  -75.667;  -72.200;    0.000;-3.46667
 847.94;  -48.000;  -80.400;    0.000;32.40000
 848.19;  -70.867;  -73.933;    0.000; 3.06667
 848.44;  -48.933;  -64.267;    0.000;15.33334
 848.69;  -73.200;  -59.267;    0.000;-13.93333
 848.94;  -60.200;  -56.800;    0.000;-3.40000
 849.19;  -60.000;  -94.733;    0.000;34.73333
 849.44;  -72.867;  -71.267;    0.000;-1.60000
 849.69;  -77.733;  -77.800;    0.000; 0.06667
 849.94;  -68.267;  -92.733;    0.000;24.46666
 850.19;  -55.533;  -46.533;    0.000;-9.00000
 850.44;  -71.933;  -67.267;    0.000;-4.66666
 850.69;  -74.333;  -62.400;    0.000;-11.93333
 850.94;  -63.133;  -74.600;    0.000;11.46666
 851.19;  -64.200;  -62.000;    0.000;-2.20000
 851.44;  -71.200;  -79.133;    0.000; 7.93333
 851.69;  -76.000;  -85.800;    0.000; 9.80000
 851.94;  -59.667;  -75.933;    0.000;16.26667
 852.19;  -62.667;  -64.867;    0.000; 2.20000
 852.44;  -71.933;  -87.333;    0.000;15.40000
 852.68;  -58.733;  -76.933;    0.000;18.20000
 852.93;  -56.333;  -60.000;    0.000; 3.66667
 853.18;  -59.200;  -71.000;    0.000;11.80000
 853.43;  -53.933;  -77.933;    0.000;24.00000
 853.68;  -58.667;  -71.200;    0.000;12.53333
 853.93;  -46.800;  -65.267;    0.000;18.46667
 854.18;  -49.933;  -54.400;    0.000; 4.46667
 854.43;  -61.133;  -76.600;    0.000;15.46666
 854.68;  -61.533;  -82.267;    0.000;20.73334
 854.93;  -58.533;  -89.333;    0.000;30.80000
 855.18;  -74.933;  -74.933;    0.000; 0.00000
 855.42;  -51.933;  -50.933;    0.000;-1.00000
 855.67;  -73.800;  -72.400;    0.000;-1.40000
 855.92;  -80.533;  -73.067;    0.000;-7.46667
 856.17;  -47.067;  -41.333;    0.000;-5.73333
 856.42;  -65.000;  -73.933;    0.000; 8.93333
 856.67;  -60.467;  -52.667;    0.000;-7.80000
 856.92;  -44.667;  -86.333;    0.000;41.66667
 857.17;  -70.267;  -84.333;    0.000;14.06667
 857.41;  -56.867;  -87.267;    0.000;30.40001
 857.66;  -76.600;  -63.667;    0.000;-12.93333
 857.91;  -44.267;  -77.533;    0.000;33.26667
 858.16;  -72.333;  -55.067;    0.000;-17.26667
 858.41;  -49.733;  -76.467;    0.000;26.73333
 858.66;  -58.800;  -69.600;    0.000;10.80000
 858.91;  -47.933;  -74.600;    0.000;26.66666
 859.15;  -77.733;  -85.133;    0.000; 7.40000
 859.40;  -30.067;  -64.800;    0.000;34.73334
 859.65;  -65.267;  -75.600;    0.000;10.33333
 859.90;  -63.733;  -83.400;    0.000;19.66667
 860.15;  -53.200;  -65.200;    0.000;12.00000
 860.40;  -38.133;  -68.267;    0.000;30.13334
 860.64;  -67.867;  -54.267;    0.000;-13.60000
 860.89;  -65.400;  -86.133;    0.000;20.73333
 861.14;  -76.400;  -84.600;    0.000; 8.20000
 861.39;  -61.533;  -72.800;    0.000;11.26667
 861.64;  -82.667;  -63.533;    0.000;-19.13333
 861.88;  -39.000;  -73.667;    0.000;34.66666
 862.13;  -71.867;  -68.200;    0.000;-3.66667
 862.38;  -69.933;  -80.333;    0.000;10.40000
 862.63;  -65.867;  -79.000;    0.000;13.13333
 862.88;  -51.000;  -79.933;    0.000;28.93333
 863.12;  -53.067;  -57.667;    0.000; 4.60000
 863.37;  -63.933;  -85.867;    0.000;21.93333
 863.62;  -68.333;  -62.000;    0.000;-6.33334
 863.87;  -85.467; -100.800;    0.000;15.33334
 864.12;  -76.600;  -66.533;    0.000;-10.06667
 864.36;  -71.933;  -84.733;    0.000;12.80000
 864.61;  -61.000;  -68.600;    0.000; 7.60000
 864.86;  -60.400;  -85.867;    0.000;25.46667
 865.11;  -46.867;  -48.933;    0.000; 2.06667
 865.35;  -63.533;  -52.400;    0.000;-11.13333
 865.60;  -54.000;  -72.733;    0.000;18.73333
 865.85;  -51.467;  -51.867;    0.000; 0.40000
 866.10;  -80.067;  -70.000;    0.000;-10.06667
 866.34;  -59.467;  -82.533;    0.000;23.06667
 866.59;  -58.733;  -60.933;    0.000; 2.20000
 866.84;  -46.667;  -87.067;    0.000;40.40000
 867.09;  -57.467;  -72.667;    0.000;15.20000
 867.33;  -68.933;  -73.067;    0.000; 4.13333
 867.58;  -57.467;  -67.467;    0.000;10.00000
 867.83;  -65.600;  -86.267;    0.000;20.66667
 868.08;  -60.267;  -43.400;    0.000;-16.86666
 868.32;  -47.600;  -66.267;    0.000;18.66667
 868.57;  -73.733;  -78.867;    0.000; 5.13334
 868.82;  -42.133;  -74.467;    0.000;32.33333
 869.07;  -95.533;  -83.067;    0.000;-12.46667
 869.31;  -59.800;  -82.067;    0.000;22.26667
 869.56;  -65.000;  -75.533;    0.000;10.53333
 869.81;  -46.867;  -56.200;    0.000; 9.33334
 870.05;  -74.267;  -68.667;    0.000;-5.60001
 870.30;  -50.133;  -77.200;    0.000;27.06666
 870.55;  -62.733;  -62.667;    0.000;-0.06667
 870.80;  -54.333;  -65.133;    0.000;10.80000
 871.04;  -35.000;  -44.933;    0.000; 9.93333
 871.29;  -91.200;  -78.933;    0.000;-12.26666
 871.54;  -64.467;  -56.600;    0.000;-7.86667
 871.78;  -47.933;  -85.667;    0.000;37.73333
 872.03;  -64.400;  -51.133;    0.000;-13.26667
 872.28;  -56.667;  -61.733;    0.000; 5.06667
 872.52;  -55.933;  -63.800;    0.000; 7.86666
 872.77;  -56.133;  -73.600;    0.000;17.46666
 873.02;  -76.067;  -81.000;    0.000; 4.93333
 873.26;  -70.200;  -70.000;    0.000;-0.20000
 873.51;  -52.333;  -55.733;    0.000; 3.40000
 873.76;  -53.000;  -63.733;    0.000;10.73333
 874.00;  -33.267;  -44.533;    0.000;11.26667
 874.25;  -48.067;  -76.000;    0.000;27.93333
 874.50;  -65.333;  -73.400;    0.000; 8.06667
 874.74;  -64.000;  -79.200;    0.000;15.20000
 874.99;  -68.400;  -63.400;    0.000;-5.00000
 875.24;  -35.533;  -45.267;    0.000; 9.73333
 875.48;  -56.267;  -61.733;    0.000; 5.46667
 875.73;  -64.533;  -85.133;    0.000;20.60000
 875.98;  -82.200;  -58.400;    0.000;-23.80000
 876.22;  -45.067;  -78.067;    0.000;33.00000
 876.47;  -60.800;  -55.400;    0.000;-5.40000
 876.71;  -55.733;  -61.067;    0.000; 5.33333
 876.96;  -35.800;  -61.800;    0.000;26.00000
 877.21;  -51.267;  -85.800;    0.000;34.53334
 877.45;  -80.333;  -80.533;    0.000; 0.20000
 877.70;  -57.867;  -51.933;    0.000;-5.93333
 877.95;  -48.067;  -69.667;    0.000;21.60000
 878.19;  -29.933;  -34.067;    0.000; 4.13333
 878.44;  -48.400;  -62.667;    0.000;14.26667
 878.68;  -35.133;  -39.000;    0.000; 3.86666
 878.93;  -44.533;  -65.533;    0.000;21.00000
 879.18;  -52.333;  -50.333;    0.000;-2.00000
 879.42;  -51.000;  -42.467;    0.000;-8.53333
 879.67;  -56.333;  -65.467;    0.000; 9.13334
 879.91;  -62.400;  -41.467;    0.000;-20.93333
 880.16;  -49.333;  -46.133;    0.000;-3.20000
 880.40;  -36.267;  -51.733;    0.000;15.46667
 880.65;  -29.333;  -49.867;    0.000;20.53333
 880.90;  -38.333;  -41.800;    0.000; 3.46667
 881.14;  -47.933;  -64.400;    0.000;16.46667
 881.39;  -40.333;  -48.933;    0.000; 8.60000
 881.63;  -40.067;  -65.667;    0.000;25.60000
 881.88;  -68.333;  -52.333;    0.000;-16.00000
 882.12;  -57.467;  -58.267;    0.000; 0.80000
 882.37;  -57.733;  -62.600;    0.000; 4.86666
 882.62;  -56.000;  -52.800;    0.000;-3.20000
 882.86;  -43.600;  -59.133;    0.000;15.53334
 883.11;  -51.200;  -76.267;    0.000;25.06667
 883.35;  -42.600;  -29.533;    0.000;-13.06667
 883.60;  -17.000;  -30.467;    0.000;13.46667
 883.84;  -47.933;  -52.133;    0.000; 4.20000
 884.09;  -44.733;  -64.400;    0.000;19.66667
 884.33;  -52.133;  -53.000;    0.000; 0.86666
 884.58;  -52.267;  -64.333;    0.000;12.06667
 884.82;  -50.467;  -66.467;    0.000;16.00000
 885.07;  -58.133;  -59.933;    0.000; 1.80000
 885.31;  -51.067;  -51.600;    0.000; 0.53333
 885.56;  -11.733;  -34.467;    0.000;22.73333
 885.80;  -53.867;  -52.467;    0.000;-1.40000
 886.05;  -55.667;  -80.000;    0.000;24.33333
 886.29;  -25.067;  -37.600;    0.000;12.53333
 886.54;  -33.733;  -75.867;    0.000;42.13334
 886.78;  -37.467;  -33.133;    0.000;-4.33333
 887.03;  -26.733;  -46.933;    0.000;20.20000
 887.27;  -16.067;  -21.733;    0.000; 5.66667
 887.52;  -42.800;  -62.133;    0.000;19.33334
 887.76;  -52.400;  -51.533;    0.000;-0.86667
 888.01;  -43.067;  -52.067;    0.000; 9.00000
 888.25;  -48.067;  -59.067;    0.000;11.00000
 888.50;  -36.067;  -36.600;    0.000; 0.53333
 888.74;  -29.867;  -46.933;    0.000;17.06667
 888.99;  -45.467;  -45.200;    0.000;-0.26667
 889.23;  -38.533;  -51.000;    0.000;12.46667
 889.48;  -58.200;  -59.000;    0.000; 0.80000
 889.72;  -44.533;  -42.867;    0.000;-1.66667
 889.97;  -23.867;  -38.067;    0.000;14.20000
 890.21;  -43.667;  -35.067;    0.000;-8.60000
 890.46;  -19.000;  -33.600;    0.000;14.60000
 890.70;  -50.467;  -33.867;    0.000;-16.60000
 890.94;  -37.600;  -39.600;    0.000; 2.00000
 891.19;  -27.133;  -24.467;    0.000;-2.66667
 891.43;   -9.067;  -41.200;    0.000;32.13333
 891.68;  -11.133;  -16.933;    0.000; 5.80000
 891.92;  -12.867;  -48.067;    0.000;35.20000
 892.17;  -24.533;  -12.533;    0.000;-12.00000
 892.41;  -13.733;  -39.600;    0.000;25.86666
 892.66;  -56.000;  -44.467;    0.000;-11.53333
 892.90;   26.333;   -5.000;    0.000;31.33333
 893.14;  -39.333;  -18.267;    0.000;-21.06667
 893.39;   17.600;  -43.533;    0.000;61.13333
 893.63;  -33.067;  -32.467;    0.000;-0.60000
 893.88;  -22.800;  -49.733;    0.000;26.93333
 894.12;   -3.933;  -30.533;    0.000;26.60000
 894.36;  -10.133;  -19.067;    0.000; 8.93333
 894.61;   -5.200;  -13.933;    0.000; 8.73333
 894.85;  -18.000;  -23.000;    0.000; 5.00000
 895.10;   -7.267;  -14.133;    0.000; 6.86667
 895.34;  -12.600;  -31.733;    0.000;19.13333
 895.58;  -17.133;   -7.333;    0.000;-9.80000
 895.83;  -15.467;  -21.667;    0.000; 6.20000
 896.07;  -21.067;   -5.867;    0.000;-15.20000
 896.32;   -2.000;  -19.867;    0.000;17.86667
 896.56;  -11.533;  -25.333;    0.000;13.80000
 896.80;   -9.200;  -21.333;    0.000;12.13333
 897.05;    6.533;  -26.600;    0.000;33.13333
 897.29;   -3.667;   -7.867;    0.000; 4.20000
 897.53;   -9.267;  -10.200;    0.000; 0.93333
 897.78;   -1.200;  -28.667;    0.000;27.46667
 898.02;    5.333;    6.600;    0.000;-1.26667
 898.26;   -0.133;  -19.933;    0.000;19.80000
 898.51;   -3.800;    5.400;    0.000;-9.20000
 898.75;  -12.467;  -27.200;    0.000;14.73333
 898.99;    1.467;   -5.400;    0.000; 6.86667
 899.24;   11.533;  -17.067;    0.000;28.60000
 899.48;   30.267;   14.400;    0.000;15.86667
 899.73;   18.733;    1.533;    0.000;17.20000
 899.97;    6.600;   24.667;    0.000;-18.06667
 900.21;   37.733;   26.333;    0.000;11.40000
 900.46;   53.200;   14.467;    0.000;38.73333
 900.70;   43.333;   37.000;    0.000; 6.33333
 900.94;   23.467;   18.667;    0.000; 4.80000
 901.18;   62.400;   38.867;    0.000;23.53334
 901.43;   59.467;   46.467;    0.000;13.00000
 901.67;   60.000;   44.400;    0.000;15.60000
 901.91;   46.667;   66.667;    0.000;-20.00000
 902.16;   66.600;   46.133;    0.000;20.46666
 902.40;   78.200;   68.800;    0.000; 9.39999
 902.64;   64.867;   80.800;    0.000;-15.93333
 902.89;  102.800;   81.733;    0.000;21.06667
 903.13;  129.933;   86.733;    0.000;43.20000
 903.37;  118.533;  132.800;    0.000;-14.26667
 903.61;  151.867;  135.867;    0.000;16.00000
 903.86;  129.200;  140.667;    0.000;-11.46667
 904.10;  158.800;  146.200;    0.000;12.60001
 904.34;  166.067;  171.133;    0.000;-5.06667
 904.59;  194.867;  189.400;    0.000; 5.46667
 904.83;  233.600;  214.067;    0.000;19.53334
 905.07;  256.400;  252.800;    0.000; 3.59999
 905.31;  275.933;  319.667;    0.000;-43.73334
 905.56;  354.867;  313.533;    0.000;41.33334
 905.80;  364.000;  365.800;    0.000;-1.79999

