point5
Integration time [ms]:  15.000
Averaging Nr. [scans]: 15
Smoothing Nr. [pixels]: 0
Data measured with spectrometer [name]: 1307078U2
Wave   ;Sample   ;Dark     ;Reference;Scope Corrected for Dark
[nm]   ;[counts] ;[counts] ;[counts] 

 351.07;   13.800;   -0.467;    0.000;14.26667
 351.37;    2.733;   -9.733;    0.000;12.46667
 351.66;   23.533;  -16.933;    0.000;40.46667
 351.95;    1.333;   -3.067;    0.000; 4.40000
 352.24;  -10.600;  -14.000;    0.000; 3.40000
 352.54;    5.000;  -15.800;    0.000;20.80000
 352.83;   -5.333;    7.667;    0.000;-13.00000
 353.12;   16.667;   -4.400;    0.000;21.06667
 353.42;   -6.933;    3.400;    0.000;-10.33333
 353.71;    4.533;  -13.600;    0.000;18.13333
 354.00;   23.333;   -0.867;    0.000;24.20000
 354.30;    2.067;   -8.800;    0.000;10.86667
 354.59;   18.600;   -0.533;    0.000;19.13333
 354.88;   -0.600;  -15.800;    0.000;15.20000
 355.17;   -8.333;   -0.267;    0.000;-8.06667
 355.47;   -1.533;  -26.933;    0.000;25.40000
 355.76;    9.733;    3.600;    0.000; 6.13333
 356.05;   21.000;  -14.467;    0.000;35.46667
 356.35;  -12.467;    5.400;    0.000;-17.86667
 356.64;   13.400;   14.200;    0.000;-0.80000
 356.93;   -1.867;   -3.267;    0.000; 1.40000
 357.22;   21.467;   -2.333;    0.000;23.80000
 357.52;   -9.667;    5.400;    0.000;-15.06667
 357.81;   17.067;    4.200;    0.000;12.86667
 358.10;   -0.800;   -9.200;    0.000; 8.40000
 358.39;   34.000;    9.067;    0.000;24.93333
 358.69;  -12.800;    7.200;    0.000;-20.00000
 358.98;   -3.533;  -28.000;    0.000;24.46667
 359.27;   17.333;   -1.800;    0.000;19.13333
 359.57;    4.800;    3.533;    0.000; 1.26667
 359.86;  -18.067;    1.733;    0.000;-19.80000
 360.15;   14.733;    1.733;    0.000;13.00000
 360.44;  -12.667;   -6.867;    0.000;-5.80000
 360.74;   11.200;   -0.400;    0.000;11.60000
 361.03;   18.200;  -13.867;    0.000;32.06667
 361.32;   26.267;   10.467;    0.000;15.80000
 361.61;    1.200;  -21.600;    0.000;22.80000
 361.91;    4.867;    2.200;    0.000; 2.66667
 362.20;    0.067;  -12.333;    0.000;12.40000
 362.49;   27.800;  -14.800;    0.000;42.60000
 362.78;    6.133;  -15.800;    0.000;21.93333
 363.08;   19.200;   -4.133;    0.000;23.33333
 363.37;   17.133;   -9.200;    0.000;26.33333
 363.66;   12.667;   -3.667;    0.000;16.33333
 363.95;    2.800;  -16.000;    0.000;18.80000
 364.24;   10.467;   -0.733;    0.000;11.20000
 364.54;   10.133;   -6.733;    0.000;16.86667
 364.83;   12.000;  -21.067;    0.000;33.06667
 365.12;   -5.067;  -13.800;    0.000; 8.73333
 365.41;    5.600;    0.733;    0.000; 4.86667
 365.71;   -0.400;    0.200;    0.000;-0.60000
 366.00;   -5.933;   -7.733;    0.000; 1.80000
 366.29;    2.400;  -12.667;    0.000;15.06667
 366.58;   22.667;   -6.533;    0.000;29.20000
 366.87;   14.533;    7.333;    0.000; 7.20000
 367.17;   39.867;   -2.200;    0.000;42.06666
 367.46;    0.800;   -6.133;    0.000; 6.93333
 367.75;    2.733;  -22.333;    0.000;25.06667
 368.04;   -4.267;  -11.333;    0.000; 7.06667
 368.34;    1.400;   -2.667;    0.000; 4.06667
 368.63;   -7.000;  -12.933;    0.000; 5.93333
 368.92;   20.800;   18.867;    0.000; 1.93333
 369.21;   21.133;    6.933;    0.000;14.20000
 369.50;   10.533;   -3.733;    0.000;14.26667
 369.80;   14.400;  -16.533;    0.000;30.93333
 370.09;    5.000;  -12.067;    0.000;17.06667
 370.38;  -17.467;   -0.533;    0.000;-16.93333
 370.67;    7.800;  -23.467;    0.000;31.26667
 370.96;   13.067;  -26.133;    0.000;39.20000
 371.26;   14.467;   -4.600;    0.000;19.06667
 371.55;    5.800;  -20.400;    0.000;26.20000
 371.84;   22.333;  -17.800;    0.000;40.13333
 372.13;  -17.600;  -35.800;    0.000;18.20000
 372.42;   10.000;   13.867;    0.000;-3.86667
 372.71;    2.133;   10.067;    0.000;-7.93333
 373.01;    1.800;    4.267;    0.000;-2.46667
 373.30;    0.867;  -13.733;    0.000;14.60000
 373.59;   24.067;  -10.800;    0.000;34.86667
 373.88;    1.600;  -11.600;    0.000;13.20000
 374.17;   28.400;    7.467;    0.000;20.93333
 374.46;   -8.267;  -11.133;    0.000; 2.86667
 374.76;   17.867;   -7.267;    0.000;25.13333
 375.05;    8.267;   11.267;    0.000;-3.00000
 375.34;    5.667;  -15.067;    0.000;20.73333
 375.63;    3.067;  -15.733;    0.000;18.80000
 375.92;    5.733;  -15.800;    0.000;21.53333
 376.21;  -23.733;  -30.600;    0.000; 6.86667
 376.51;    3.400;  -15.200;    0.000;18.60000
 376.80;    1.867;  -17.733;    0.000;19.60000
 377.09;   -8.133;   -1.133;    0.000;-7.00000
 377.38;  -11.800;  -14.333;    0.000; 2.53333
 377.67;    1.467;  -13.067;    0.000;14.53333
 377.96;    6.133;   -8.800;    0.000;14.93333
 378.25;   21.600;  -10.533;    0.000;32.13333
 378.55;   11.000;  -15.867;    0.000;26.86667
 378.84;   18.400;   -0.067;    0.000;18.46667
 379.13;   -7.133;   -3.467;    0.000;-3.66667
 379.42;   13.333;   -4.933;    0.000;18.26667
 379.71;    7.800;  -16.933;    0.000;24.73333
 380.00;   15.333;   -2.933;    0.000;18.26667
 380.29;  -19.933;  -10.800;    0.000;-9.13333
 380.59;    1.867;   -2.733;    0.000; 4.60000
 380.88;   -6.867;   -9.000;    0.000; 2.13333
 381.17;    0.067;   -4.000;    0.000; 4.06667
 381.46;   12.400;  -18.867;    0.000;31.26667
 381.75;   18.000;  -16.800;    0.000;34.80000
 382.04;    2.667;   10.200;    0.000;-7.53333
 382.33;   22.733;   -2.733;    0.000;25.46667
 382.62;  -15.400;  -15.933;    0.000; 0.53333
 382.91;    6.267;  -22.333;    0.000;28.60000
 383.21;  -17.867;  -15.400;    0.000;-2.46667
 383.50;   -1.667;   -4.467;    0.000; 2.80000
 383.79;    4.800;   -5.933;    0.000;10.73333
 384.08;    6.333;    9.000;    0.000;-2.66667
 384.37;  -34.000;  -16.467;    0.000;-17.53333
 384.66;  -11.867;    6.267;    0.000;-18.13333
 384.95;    7.667;  -19.067;    0.000;26.73333
 385.24;   16.200;  -10.133;    0.000;26.33333
 385.53;   -4.467;   -4.267;    0.000;-0.20000
 385.83;  -17.467;  -32.200;    0.000;14.73333
 386.12;    8.333;    5.800;    0.000; 2.53333
 386.41;    2.133;   -7.267;    0.000; 9.40000
 386.70;  -18.600;  -10.000;    0.000;-8.60000
 386.99;    1.067;    0.400;    0.000; 0.66667
 387.28;    5.800;   -0.333;    0.000; 6.13333
 387.57;    3.000;  -10.600;    0.000;13.60000
 387.86;   -1.333;  -19.333;    0.000;18.00000
 388.15;    1.200;   -1.067;    0.000; 2.26667
 388.44;  -15.400;    1.400;    0.000;-16.80000
 388.73;   -7.333;   -4.733;    0.000;-2.60000
 389.02;  -16.200;  -23.400;    0.000; 7.20000
 389.31;   -4.333;  -23.800;    0.000;19.46667
 389.61;   -0.867;  -12.933;    0.000;12.06667
 389.90;  -10.067;  -10.067;    0.000; 0.00000
 390.19;   -7.600;   -9.600;    0.000; 2.00000
 390.48;   -1.200;   -7.000;    0.000; 5.80000
 390.77;   -2.067;  -10.933;    0.000; 8.86667
 391.06;    0.600;    6.667;    0.000;-6.06667
 391.35;   10.133;  -39.400;    0.000;49.53333
 391.64;   17.467;    7.867;    0.000; 9.60000
 391.93;   -9.400;  -11.467;    0.000; 2.06667
 392.22;   -5.200;    0.000;    0.000;-5.20000
 392.51;    8.400;   -3.133;    0.000;11.53333
 392.80;    3.867;   -8.133;    0.000;12.00000
 393.09;   -9.533;  -13.400;    0.000; 3.86667
 393.38;   16.000;    1.867;    0.000;14.13333
 393.67;  -13.800;  -21.467;    0.000; 7.66667
 393.96;   14.200;   -9.333;    0.000;23.53333
 394.25;   12.000;  -34.267;    0.000;46.26667
 394.54;   14.667;    1.067;    0.000;13.60000
 394.83;  -10.533;  -23.200;    0.000;12.66667
 395.13;   -1.933;    1.867;    0.000;-3.80000
 395.42;  -11.533;   -1.267;    0.000;-10.26667
 395.71;    9.533;  -13.000;    0.000;22.53333
 396.00;    3.933;   -7.000;    0.000;10.93333
 396.29;   16.333;  -23.400;    0.000;39.73333
 396.58;   -1.533;  -29.000;    0.000;27.46667
 396.87;   20.267;  -20.267;    0.000;40.53333
 397.16;   -2.133;  -25.533;    0.000;23.40000
 397.45;   15.733;    1.667;    0.000;14.06667
 397.74;    3.733;  -18.533;    0.000;22.26667
 398.03;   -4.133;  -25.133;    0.000;21.00000
 398.32;    8.133;  -16.267;    0.000;24.40000
 398.61;    3.667;   -0.533;    0.000; 4.20000
 398.90;   -3.200;  -15.000;    0.000;11.80000
 399.19;    8.933;  -15.667;    0.000;24.60000
 399.48;  -13.000;  -10.067;    0.000;-2.93333
 399.77;   11.267;  -20.000;    0.000;31.26667
 400.06;  -18.867;   -0.267;    0.000;-18.60000
 400.35;   11.133;   -5.867;    0.000;17.00000
 400.64;  -10.133;  -21.333;    0.000;11.20000
 400.93;   17.467;   -9.267;    0.000;26.73333
 401.22;    0.200;  -13.067;    0.000;13.26667
 401.51;   14.533;  -22.733;    0.000;37.26667
 401.80;    0.467;    8.867;    0.000;-8.40000
 402.09;    1.867;  -17.867;    0.000;19.73333
 402.38;    1.867;   -2.067;    0.000; 3.93333
 402.67;   24.867;   -2.733;    0.000;27.60000
 402.96;   17.200;    0.267;    0.000;16.93333
 403.25;    8.800;   12.400;    0.000;-3.60000
 403.54;   25.133;  -11.467;    0.000;36.60000
 403.83;    1.867;  -22.333;    0.000;24.20000
 404.12;    2.533;  -21.867;    0.000;24.40000
 404.41;   -6.200;    0.333;    0.000;-6.53333
 404.70;    5.867;   -1.133;    0.000; 7.00000
 404.98;   15.467;   -6.333;    0.000;21.80000
 405.27;   -9.200;   -8.667;    0.000;-0.53333
 405.56;   33.000;   -7.467;    0.000;40.46667
 405.85;    4.267;  -17.133;    0.000;21.40000
 406.14;   19.600;   -3.467;    0.000;23.06667
 406.43;   11.400;  -24.733;    0.000;36.13333
 406.72;   17.000;   -3.200;    0.000;20.20000
 407.01;   -5.400;   -6.267;    0.000; 0.86667
 407.30;   -1.067;  -20.533;    0.000;19.46667
 407.59;   29.867;  -19.600;    0.000;49.46667
 407.88;   14.333;   -9.733;    0.000;24.06667
 408.17;    1.667;  -13.867;    0.000;15.53333
 408.46;   34.267;  -11.000;    0.000;45.26667
 408.75;   32.133;    9.067;    0.000;23.06667
 409.04;   28.467;  -18.600;    0.000;47.06667
 409.33;   -3.600;   -2.133;    0.000;-1.46667
 409.62;   30.867;    0.933;    0.000;29.93333
 409.91;   15.333;  -35.533;    0.000;50.86667
 410.20;   18.467;  -14.133;    0.000;32.60000
 410.48;    6.133;   -4.667;    0.000;10.80000
 410.77;   16.467;   -4.533;    0.000;21.00000
 411.06;    4.000;    5.467;    0.000;-1.46667
 411.35;   27.667;    1.467;    0.000;26.20000
 411.64;   27.800;   -7.800;    0.000;35.60000
 411.93;   15.067;    8.267;    0.000; 6.80000
 412.22;   11.867;  -30.267;    0.000;42.13333
 412.51;   -4.333;  -32.467;    0.000;28.13333
 412.80;    1.600;   -4.600;    0.000; 6.20000
 413.09;   16.800;  -12.400;    0.000;29.20000
 413.38;   24.333;    4.267;    0.000;20.06667
 413.67;   25.867;   -4.667;    0.000;30.53333
 413.96;    9.133;  -24.400;    0.000;33.53333
 414.24;   38.600;    0.333;    0.000;38.26667
 414.53;    6.200;  -11.867;    0.000;18.06667
 414.82;   33.000;   -2.267;    0.000;35.26667
 415.11;   26.600;   -6.267;    0.000;32.86667
 415.40;   42.600;    2.667;    0.000;39.93333
 415.69;   11.067;  -13.667;    0.000;24.73333
 415.98;   34.667;  -21.000;    0.000;55.66667
 416.27;    6.333;  -40.400;    0.000;46.73334
 416.56;   31.867;  -27.133;    0.000;59.00000
 416.84;   11.667;  -10.667;    0.000;22.33333
 417.13;   32.400;  -13.467;    0.000;45.86667
 417.42;   11.800;  -22.667;    0.000;34.46667
 417.71;   33.467;  -19.933;    0.000;53.40000
 418.00;   23.200;   -6.333;    0.000;29.53333
 418.29;   59.800;  -17.133;    0.000;76.93333
 418.58;   13.800;  -35.733;    0.000;49.53333
 418.87;   28.200;  -34.600;    0.000;62.80000
 419.15;    4.800;   -7.267;    0.000;12.06667
 419.44;   23.267;  -17.667;    0.000;40.93333
 419.73;    8.133;  -16.467;    0.000;24.60000
 420.02;   47.133;  -15.600;    0.000;62.73334
 420.31;    0.733;  -11.733;    0.000;12.46667
 420.60;   54.600;  -10.133;    0.000;64.73333
 420.89;   11.000;  -22.133;    0.000;33.13333
 421.18;   41.000;  -19.800;    0.000;60.80000
 421.46;   29.867;   -4.467;    0.000;34.33333
 421.75;   27.800;   -2.600;    0.000;30.40000
 422.04;    5.400;  -18.467;    0.000;23.86667
 422.33;   38.533;    0.933;    0.000;37.60000
 422.62;   33.867;   -9.600;    0.000;43.46667
 422.91;   26.333;  -23.533;    0.000;49.86667
 423.19;   20.067;  -25.933;    0.000;46.00000
 423.48;   33.867;   -7.000;    0.000;40.86666
 423.77;   17.267;  -23.133;    0.000;40.40000
 424.06;   28.933;  -17.733;    0.000;46.66667
 424.35;   12.533;  -27.667;    0.000;40.20000
 424.64;   41.400;    0.400;    0.000;41.00000
 424.93;    0.467;  -33.933;    0.000;34.40000
 425.21;   42.800;   -9.800;    0.000;52.60000
 425.50;   37.800;  -25.600;    0.000;63.40000
 425.79;   24.333;  -22.933;    0.000;47.26667
 426.08;   13.400;  -11.867;    0.000;25.26667
 426.37;   30.933;  -11.733;    0.000;42.66667
 426.65;   39.600;  -22.333;    0.000;61.93333
 426.94;   44.667;  -36.400;    0.000;81.06667
 427.23;   26.800;  -14.667;    0.000;41.46667
 427.52;   40.600;  -25.333;    0.000;65.93333
 427.81;   15.400;  -38.733;    0.000;54.13333
 428.10;   41.933;   -7.200;    0.000;49.13333
 428.38;   20.000;  -15.467;    0.000;35.46667
 428.67;   38.067;  -30.267;    0.000;68.33333
 428.96;    3.933;  -36.200;    0.000;40.13333
 429.25;   17.800;   -2.200;    0.000;20.00000
 429.54;   27.400;  -27.000;    0.000;54.40000
 429.82;   28.467;   -9.733;    0.000;38.20000
 430.11;   24.267;  -17.067;    0.000;41.33333
 430.40;   51.333;   -6.267;    0.000;57.60000
 430.69;   14.533;   21.733;    0.000;-7.20000
 430.98;   48.733;  -23.333;    0.000;72.06667
 431.26;   31.267;   -4.733;    0.000;36.00000
 431.55;   51.267;   -1.933;    0.000;53.20000
 431.84;   14.000;   -8.800;    0.000;22.80000
 432.13;   43.133;   -1.600;    0.000;44.73334
 432.41;    8.067;  -37.667;    0.000;45.73333
 432.70;   42.800;  -14.733;    0.000;57.53333
 432.99;    8.333;  -40.867;    0.000;49.20000
 433.28;   36.267;  -23.933;    0.000;60.20000
 433.57;   22.533;  -26.133;    0.000;48.66667
 433.85;   38.267;   -1.867;    0.000;40.13333
 434.14;   37.400;   -9.533;    0.000;46.93334
 434.43;   44.533;  -21.267;    0.000;65.80000
 434.72;   32.200;   -8.533;    0.000;40.73333
 435.00;   13.533;  -34.933;    0.000;48.46667
 435.29;    9.867;  -24.333;    0.000;34.20000
 435.58;   40.000;    7.067;    0.000;32.93333
 435.87;   31.067;  -18.067;    0.000;49.13334
 436.15;   26.733;  -21.600;    0.000;48.33333
 436.44;   23.267;   -7.000;    0.000;30.26667
 436.73;   35.867;   -8.400;    0.000;44.26666
 437.02;    3.533;  -20.667;    0.000;24.20000
 437.30;   49.467;   -1.800;    0.000;51.26667
 437.59;   21.133;  -17.267;    0.000;38.40000
 437.88;   34.000;  -13.200;    0.000;47.20000
 438.17;   25.800;  -13.067;    0.000;38.86667
 438.45;   28.067;  -17.467;    0.000;45.53333
 438.74;   18.667;  -15.200;    0.000;33.86667
 439.03;   23.667;   -1.467;    0.000;25.13333
 439.32;   -1.067;  -22.467;    0.000;21.40000
 439.60;   28.133;  -10.467;    0.000;38.60000
 439.89;   13.733;  -21.933;    0.000;35.66667
 440.18;   34.800;  -26.133;    0.000;60.93333
 440.46;    1.267;  -26.400;    0.000;27.66667
 440.75;   47.267;  -21.733;    0.000;69.00000
 441.04;   20.867;  -30.133;    0.000;51.00000
 441.33;   31.933;  -12.400;    0.000;44.33333
 441.61;    4.933;  -18.400;    0.000;23.33333
 441.90;   53.467;   -4.333;    0.000;57.80000
 442.19;    9.267;  -21.400;    0.000;30.66667
 442.47;   31.867;  -16.667;    0.000;48.53333
 442.76;   32.733;  -26.333;    0.000;59.06667
 443.05;   39.133;   -8.800;    0.000;47.93334
 443.34;   29.333;  -14.267;    0.000;43.60000
 443.62;   50.133;   -3.933;    0.000;54.06667
 443.91;   12.200;  -35.400;    0.000;47.60000
 444.20;   40.667;   -6.200;    0.000;46.86667
 444.48;   22.867;  -29.400;    0.000;52.26667
 444.77;   85.533;   -0.267;    0.000;85.80000
 445.06;   32.667;  -25.600;    0.000;58.26667
 445.34;   47.800;  -19.933;    0.000;67.73333
 445.63;   31.133;   -5.267;    0.000;36.40000
 445.92;   54.333;    2.267;    0.000;52.06667
 446.21;   32.600;  -33.667;    0.000;66.26667
 446.49;   34.867;   -1.200;    0.000;36.06666
 446.78;   27.400;   -1.933;    0.000;29.33333
 447.07;   29.200;  -34.000;    0.000;63.20000
 447.35;   -6.467;   -8.267;    0.000; 1.80000
 447.64;   30.200;  -18.333;    0.000;48.53333
 447.93;   22.600;  -24.267;    0.000;46.86667
 448.21;   30.133;  -21.467;    0.000;51.60000
 448.50;   44.000;  -31.267;    0.000;75.26667
 448.79;   28.733;  -20.333;    0.000;49.06667
 449.07;   35.133;  -26.800;    0.000;61.93333
 449.36;   25.933;  -23.333;    0.000;49.26667
 449.65;   15.200;  -19.067;    0.000;34.26667
 449.93;   19.467;  -14.200;    0.000;33.66667
 450.22;   28.533;  -15.667;    0.000;44.20000
 450.51;   30.333;  -39.067;    0.000;69.40000
 450.79;   52.600;  -39.600;    0.000;92.20000
 451.08;   35.400;  -21.867;    0.000;57.26667
 451.36;   25.200;  -35.400;    0.000;60.60000
 451.65;   42.867;  -14.733;    0.000;57.60000
 451.94;    8.667;  -35.933;    0.000;44.60000
 452.22;    8.667;  -32.067;    0.000;40.73333
 452.51;   25.200;  -36.667;    0.000;61.86667
 452.80;    7.133;  -37.067;    0.000;44.20000
 453.08;   22.533;  -30.867;    0.000;53.40000
 453.37;   52.667;  -12.667;    0.000;65.33333
 453.66;   24.400;  -23.067;    0.000;47.46667
 453.94;   29.800;  -31.000;    0.000;60.80000
 454.23;   23.000;  -27.733;    0.000;50.73333
 454.51;   24.800;   -9.933;    0.000;34.73333
 454.80;   17.533;  -30.800;    0.000;48.33333
 455.09;   39.933;  -28.933;    0.000;68.86667
 455.37;   41.933;  -33.600;    0.000;75.53333
 455.66;   28.000;  -28.133;    0.000;56.13333
 455.95;   31.000;  -21.400;    0.000;52.40000
 456.23;   28.267;  -20.933;    0.000;49.20000
 456.52;   28.067;  -28.200;    0.000;56.26667
 456.80;   28.533;  -29.933;    0.000;58.46667
 457.09;   21.933;  -23.800;    0.000;45.73333
 457.38;   42.000;  -11.333;    0.000;53.33333
 457.66;   29.000;  -13.667;    0.000;42.66667
 457.95;   12.067;   -7.867;    0.000;19.93333
 458.23;   10.333;  -37.000;    0.000;47.33333
 458.52;   40.867;  -15.000;    0.000;55.86666
 458.81;   23.000;  -10.467;    0.000;33.46667
 459.09;   27.467;  -26.133;    0.000;53.60000
 459.38;   14.667;  -22.667;    0.000;37.33333
 459.66;   39.133;  -35.933;    0.000;75.06667
 459.95;   29.000;  -48.267;    0.000;77.26667
 460.23;   35.600;  -12.333;    0.000;47.93333
 460.52;   26.733;  -14.933;    0.000;41.66667
 460.81;   41.800;  -32.000;    0.000;73.80000
 461.09;   22.400;  -39.133;    0.000;61.53333
 461.38;   25.667;  -21.267;    0.000;46.93333
 461.66;   -1.933;  -33.133;    0.000;31.20000
 461.95;   28.267;  -34.067;    0.000;62.33333
 462.23;   33.733;  -17.800;    0.000;51.53333
 462.52;   27.733;  -24.600;    0.000;52.33333
 462.81;   34.200;  -17.533;    0.000;51.73333
 463.09;   31.600;  -45.400;    0.000;77.00000
 463.38;   -5.000;  -31.133;    0.000;26.13333
 463.66;   47.733;  -19.467;    0.000;67.20000
 463.95;   24.467;   -5.333;    0.000;29.80000
 464.23;   47.933;  -27.333;    0.000;75.26667
 464.52;   34.200;  -23.267;    0.000;57.46667
 464.80;   19.533;  -18.067;    0.000;37.60000
 465.09;   29.600;  -18.333;    0.000;47.93333
 465.38;    6.267;  -32.800;    0.000;39.06667
 465.66;   29.267;  -11.667;    0.000;40.93333
 465.95;   16.600;  -19.267;    0.000;35.86667
 466.23;    3.133;  -34.400;    0.000;37.53333
 466.52;   29.800;  -22.000;    0.000;51.80000
 466.80;   44.400;   -6.067;    0.000;50.46667
 467.09;   35.800;  -29.267;    0.000;65.06667
 467.37;   30.267;  -32.933;    0.000;63.20000
 467.66;   33.000;    8.000;    0.000;25.00000
 467.94;   25.467;  -34.733;    0.000;60.20000
 468.23;   31.933;  -31.667;    0.000;63.60000
 468.51;   26.600;  -12.267;    0.000;38.86667
 468.80;    7.600;  -25.133;    0.000;32.73333
 469.08;   19.667;  -17.067;    0.000;36.73333
 469.37;   20.200;  -38.200;    0.000;58.40000
 469.66;   26.867;  -24.133;    0.000;51.00000
 469.94;   20.933;  -17.200;    0.000;38.13333
 470.23;   33.400;  -13.000;    0.000;46.40000
 470.51;   16.467;  -41.600;    0.000;58.06667
 470.80;   42.600;  -12.867;    0.000;55.46667
 471.08;   29.400;  -20.667;    0.000;50.06667
 471.37;   39.267;  -16.600;    0.000;55.86667
 471.65;   76.800;   -2.667;    0.000;79.46667
 471.94;   17.333;  -30.267;    0.000;47.60000
 472.22;   29.600;  -39.933;    0.000;69.53333
 472.51;   10.733;  -15.600;    0.000;26.33333
 472.79;    7.000;  -29.333;    0.000;36.33333
 473.08;   25.667;  -23.333;    0.000;49.00000
 473.36;   20.867;  -19.333;    0.000;40.20000
 473.64;   22.067;  -26.667;    0.000;48.73333
 473.93;   39.600;  -20.267;    0.000;59.86666
 474.21;   30.333;  -26.667;    0.000;57.00000
 474.50;   43.600;  -12.800;    0.000;56.40000
 474.78;   45.867;    4.000;    0.000;41.86666
 475.07;   36.333;  -19.267;    0.000;55.60000
 475.35;   41.467;  -21.400;    0.000;62.86667
 475.64;   57.400;  -14.000;    0.000;71.40000
 475.92;   61.000;  -29.800;    0.000;90.80000
 476.21;   54.267;  -21.133;    0.000;75.40000
 476.49;   63.067;  -30.800;    0.000;93.86666
 476.78;   66.467;  -35.267;    0.000;101.73333
 477.06;   52.600;  -28.333;    0.000;80.93333
 477.35;   95.667;   -7.867;    0.000;103.53333
 477.63;   59.467;  -38.067;    0.000;97.53333
 477.91;   93.067;  -37.067;    0.000;130.13333
 478.20;   82.200;  -38.800;    0.000;121.00000
 478.48;  125.200;    8.600;    0.000;116.60000
 478.77;   98.333;  -16.400;    0.000;114.73334
 479.05;  112.267;  -29.133;    0.000;141.40000
 479.34;  127.133;    1.133;    0.000;126.00000
 479.62;  152.867;  -15.133;    0.000;168.00000
 479.91;  135.733;  -23.200;    0.000;158.93334
 480.19;  185.867;  -14.733;    0.000;200.60000
 480.47;  175.200;  -34.133;    0.000;209.33333
 480.76;  177.333;  -26.600;    0.000;203.93333
 481.04;  202.267;  -34.000;    0.000;236.26666
 481.33;  226.467;  -16.533;    0.000;242.99999
 481.61;  211.200;  -28.467;    0.000;239.66666
 481.90;  255.467;  -34.067;    0.000;289.53333
 482.18;  239.467;  -20.400;    0.000;259.86666
 482.46;  286.733;  -37.933;    0.000;324.66667
 482.75;  307.533;  -35.200;    0.000;342.73333
 483.03;  353.667;  -27.667;    0.000;381.33332
 483.32;  386.067;  -28.933;    0.000;415.00001
 483.60;  407.867;  -21.400;    0.000;429.26667
 483.88;  395.000;  -22.000;    0.000;417.00000
 484.17;  465.333;  -16.133;    0.000;481.46668
 484.45;  459.067;  -23.867;    0.000;482.93335
 484.74;  506.733;  -25.533;    0.000;532.26667
 485.02;  557.000;  -17.867;    0.000;574.86667
 485.30;  579.600;   -3.333;    0.000;582.93331
 485.59;  643.267;   -9.733;    0.000;653.00000
 485.87;  695.400;  -14.267;    0.000;709.66669
 486.16;  660.400;  -27.000;    0.000;687.40002
 486.44;  754.933;  -30.867;    0.000;785.80002
 486.72;  744.067;  -25.267;    0.000;769.33332
 487.01;  850.200;  -30.533;    0.000;880.73335
 487.29;  880.533;  -37.400;    0.000;917.93333
 487.58;  933.733;  -25.133;    0.000;958.86667
 487.86;  979.600;  -24.667;    0.000;1004.26664
 488.14; 1019.800;  -38.800;    0.000;1058.59999
 488.43; 1050.467;  -19.467;    0.000;1069.93334
 488.71; 1110.933;  -35.133;    0.000;1146.06668
 488.99; 1174.733;  -16.200;    0.000;1190.93328
 489.28; 1232.133;  -36.933;    0.000;1269.06664
 489.56; 1311.600;  -24.467;    0.000;1336.06664
 489.85; 1377.067;  -30.000;    0.000;1407.06665
 490.13; 1464.000;  -22.200;    0.000;1486.20000
 490.41; 1512.667;  -36.867;    0.000;1549.53329
 490.70; 1578.933;  -52.467;    0.000;1631.40002
 490.98; 1643.267;  -46.933;    0.000;1690.20006
 491.26; 1716.067;  -48.400;    0.000;1764.46665
 491.55; 1797.933;  -30.067;    0.000;1828.00002
 491.83; 1890.667;   -7.133;    0.000;1897.79996
 492.11; 1979.933;  -23.000;    0.000;2002.93335
 492.40; 2009.467;  -27.533;    0.000;2037.00001
 492.68; 2135.067;  -22.400;    0.000;2157.46665
 492.96; 2148.533;  -35.000;    0.000;2183.53345
 493.25; 2278.800;  -33.867;    0.000;2312.66671
 493.53; 2329.067;  -26.267;    0.000;2355.33332
 493.81; 2380.533;  -37.267;    0.000;2417.80011
 494.10; 2482.600;  -29.200;    0.000;2511.80010
 494.38; 2618.000;  -29.067;    0.000;2647.06667
 494.66; 2669.667;  -19.800;    0.000;2689.46675
 494.95; 2794.733;  -24.533;    0.000;2819.26673
 495.23; 2863.333;  -19.800;    0.000;2883.13325
 495.51; 3044.000;  -18.867;    0.000;3062.86667
 495.80; 3048.400;  -26.533;    0.000;3074.93324
 496.08; 3154.267;  -15.867;    0.000;3170.13327
 496.36; 3273.200;  -11.000;    0.000;3284.19995
 496.65; 3336.200;  -30.600;    0.000;3366.79995
 496.93; 3452.933;  -43.533;    0.000;3496.46668
 497.21; 3538.800;  -20.533;    0.000;3559.33338
 497.50; 3651.533;   -9.400;    0.000;3660.93345
 497.78; 3762.800;  -36.733;    0.000;3799.53338
 498.06; 3829.133;  -22.733;    0.000;3851.86663
 498.34; 3949.400;  -20.400;    0.000;3969.79990
 498.63; 4107.800;  -34.667;    0.000;4142.46647
 498.91; 4229.933;  -23.200;    0.000;4253.13311
 499.19; 4243.000;  -16.800;    0.000;4259.80000
 499.48; 4414.067;  -23.067;    0.000;4437.13356
 499.76; 4497.467;  -19.067;    0.000;4516.53346
 500.04; 4589.400;  -23.267;    0.000;4612.66657
 500.32; 4696.600;  -15.467;    0.000;4712.06676
 500.61; 4812.333;  -34.733;    0.000;4847.06683
 500.89; 4889.267;  -26.800;    0.000;4916.06660
 501.17; 5059.267;   -9.533;    0.000;5068.79994
 501.46; 5032.667;  -34.067;    0.000;5066.73317
 501.74; 5246.000;  -31.400;    0.000;5277.40000
 502.02; 5366.067;  -12.933;    0.000;5379.00023
 502.30; 5476.467;  -29.467;    0.000;5505.93346
 502.59; 5555.600;  -32.933;    0.000;5588.53343
 502.87; 5658.000;  -34.667;    0.000;5692.66667
 503.15; 5806.533;  -13.133;    0.000;5819.66654
 503.43; 5859.533;  -26.400;    0.000;5885.93320
 503.72; 6041.067;  -34.800;    0.000;6075.86689
 504.00; 6062.867;  -18.467;    0.000;6081.33337
 504.28; 6199.000;  -34.200;    0.000;6233.20000
 504.56; 6338.200;  -17.333;    0.000;6355.53353
 504.85; 6474.333;  -14.067;    0.000;6488.40016
 505.13; 6527.267;  -43.867;    0.000;6571.13327
 505.41; 6723.733;  -30.267;    0.000;6754.00006
 505.69; 6785.800;  -28.067;    0.000;6813.86647
 505.98; 6900.600;  -13.467;    0.000;6914.06676
 506.26; 7031.800;  -30.267;    0.000;7062.06647
 506.54; 7037.600;  -19.867;    0.000;7057.46676
 506.82; 7126.133;  -33.200;    0.000;7159.33330
 507.11; 7344.533;  -35.533;    0.000;7380.06654
 507.39; 7421.000;  -37.467;    0.000;7458.46667
 507.67; 7498.333;  -33.733;    0.000;7532.06683
 507.95; 7603.467;  -27.067;    0.000;7630.53346
 508.23; 7742.267;  -27.133;    0.000;7769.39993
 508.52; 7893.600;  -32.267;    0.000;7925.86676
 508.80; 7927.733;  -48.467;    0.000;7976.20007
 509.08; 8099.600;  -35.400;    0.000;8135.00010
 509.36; 8152.333;  -38.467;    0.000;8190.80016
 509.65; 8294.267;  -23.800;    0.000;8318.06660
 509.93; 8388.267;  -40.000;    0.000;8428.26660
 510.21; 8567.200;  -36.067;    0.000;8603.26686
 510.49; 8650.000;  -33.800;    0.000;8683.80000
 510.77; 8589.066;  -31.400;    0.000;8620.46641
 511.06; 8750.533;  -34.000;    0.000;8784.53320
 511.34; 8822.467;  -28.533;    0.000;8851.00013
 511.62; 8987.667;  -52.267;    0.000;9039.93366
 511.90; 9093.000;  -44.600;    0.000;9137.60000
 512.18; 9213.733;  -43.467;    0.000;9257.20007
 512.47; 9273.333;  -27.267;    0.000;9300.59967
 512.75; 9385.134;  -54.200;    0.000;9439.33379
 513.03; 9486.934;  -20.333;    0.000;9507.26693
 513.31; 9540.733;  -32.733;    0.000;9573.46673
 513.59; 9666.000;  -34.333;    0.000;9700.33333
 513.87; 9770.200;  -46.933;    0.000;9817.13353
 514.16; 9896.866;  -11.600;    0.000;9908.46621
 514.44; 9952.733;  -20.733;    0.000;9973.46673
 514.72;10015.467;  -35.533;    0.000;10051.00013
 515.00;10178.267;  -20.200;    0.000;10198.46660
 515.28;10276.066;  -15.800;    0.000;10291.86641
 515.56;10287.800;  -37.400;    0.000;10325.19981
 515.85;10444.733;  -21.933;    0.000;10466.66673
 516.13;10541.733;  -42.733;    0.000;10584.46673
 516.41;10597.200;  -30.333;    0.000;10627.53353
 516.69;10753.600;  -45.200;    0.000;10798.79961
 516.97;10803.533;  -20.933;    0.000;10824.46654
 517.25;10904.000;  -22.733;    0.000;10926.73333
 517.54;10963.733;  -27.200;    0.000;10990.93340
 517.82;11104.333;  -27.933;    0.000;11132.26634
 518.10;11215.333;  -14.000;    0.000;11229.33301
 518.38;11317.134;  -51.467;    0.000;11368.60046
 518.66;11372.800;  -46.000;    0.000;11418.79980
 518.94;11410.267;  -28.267;    0.000;11438.53327
 519.22;11593.667;  -20.533;    0.000;11614.20033
 519.51;11574.467;  -38.133;    0.000;11612.60013
 519.79;11643.600;  -30.867;    0.000;11674.46628
 520.07;11756.066;  -18.600;    0.000;11774.66641
 520.35;11800.600;  -26.667;    0.000;11827.26628
 520.63;11996.467;  -30.667;    0.000;12027.13346
 520.91;12079.333;  -44.400;    0.000;12123.73301
 521.19;12071.400;  -37.133;    0.000;12108.53373
 521.47;12087.000;  -30.200;    0.000;12117.20000
 521.75;12273.800;  -18.400;    0.000;12292.19980
 522.04;12406.533;  -42.867;    0.000;12449.39987
 522.32;12387.934;  -40.667;    0.000;12428.60026
 522.60;12485.066;  -16.067;    0.000;12501.13307
 522.88;12524.600;  -38.467;    0.000;12563.06628
 523.16;12655.467;  -42.933;    0.000;12698.40013
 523.44;12697.733;  -17.333;    0.000;12715.06673
 523.72;12754.866;  -19.133;    0.000;12773.99954
 524.00;12971.066;  -14.200;    0.000;12985.26641
 524.28;13105.800;  -41.333;    0.000;13147.13314
 524.57;12929.000;  -28.533;    0.000;12957.53333
 524.85;13084.667;  -20.933;    0.000;13105.60032
 525.13;13180.134;  -20.267;    0.000;13200.40046
 525.41;13199.934;  -13.533;    0.000;13213.46693
 525.69;13285.800;  -30.933;    0.000;13316.73314
 525.97;13383.267;  -13.467;    0.000;13396.73327
 526.25;13278.667;  -41.400;    0.000;13320.06699
 526.53;13496.200;  -28.467;    0.000;13524.66686
 526.81;13510.866;  -34.467;    0.000;13545.33288
 527.09;13611.066;  -26.000;    0.000;13637.06641
 527.37;13627.600;  -40.600;    0.000;13668.19961
 527.65;13759.000;  -36.933;    0.000;13795.93333
 527.93;13801.667;  -39.733;    0.000;13841.40033
 528.22;13824.000;  -12.733;    0.000;13836.73333
 528.50;13914.800;  -39.533;    0.000;13954.33314
 528.78;13955.600;  -13.867;    0.000;13969.46628
 529.06;14107.667;  -21.333;    0.000;14129.00033
 529.34;14196.533;  -27.933;    0.000;14224.46654
 529.62;14195.066;  -48.467;    0.000;14243.53307
 529.90;14109.667;  -42.733;    0.000;14152.40033
 530.18;14284.934;  -26.867;    0.000;14311.80026
 530.46;14381.866;  -23.533;    0.000;14405.39954
 530.74;14372.800;  -23.000;    0.000;14395.79980
 531.02;14510.333;  -20.800;    0.000;14531.13301
 531.30;14522.066;  -22.533;    0.000;14544.59974
 531.58;14607.934;  -30.800;    0.000;14638.73359
 531.86;14617.000;  -42.000;    0.000;14659.00000
 532.14;14741.866;  -34.733;    0.000;14776.59954
 532.42;14636.733;  -42.133;    0.000;14678.86673
 532.70;14754.200;  -27.200;    0.000;14781.40020
 532.98;14686.934;  -31.400;    0.000;14718.33359
 533.26;14907.400;  -14.000;    0.000;14921.40039
 533.54;14954.467;  -46.133;    0.000;15000.60013
 533.82;15073.134;  -33.467;    0.000;15106.60046
 534.10;15046.333;  -40.667;    0.000;15086.99968
 534.38;15128.066;  -29.267;    0.000;15157.33307
 534.66;15091.800;  -50.067;    0.000;15141.86647
 534.94;15186.800;  -21.800;    0.000;15208.59980
 535.22;15195.667;  -50.733;    0.000;15246.40033
 535.50;15367.400;  -29.933;    0.000;15397.33372
 535.78;15488.800;  -57.267;    0.000;15546.06647
 536.06;15364.866;  -50.533;    0.000;15415.39954
 536.34;15493.066;  -55.067;    0.000;15548.13307
 536.62;15475.134;  -33.400;    0.000;15508.53379
 536.90;15560.866;  -44.533;    0.000;15605.39954
 537.18;15655.333;  -23.600;    0.000;15678.93301
 537.46;15562.733;  -53.933;    0.000;15616.66673
 537.74;15626.000;  -38.400;    0.000;15664.40000
 538.02;15684.800;  -15.733;    0.000;15700.53314
 538.30;15898.000;  -30.267;    0.000;15928.26667
 538.58;15800.533;  -46.400;    0.000;15846.93320
 538.86;15879.400;  -34.733;    0.000;15914.13372
 539.14;15844.934;  -25.333;    0.000;15870.26693
 539.42;15952.733;  -22.067;    0.000;15974.80007
 539.70;15992.267;  -54.133;    0.000;16046.39994
 539.98;15986.000;  -11.467;    0.000;15997.46667
 540.26;16128.267;  -16.667;    0.000;16144.93327
 540.54;16035.000;  -38.000;    0.000;16073.00000
 540.82;16138.000;  -36.067;    0.000;16174.06667
 541.10;16166.934;  -25.067;    0.000;16192.00026
 541.38;16102.400;  -34.667;    0.000;16137.06706
 541.66;16287.667;  -18.600;    0.000;16306.26699
 541.94;16268.000;  -29.467;    0.000;16297.46667
 542.22;16401.268;  -28.533;    0.000;16429.80091
 542.50;16397.666;  -51.800;    0.000;16449.46601
 542.78;16426.666;  -26.200;    0.000;16452.86602
 543.06;16585.334;  -43.733;    0.000;16629.06732
 543.34;16436.732;  -44.200;    0.000;16480.93242
 543.62;16512.133;  -22.133;    0.000;16534.26615
 543.90;16523.334;  -31.000;    0.000;16554.33398
 544.17;16551.467;  -27.200;    0.000;16578.66680
 544.45;16550.801;  -34.667;    0.000;16585.46745
 544.73;16629.732;  -29.867;    0.000;16659.59909
 545.01;16743.467;  -10.667;    0.000;16754.13346
 545.29;16727.467;  -42.667;    0.000;16770.13346
 545.57;16766.268;  -14.400;    0.000;16780.66758
 545.85;16700.867;  -28.467;    0.000;16729.33385
 546.13;16859.133;  -19.400;    0.000;16878.53281
 546.41;16852.467;  -18.867;    0.000;16871.33346
 546.69;16786.133;  -36.600;    0.000;16822.73281
 546.97;16732.000;  -46.333;    0.000;16778.33333
 547.25;16855.934;  -34.200;    0.000;16890.13359
 547.52;16850.334;  -22.667;    0.000;16873.00065
 547.80;16971.467;  -30.600;    0.000;17002.06680
 548.08;16904.533;  -48.133;    0.000;16952.66654
 548.36;16926.801;  -28.867;    0.000;16955.66745
 548.64;16986.934;  -30.267;    0.000;17017.20026
 548.92;16974.467;  -36.800;    0.000;17011.26680
 549.20;17059.801;  -38.533;    0.000;17098.33411
 549.48;17150.334;  -27.133;    0.000;17177.46732
 549.76;16998.533;  -38.333;    0.000;17036.86654
 550.04;17073.934;  -29.867;    0.000;17103.80026
 550.31;17137.133;  -33.267;    0.000;17170.39948
 550.59;17035.000;  -31.533;    0.000;17066.53333
 550.87;17128.801;  -45.400;    0.000;17174.20078
 551.15;17081.801;  -19.267;    0.000;17101.06745
 551.43;17184.133;  -39.067;    0.000;17223.19948
 551.71;17153.000;  -31.667;    0.000;17184.66667
 551.99;16994.199;  -37.000;    0.000;17031.19922
 552.27;17086.934;  -30.533;    0.000;17117.46693
 552.54;17114.199;  -25.933;    0.000;17140.13255
 552.82;17198.934;  -26.600;    0.000;17225.53359
 553.10;17199.934;  -22.800;    0.000;17222.73359
 553.38;17188.732;  -32.333;    0.000;17221.06575
 553.66;17140.199;  -23.133;    0.000;17163.33255
 553.94;17172.467;  -36.200;    0.000;17208.66680
 554.22;17285.400;  -26.200;    0.000;17311.60039
 554.49;17287.600;  -11.067;    0.000;17298.66628
 554.77;17218.934;  -34.200;    0.000;17253.13359
 555.05;17172.133;  -24.867;    0.000;17196.99948
 555.33;17195.801;  -40.333;    0.000;17236.13411
 555.61;17175.732;  -45.733;    0.000;17221.46576
 555.89;17099.268;  -39.667;    0.000;17138.93425
 556.16;17238.867;  -49.933;    0.000;17288.80052
 556.44;17246.533;  -57.333;    0.000;17303.86654
 556.72;17229.467;  -27.000;    0.000;17256.46680
 557.00;17283.000;  -41.933;    0.000;17324.93333
 557.28;17264.066;  -31.133;    0.000;17295.19974
 557.56;17136.467;  -48.067;    0.000;17184.53346
 557.83;17221.334;  -25.400;    0.000;17246.73398
 558.11;17286.268;  -26.533;    0.000;17312.80091
 558.39;17232.467;  -50.467;    0.000;17282.93346
 558.67;17246.934;  -48.133;    0.000;17295.06693
 558.95;17150.666;  -46.600;    0.000;17197.26601
 559.23;17176.600;  -47.200;    0.000;17223.79961
 559.50;17205.000;  -35.933;    0.000;17240.93333
 559.78;17113.934;  -30.400;    0.000;17144.33359
 560.06;17164.199;  -42.667;    0.000;17206.86589
 560.34;17086.666;  -24.667;    0.000;17111.33268
 560.62;17051.199;  -29.467;    0.000;17080.66589
 560.89;17114.600;  -18.000;    0.000;17132.59961
 561.17;17115.066;  -30.733;    0.000;17145.79974
 561.45;17079.934;  -35.133;    0.000;17115.06693
 561.73;16981.400;  -32.933;    0.000;17014.33372
 562.00;17063.268;  -37.067;    0.000;17100.33424
 562.28;17005.533;  -25.000;    0.000;17030.53320
 562.56;16934.666;  -45.333;    0.000;16979.99935
 562.84;17035.199;  -17.133;    0.000;17052.33255
 563.12;16935.467;  -39.200;    0.000;16974.66680
 563.39;16944.000;  -40.267;    0.000;16984.26667
 563.67;16946.199;  -37.333;    0.000;16983.53255
 563.95;17019.199;  -17.667;    0.000;17036.86588
 564.23;16874.600;  -26.733;    0.000;16901.33294
 564.50;16844.732;  -33.533;    0.000;16878.26575
 564.78;16824.533;   -7.933;    0.000;16832.46654
 565.06;16643.000;  -30.000;    0.000;16673.00000
 565.34;16781.732;  -36.600;    0.000;16818.33242
 565.61;16749.867;  -43.600;    0.000;16793.46719
 565.89;16679.801;  -19.933;    0.000;16699.73411
 566.17;16686.334;  -34.333;    0.000;16720.66732
 566.45;16670.199;  -42.333;    0.000;16712.53255
 566.73;16619.467;  -30.200;    0.000;16649.66680
 567.00;16649.334;  -49.067;    0.000;16698.40065
 567.28;16652.199;  -40.000;    0.000;16692.19922
 567.56;16565.400;  -22.867;    0.000;16588.26706
 567.83;16624.600;  -43.533;    0.000;16668.13294
 568.11;16384.199;  -37.000;    0.000;16421.19922
 568.39;16401.666;  -27.000;    0.000;16428.66602
 568.67;16402.199;  -23.733;    0.000;16425.93255
 568.94;16373.066;  -23.600;    0.000;16396.66641
 569.22;16215.800;  -24.600;    0.000;16240.39981
 569.50;16429.400;  -43.267;    0.000;16472.66706
 569.78;16332.200;  -11.400;    0.000;16343.60019
 570.05;16159.000;  -33.333;    0.000;16192.33333
 570.33;16119.667;  -29.133;    0.000;16148.80033
 570.61;16201.000;  -40.000;    0.000;16241.00000
 570.88;16072.667;  -44.800;    0.000;16117.46699
 571.16;16076.066;  -29.467;    0.000;16105.53307
 571.44;16002.333;  -47.600;    0.000;16049.93301
 571.72;16055.667;  -31.467;    0.000;16087.13366
 571.99;15879.333;  -30.600;    0.000;15909.93301
 572.27;15903.066;  -41.133;    0.000;15944.19974
 572.55;15821.667;  -39.667;    0.000;15861.33366
 572.82;15815.866;  -27.133;    0.000;15842.99954
 573.10;15676.600;  -41.933;    0.000;15718.53294
 573.38;15660.200;  -59.867;    0.000;15720.06686
 573.65;15522.333;  -22.667;    0.000;15544.99967
 573.93;15583.733;  -48.933;    0.000;15632.66673
 574.21;15490.134;  -54.333;    0.000;15544.46712
 574.48;15449.134;  -51.267;    0.000;15500.40046
 574.76;15394.134;  -44.333;    0.000;15438.46712
 575.04;15400.667;  -25.333;    0.000;15426.00033
 575.32;15353.733;  -18.400;    0.000;15372.13340
 575.59;15289.800;  -29.333;    0.000;15319.13314
 575.87;15229.134;  -40.733;    0.000;15269.86712
 576.15;15151.000;  -20.133;    0.000;15171.13333
 576.42;15086.000;  -36.267;    0.000;15122.26667
 576.70;15054.467;  -39.467;    0.000;15093.93346
 576.98;14993.134;  -23.333;    0.000;15016.46712
 577.25;14821.533;  -37.200;    0.000;14858.73320
 577.53;14851.866;  -52.800;    0.000;14904.66621
 577.80;14891.333;  -40.333;    0.000;14931.66634
 578.08;14739.000;  -32.867;    0.000;14771.86666
 578.36;14765.600;  -36.133;    0.000;14801.73294
 578.63;14558.134;  -55.000;    0.000;14613.13379
 578.91;14542.600;  -30.867;    0.000;14573.46628
 579.19;14448.200;  -42.000;    0.000;14490.20020
 579.46;14490.866;  -32.533;    0.000;14523.39954
 579.74;14433.533;  -26.733;    0.000;14460.26654
 580.02;14307.200;  -28.267;    0.000;14335.46686
 580.29;14324.200;  -41.933;    0.000;14366.13353
 580.57;14245.800;  -45.200;    0.000;14290.99981
 580.84;14278.800;  -45.000;    0.000;14323.79980
 581.12;13974.733;   -9.333;    0.000;13984.06673
 581.40;14141.400;  -37.533;    0.000;14178.93372
 581.67;13930.400;  -44.533;    0.000;13974.93372
 581.95;13861.667;  -39.933;    0.000;13901.60033
 582.23;13916.400;  -27.800;    0.000;13944.20039
 582.50;13686.467;  -44.133;    0.000;13730.60013
 582.78;13665.667;  -38.800;    0.000;13704.46699
 583.05;13561.733;  -24.000;    0.000;13585.73340
 583.33;13559.600;  -19.800;    0.000;13579.39961
 583.61;13592.600;  -30.000;    0.000;13622.59961
 583.88;13344.267;  -38.267;    0.000;13382.53327
 584.16;13320.533;  -40.600;    0.000;13361.13320
 584.43;13252.066;  -43.933;    0.000;13295.99974
 584.71;13143.866;  -44.000;    0.000;13187.86621
 584.99;13155.533;  -27.400;    0.000;13182.93320
 585.26;13093.934;  -42.667;    0.000;13136.60026
 585.54;13049.733;  -31.200;    0.000;13080.93340
 585.81;12990.667;  -12.800;    0.000;13003.46699
 586.09;12936.400;  -17.267;    0.000;12953.66706
 586.37;12935.467;  -35.400;    0.000;12970.86680
 586.64;12756.600;  -40.267;    0.000;12796.86628
 586.92;12697.467;  -45.533;    0.000;12743.00013
 587.19;12587.934;  -41.467;    0.000;12629.40026
 587.47;12564.134;  -47.533;    0.000;12611.66712
 587.74;12437.533;  -31.467;    0.000;12468.99987
 588.02;12532.134;  -23.133;    0.000;12555.26712
 588.30;12444.000;  -46.467;    0.000;12490.46667
 588.57;12371.000;  -42.800;    0.000;12413.80000
 588.85;12235.400;  -34.267;    0.000;12269.66706
 589.12;12112.000;  -38.333;    0.000;12150.33333
 589.40;12187.467;  -27.733;    0.000;12215.20013
 589.67;12037.467;  -49.200;    0.000;12086.66680
 589.95;11987.533;  -27.400;    0.000;12014.93320
 590.22;11877.733;  -37.067;    0.000;11914.80006
 590.50;11977.533;  -45.333;    0.000;12022.86654
 590.77;11655.066;  -30.667;    0.000;11685.73307
 591.05;11728.667;  -32.600;    0.000;11761.26699
 591.33;11561.600;  -26.067;    0.000;11587.66628
 591.60;11622.066;  -55.267;    0.000;11677.33307
 591.88;11485.934;  -44.467;    0.000;11530.40026
 592.15;11397.600;  -57.200;    0.000;11454.79961
 592.43;11304.267;  -46.467;    0.000;11350.73327
 592.70;11196.533;  -40.067;    0.000;11236.59987
 592.98;11115.733;  -28.667;    0.000;11144.40006
 593.25;11124.934;  -21.467;    0.000;11146.40026
 593.53;11053.667;  -50.067;    0.000;11103.73366
 593.80;10955.866;  -49.467;    0.000;11005.33288
 594.08;10921.000;  -49.800;    0.000;10970.80000
 594.35;10884.066;  -46.200;    0.000;10930.26641
 594.63;10692.800;  -50.400;    0.000;10743.19981
 594.90;10710.267;  -29.067;    0.000;10739.33327
 595.18;10555.733;  -43.067;    0.000;10598.80006
 595.45;10535.866;  -32.600;    0.000;10568.46621
 595.73;10449.400;  -56.533;    0.000;10505.93372
 596.00;10462.800;  -39.400;    0.000;10502.19981
 596.28;10240.533;  -41.733;    0.000;10282.26654
 596.55;10323.600;  -38.867;    0.000;10362.46627
 596.83;10260.333;  -44.467;    0.000;10304.79967
 597.10;10202.333;  -24.267;    0.000;10226.59967
 597.38;10076.200;  -50.867;    0.000;10127.06686
 597.65; 9988.667;  -42.400;    0.000;10031.06699
 597.93; 9885.000;  -48.267;    0.000;9933.26667
 598.20; 9851.134;  -46.133;    0.000;9897.26712
 598.48; 9741.000;  -43.733;    0.000;9784.73333
 598.75; 9729.600;  -61.400;    0.000;9790.99961
 599.03; 9537.600;  -46.400;    0.000;9583.99961
 599.30; 9624.066;  -40.667;    0.000;9664.73307
 599.58; 9541.134;  -40.400;    0.000;9581.53379
 599.85; 9386.733;  -43.533;    0.000;9430.26673
 600.12; 9338.467;  -33.000;    0.000;9371.46680
 600.40; 9340.066;  -43.933;    0.000;9383.99974
 600.67; 9112.533;  -62.400;    0.000;9174.93320
 600.95; 9151.733;  -46.800;    0.000;9198.53340
 601.22; 9135.934;  -30.733;    0.000;9166.66693
 601.50; 8974.066;  -30.800;    0.000;9004.86641
 601.77; 8899.000;  -33.333;    0.000;8932.33333
 602.05; 8867.533;  -28.800;    0.000;8896.33320
 602.32; 8838.000;  -25.533;    0.000;8863.53333
 602.59; 8790.000;  -41.467;    0.000;8831.46667
 602.87; 8689.800;  -36.133;    0.000;8725.93314
 603.14; 8590.667;  -34.733;    0.000;8625.40033
 603.42; 8704.733;  -51.733;    0.000;8756.46673
 603.69; 8519.866;  -37.733;    0.000;8557.59954
 603.97; 8459.467;  -68.133;    0.000;8527.60013
 604.24; 8426.467;  -38.933;    0.000;8465.40013
 604.51; 8344.467;  -14.667;    0.000;8359.13346
 604.79; 8340.000;  -32.267;    0.000;8372.26667
 605.06; 8210.866;  -44.133;    0.000;8254.99955
 605.34; 8235.267;  -33.400;    0.000;8268.66660
 605.61; 8127.267;  -43.000;    0.000;8170.26660
 605.89; 8031.867;  -33.867;    0.000;8065.73336
 606.16; 7977.600;  -40.200;    0.000;8017.80010
 606.43; 7965.667;  -36.800;    0.000;8002.46650
 606.71; 7875.133;  -33.933;    0.000;7909.06664
 606.98; 7855.333;  -41.467;    0.000;7896.80016
 607.26; 7868.400;  -24.000;    0.000;7892.39990
 607.53; 7765.333;  -38.867;    0.000;7804.20016
 607.80; 7727.133;  -21.067;    0.000;7748.19997
 608.08; 7696.733;  -37.600;    0.000;7734.33340
 608.35; 7576.867;  -48.333;    0.000;7625.20003
 608.62; 7578.000;  -52.200;    0.000;7630.20000
 608.90; 7572.667;  -29.733;    0.000;7602.39984
 609.17; 7574.200;  -48.600;    0.000;7622.80019
 609.45; 7459.800;  -44.933;    0.000;7504.73314
 609.72; 7322.267;  -45.133;    0.000;7367.39994
 609.99; 7223.733;  -31.933;    0.000;7255.66673
 610.27; 7289.133;  -42.600;    0.000;7331.73330
 610.54; 7293.933;  -37.333;    0.000;7331.26644
 610.81; 7184.467;  -30.200;    0.000;7214.66680
 611.09; 7199.600;  -46.933;    0.000;7246.53343
 611.36; 7071.133;  -31.333;    0.000;7102.46663
 611.64; 7041.133;  -32.600;    0.000;7073.73330
 611.91; 7027.600;  -37.000;    0.000;7064.60010
 612.18; 6907.400;  -48.267;    0.000;6955.66657
 612.46; 6922.600;  -16.667;    0.000;6939.26676
 612.73; 6924.333;  -29.933;    0.000;6954.26683
 613.00; 6781.000;  -38.533;    0.000;6819.53333
 613.28; 6671.400;  -38.267;    0.000;6709.66657
 613.55; 6696.800;  -48.067;    0.000;6744.86647
 613.82; 6633.533;  -64.267;    0.000;6697.79987
 614.10; 6655.600;  -64.067;    0.000;6719.66676
 614.37; 6567.400;  -36.533;    0.000;6603.93324
 614.64; 6452.267;  -49.333;    0.000;6501.59993
 614.92; 6428.067;  -58.667;    0.000;6486.73356
 615.19; 6346.733;  -23.533;    0.000;6370.26673
 615.46; 6206.600;  -45.133;    0.000;6251.73343
 615.74; 6122.333;  -23.200;    0.000;6145.53350
 616.01; 6026.733;  -63.467;    0.000;6090.20007
 616.28; 5966.333;  -41.467;    0.000;6007.80016
 616.56; 5967.800;  -48.600;    0.000;6016.39980
 616.83; 5795.867;  -20.467;    0.000;5816.33337
 617.10; 5768.733;  -26.333;    0.000;5795.06673
 617.37; 5753.133;  -31.933;    0.000;5785.06663
 617.65; 5797.467;  -30.933;    0.000;5828.40013
 617.92; 5887.933;  -41.733;    0.000;5929.66644
 618.19; 5769.067;  -42.533;    0.000;5811.60023
 618.47; 5718.067;  -36.667;    0.000;5754.73356
 618.74; 5709.133;  -40.933;    0.000;5750.06664
 619.01; 5615.533;  -64.067;    0.000;5679.59987
 619.28; 5612.000;  -52.800;    0.000;5664.80000
 619.56; 5640.400;  -49.533;    0.000;5689.93324
 619.83; 5502.000;  -53.467;    0.000;5555.46667
 620.10; 5550.133;  -36.667;    0.000;5586.79997
 620.38; 5485.000;  -63.933;    0.000;5548.93333
 620.65; 5488.533;  -43.400;    0.000;5531.93320
 620.92; 5406.733;  -43.000;    0.000;5449.73340
 621.19; 5457.800;  -44.133;    0.000;5501.93314
 621.47; 5399.933;  -43.133;    0.000;5443.06644
 621.74; 5489.000;  -41.000;    0.000;5530.00000
 622.01; 5464.800;  -44.333;    0.000;5509.13314
 622.28; 5491.267;  -15.200;    0.000;5506.46660
 622.56; 5362.933;  -30.200;    0.000;5393.13311
 622.83; 5370.800;  -55.067;    0.000;5425.86647
 623.10; 5368.933;  -47.267;    0.000;5416.19977
 623.38; 5421.000;  -42.600;    0.000;5463.60000
 623.65; 5375.067;  -28.333;    0.000;5403.40023
 623.92; 5392.067;  -40.933;    0.000;5433.00023
 624.19; 5265.267;  -75.400;    0.000;5340.66660
 624.46; 5307.200;  -31.400;    0.000;5338.60019
 624.74; 5304.933;  -29.600;    0.000;5334.53311
 625.01; 5244.533;  -33.333;    0.000;5277.86654
 625.28; 5194.467;  -36.800;    0.000;5231.26680
 625.55; 5167.733;  -42.667;    0.000;5210.40007
 625.83; 5109.800;  -50.200;    0.000;5159.99981
 626.10; 5191.133;  -41.667;    0.000;5232.79997
 626.37; 5058.200;  -43.333;    0.000;5101.53353
 626.64; 5061.000;  -45.867;    0.000;5106.86666
 626.92; 5093.267;  -52.467;    0.000;5145.73327
 627.19; 5050.200;  -45.600;    0.000;5095.80019
 627.46; 4967.667;  -32.800;    0.000;5000.46650
 627.73; 4985.800;  -49.800;    0.000;5035.59980
 628.00; 4963.267;  -45.533;    0.000;5008.79993
 628.28; 4935.133;  -24.533;    0.000;4959.66663
 628.55; 4886.333;  -56.267;    0.000;4942.60016
 628.82; 4915.400;  -32.667;    0.000;4948.06657
 629.09; 4829.400;  -42.467;    0.000;4871.86657
 629.36; 4881.733;  -28.733;    0.000;4910.46673
 629.64; 4861.333;  -16.333;    0.000;4877.66683
 629.91; 4874.533;  -41.467;    0.000;4915.99987
 630.18; 4762.667;  -42.667;    0.000;4805.33317
 630.45; 4715.933;  -47.933;    0.000;4763.86644
 630.72; 4795.267;  -68.667;    0.000;4863.93327
 631.00; 4742.400;  -33.333;    0.000;4775.73323
 631.27; 4715.800;  -54.867;    0.000;4770.66647
 631.54; 4708.733;  -33.400;    0.000;4742.13340
 631.81; 4707.533;  -53.667;    0.000;4761.19987
 632.08; 4661.533;  -44.267;    0.000;4705.79987
 632.35; 4558.600;  -19.867;    0.000;4578.46676
 632.63; 4539.533;  -59.067;    0.000;4598.59987
 632.90; 4586.533;  -47.600;    0.000;4634.13320
 633.17; 4588.867;  -38.333;    0.000;4627.20003
 633.44; 4546.267;  -57.467;    0.000;4603.73327
 633.71; 4493.933;  -55.667;    0.000;4549.59977
 633.98; 4555.067;  -45.000;    0.000;4600.06689
 634.25; 4529.400;  -59.133;    0.000;4588.53324
 634.53; 4496.267;  -36.333;    0.000;4532.59993
 634.80; 4469.267;  -53.333;    0.000;4522.59993
 635.07; 4466.000;  -53.933;    0.000;4519.93333
 635.34; 4496.267;  -28.400;    0.000;4524.66660
 635.61; 4527.400;  -55.533;    0.000;4582.93324
 635.88; 4501.200;  -45.200;    0.000;4546.40020
 636.15; 4515.467;  -26.200;    0.000;4541.66680
 636.43; 4548.667;  -50.200;    0.000;4598.86650
 636.70; 4487.933;  -37.467;    0.000;4525.39977
 636.97; 4583.133;  -48.867;    0.000;4631.99997
 637.24; 4443.733;  -53.067;    0.000;4496.80006
 637.51; 4350.600;  -24.800;    0.000;4375.40010
 637.78; 4324.467;  -53.000;    0.000;4377.46680
 638.05; 4297.933;  -41.067;    0.000;4338.99977
 638.32; 4276.000;  -31.533;    0.000;4307.53333
 638.60; 4198.600;  -28.133;    0.000;4226.73343
 638.87; 4163.800;  -62.667;    0.000;4226.46647
 639.14; 4115.533;  -47.867;    0.000;4163.39987
 639.41; 4134.467;  -43.867;    0.000;4178.33346
 639.68; 4099.733;  -37.467;    0.000;4137.20007
 639.95; 4103.400;  -60.533;    0.000;4163.93324
 640.22; 4110.933;  -50.000;    0.000;4160.93311
 640.49; 4001.800;  -32.400;    0.000;4034.20005
 640.76; 3974.533;  -47.200;    0.000;4021.73345
 641.03; 3895.000;  -56.133;    0.000;3951.13334
 641.30; 3891.400;  -50.933;    0.000;3942.33324
 641.58; 3850.133;  -49.000;    0.000;3899.13330
 641.85; 3882.467;  -61.467;    0.000;3943.93322
 642.12; 3775.467;  -27.933;    0.000;3803.39989
 642.39; 3717.333;  -47.933;    0.000;3765.26659
 642.66; 3726.867;  -58.133;    0.000;3785.00003
 642.93; 3706.400;  -38.733;    0.000;3745.13324
 643.20; 3662.933;  -31.133;    0.000;3694.06668
 643.47; 3626.467;  -64.467;    0.000;3690.93322
 643.74; 3595.333;  -37.067;    0.000;3632.39992
 644.01; 3593.600;  -51.000;    0.000;3644.60010
 644.28; 3521.667;  -45.000;    0.000;3566.66675
 644.55; 3574.467;  -49.200;    0.000;3623.66655
 644.82; 3516.533;  -50.000;    0.000;3566.53345
 645.09; 3469.867;  -33.600;    0.000;3503.46670
 645.36; 3488.933;  -33.333;    0.000;3522.26668
 645.63; 3410.400;  -40.467;    0.000;3450.86657
 645.91; 3426.933;  -53.600;    0.000;3480.53335
 646.18; 3452.000;  -29.533;    0.000;3481.53333
 646.45; 3410.067;  -44.933;    0.000;3454.99998
 646.72; 3313.467;  -51.000;    0.000;3364.46655
 646.99; 3353.800;  -59.867;    0.000;3413.66671
 647.26; 3351.533;  -44.200;    0.000;3395.73345
 647.53; 3346.267;  -51.133;    0.000;3397.39994
 647.80; 3301.400;  -11.667;    0.000;3313.06657
 648.07; 3220.200;  -45.933;    0.000;3266.13329
 648.34; 3187.533;  -39.000;    0.000;3226.53345
 648.61; 3228.533;  -42.267;    0.000;3270.80011
 648.88; 3257.400;  -63.800;    0.000;3321.19990
 649.15; 3164.800;  -55.333;    0.000;3220.13338
 649.42; 3212.333;  -52.400;    0.000;3264.73325
 649.69; 3098.400;  -34.733;    0.000;3133.13324
 649.96; 3052.200;  -39.267;    0.000;3091.46662
 650.23; 3114.267;  -47.333;    0.000;3161.59993
 650.50; 3098.933;  -28.600;    0.000;3127.53335
 650.77; 3015.733;  -58.200;    0.000;3073.93340
 651.04; 3039.600;  -43.867;    0.000;3083.46676
 651.31; 2983.667;  -58.400;    0.000;3042.06675
 651.58; 2976.200;  -34.667;    0.000;3010.86662
 651.85; 2968.000;  -48.400;    0.000;3016.40000
 652.12; 2962.733;  -24.933;    0.000;2987.66673
 652.39; 2914.333;  -53.933;    0.000;2968.26659
 652.66; 2917.400;  -49.333;    0.000;2966.73323
 652.93; 2888.867;  -51.133;    0.000;2940.00003
 653.20; 2891.933;  -53.467;    0.000;2945.40002
 653.47; 2795.600;  -46.133;    0.000;2841.73343
 653.74; 2835.267;  -45.200;    0.000;2880.46660
 654.01; 2783.333;  -38.533;    0.000;2821.86658
 654.28; 2777.733;  -44.867;    0.000;2822.60006
 654.55; 2771.667;  -66.867;    0.000;2838.53342
 654.81; 2756.600;  -46.467;    0.000;2803.06676
 655.08; 2781.000;  -45.133;    0.000;2826.13334
 655.35; 2700.400;  -49.533;    0.000;2749.93324
 655.62; 2689.667;  -36.400;    0.000;2726.06675
 655.89; 2691.067;  -46.267;    0.000;2737.33332
 656.16; 2668.467;  -52.133;    0.000;2720.59989
 656.43; 2673.800;  -50.867;    0.000;2724.66671
 656.70; 2602.867;  -44.800;    0.000;2647.66670
 656.97; 2598.867;  -54.200;    0.000;2653.06670
 657.24; 2548.067;  -53.267;    0.000;2601.33332
 657.51; 2588.267;  -76.267;    0.000;2664.53327
 657.78; 2548.533;  -49.733;    0.000;2598.26678
 658.05; 2581.400;  -64.067;    0.000;2645.46657
 658.32; 2530.800;  -66.333;    0.000;2597.13338
 658.59; 2516.933;  -43.133;    0.000;2560.06668
 658.86; 2434.400;  -67.133;    0.000;2501.53323
 659.12; 2494.067;  -30.000;    0.000;2524.06665
 659.39; 2443.667;  -44.133;    0.000;2487.80008
 659.66; 2465.933;  -42.267;    0.000;2508.20002
 659.93; 2392.733;  -37.867;    0.000;2430.60006
 660.20; 2379.533;  -56.133;    0.000;2435.66678
 660.47; 2362.933;  -54.200;    0.000;2417.13335
 660.74; 2376.933;  -38.400;    0.000;2415.33335
 661.01; 2339.267;  -44.133;    0.000;2383.39994
 661.28; 2334.800;  -47.667;    0.000;2382.46672
 661.55; 2306.000;   -5.533;    0.000;2311.53333
 661.81; 2303.733;  -55.200;    0.000;2358.93340
 662.08; 2276.333;  -46.733;    0.000;2323.06659
 662.35; 2292.733;  -46.800;    0.000;2339.53340
 662.62; 2233.800;  -50.000;    0.000;2283.80005
 662.89; 2190.867;  -45.600;    0.000;2236.46670
 663.16; 2209.067;  -49.867;    0.000;2258.93332
 663.43; 2213.333;  -44.733;    0.000;2258.06659
 663.70; 2160.867;  -55.667;    0.000;2216.53337
 663.96; 2179.400;  -45.267;    0.000;2224.66657
 664.23; 2137.200;  -52.600;    0.000;2189.79995
 664.50; 2112.333;  -55.600;    0.000;2167.93325
 664.77; 2152.333;  -51.333;    0.000;2203.66658
 665.04; 2092.533;  -54.400;    0.000;2146.93345
 665.31; 2050.600;  -59.800;    0.000;2110.40010
 665.58; 2030.400;  -48.133;    0.000;2078.53336
 665.84; 2031.733;  -35.333;    0.000;2067.06661
 666.11; 2053.933;  -56.733;    0.000;2110.66668
 666.38; 2005.800;  -46.600;    0.000;2052.40005
 666.65; 2028.667;  -41.400;    0.000;2070.06663
 666.92; 1948.133;  -63.600;    0.000;2011.73330
 667.19; 1963.400;  -62.200;    0.000;2025.60003
 667.46; 1924.800;  -44.067;    0.000;1968.86671
 667.72; 1964.000;  -38.333;    0.000;2002.33333
 667.99; 1933.533;  -43.200;    0.000;1976.73333
 668.26; 1946.133;  -51.867;    0.000;1997.99997
 668.53; 1871.133;  -57.067;    0.000;1928.19997
 668.80; 1867.533;  -25.333;    0.000;1892.86666
 669.06; 1855.000;  -42.933;    0.000;1897.93333
 669.33; 1862.267;  -38.533;    0.000;1900.80006
 669.60; 1806.533;  -47.800;    0.000;1854.33332
 669.87; 1833.600;  -51.467;    0.000;1885.06664
 670.14; 1788.800;  -47.467;    0.000;1836.26672
 670.41; 1818.467;  -45.600;    0.000;1864.06667
 670.67; 1736.133;  -52.333;    0.000;1788.46663
 670.94; 1756.067;  -57.067;    0.000;1813.13332
 671.21; 1801.333;  -37.133;    0.000;1838.46671
 671.48; 1773.600;  -63.533;    0.000;1837.13331
 671.75; 1685.600;  -43.867;    0.000;1729.46664
 672.01; 1744.067;  -41.267;    0.000;1785.33332
 672.28; 1676.067;  -28.467;    0.000;1704.53332
 672.55; 1721.800;  -41.200;    0.000;1763.00005
 672.82; 1647.800;  -45.133;    0.000;1692.93338
 673.08; 1624.067;  -47.667;    0.000;1671.73332
 673.35; 1655.600;  -60.000;    0.000;1715.59998
 673.62; 1634.200;  -58.933;    0.000;1693.13329
 673.89; 1592.800;  -54.067;    0.000;1646.86671
 674.16; 1605.267;  -52.267;    0.000;1657.53339
 674.42; 1583.800;  -41.133;    0.000;1624.93338
 674.69; 1583.533;  -36.733;    0.000;1620.26666
 674.96; 1531.800;  -52.933;    0.000;1584.73338
 675.23; 1479.867;  -69.933;    0.000;1549.80003
 675.49; 1525.400;  -59.400;    0.000;1584.80003
 675.76; 1547.067;  -54.733;    0.000;1601.79998
 676.03; 1544.000;  -30.667;    0.000;1574.66667
 676.30; 1501.467;  -51.600;    0.000;1553.06667
 676.56; 1483.467;  -55.533;    0.000;1539.00001
 676.83; 1472.267;  -40.467;    0.000;1512.73339
 677.10; 1439.933;  -51.133;    0.000;1491.06668
 677.37; 1475.000;  -23.667;    0.000;1498.66667
 677.63; 1446.867;  -54.933;    0.000;1501.80003
 677.90; 1432.933;  -48.200;    0.000;1481.13335
 678.17; 1388.467;  -53.200;    0.000;1441.66668
 678.44; 1451.067;  -34.333;    0.000;1485.39998
 678.70; 1394.133;  -54.533;    0.000;1448.66663
 678.97; 1345.267;  -49.000;    0.000;1394.26672
 679.24; 1395.667;  -54.000;    0.000;1449.66663
 679.50; 1338.200;  -68.267;    0.000;1406.46662
 679.77; 1319.133;  -48.267;    0.000;1367.39997
 680.04; 1358.267;  -45.800;    0.000;1404.06672
 680.31; 1309.067;  -58.333;    0.000;1367.39998
 680.57; 1323.467;  -55.400;    0.000;1378.86668
 680.84; 1307.600;  -56.933;    0.000;1364.53331
 681.11; 1290.133;  -33.533;    0.000;1323.66663
 681.37; 1299.867;  -52.000;    0.000;1351.86670
 681.64; 1285.067;  -49.067;    0.000;1334.13332
 681.91; 1225.067;  -55.267;    0.000;1280.33332
 682.17; 1259.200;  -18.133;    0.000;1277.33328
 682.44; 1240.667;  -63.867;    0.000;1304.53329
 682.71; 1239.133;  -35.200;    0.000;1274.33330
 682.98; 1206.200;  -53.000;    0.000;1259.19995
 683.24; 1226.933;  -56.733;    0.000;1283.66668
 683.51; 1161.267;  -48.467;    0.000;1209.73339
 683.78; 1161.333;  -38.467;    0.000;1199.80004
 684.04; 1143.333;  -53.400;    0.000;1196.73338
 684.31; 1167.200;  -62.267;    0.000;1229.46662
 684.58; 1152.933;  -55.800;    0.000;1208.73335
 684.84; 1131.267;  -54.133;    0.000;1185.40006
 685.11; 1130.200;  -64.200;    0.000;1194.39995
 685.38; 1132.933;  -37.000;    0.000;1169.93335
 685.64; 1108.133;  -45.133;    0.000;1153.26664
 685.91; 1089.867;  -56.400;    0.000;1146.26670
 686.17; 1100.067;  -60.733;    0.000;1160.79998
 686.44; 1108.000;  -49.867;    0.000;1157.86666
 686.71; 1050.267;  -52.733;    0.000;1103.00006
 686.97; 1071.667;  -58.733;    0.000;1130.39996
 687.24; 1031.733;  -56.467;    0.000;1088.19994
 687.51; 1054.467;  -67.800;    0.000;1122.26668
 687.77; 1042.933;  -47.467;    0.000;1090.40002
 688.04; 1000.067;  -31.133;    0.000;1031.19998
 688.31; 1025.067;  -49.200;    0.000;1074.26665
 688.57; 1028.800;  -37.867;    0.000;1066.66671
 688.84; 1006.467;  -41.667;    0.000;1048.13334
 689.10;  983.267;  -61.867;    0.000;1045.13333
 689.37;  975.200;  -52.600;    0.000;1027.80001
 689.64; 1030.533;  -71.533;    0.000;1102.06666
 689.90;  954.933;  -48.667;    0.000;1003.60002
 690.17;  965.067;  -66.267;    0.000;1031.33332
 690.44;  938.933;  -61.733;    0.000;1000.66668
 690.70;  964.933;  -34.267;    0.000;999.20002
 690.97;  907.800;  -62.067;    0.000;969.86665
 691.23;  941.267;  -58.867;    0.000;1000.13333
 691.50;  880.867;  -52.333;    0.000;933.19997
 691.77;  895.733;  -51.867;    0.000;947.60000
 692.03;  899.800;  -49.600;    0.000;949.39999
 692.30;  877.533;  -52.667;    0.000;930.19999
 692.56;  839.067;  -55.267;    0.000;894.33332
 692.83;  853.133;  -61.933;    0.000;915.06670
 693.10;  851.067;  -51.400;    0.000;902.46665
 693.36;  863.600;  -35.400;    0.000;898.99998
 693.63;  806.333;  -73.533;    0.000;879.86665
 693.89;  834.400;  -53.000;    0.000;887.40002
 694.16;  808.867;  -44.333;    0.000;853.19997
 694.42;  833.000;  -67.667;    0.000;900.66666
 694.69;  780.933;  -24.933;    0.000;805.86668
 694.96;  840.800;  -21.933;    0.000;862.73332
 695.22;  748.800;  -57.800;    0.000;806.59999
 695.49;  808.933;  -55.133;    0.000;864.06668
 695.75;  757.800;  -61.333;    0.000;819.13332
 696.02;  787.933;  -55.600;    0.000;843.53335
 696.28;  732.133;  -58.733;    0.000;790.86670
 696.55;  743.400;  -68.467;    0.000;811.86669
 696.81;  735.267;  -47.000;    0.000;782.26666
 697.08;  730.133;  -50.133;    0.000;780.26670
 697.34;  729.000;  -48.733;    0.000;777.73333
 697.61;  720.000;  -57.200;    0.000;777.20000
 697.88;  697.200;  -43.800;    0.000;741.00001
 698.14;  660.333;  -59.733;    0.000;720.06665
 698.41;  690.000;  -36.067;    0.000;726.06667
 698.67;  663.933;  -59.600;    0.000;723.53335
 698.94;  623.667;  -46.333;    0.000;670.00002
 699.20;  643.800;  -56.600;    0.000;700.39999
 699.47;  601.733;  -58.933;    0.000;660.66667
 699.73;  621.800;  -47.800;    0.000;669.59999
 700.00;  642.333;  -60.667;    0.000;702.99998
 700.26;  588.733;  -64.867;    0.000;653.60001
 700.53;  598.533;  -46.867;    0.000;645.39999
 700.79;  628.667;  -57.933;    0.000;686.60002
 701.06;  565.133;  -79.733;    0.000;644.86669
 701.32;  578.200;  -52.533;    0.000;630.73335
 701.59;  558.333;  -54.867;    0.000;613.19998
 701.85;  567.733;  -48.667;    0.000;616.40001
 702.12;  538.133;  -71.467;    0.000;609.60003
 702.38;  554.867;  -49.867;    0.000;604.73330
 702.65;  524.533;  -45.133;    0.000;569.66666
 702.91;  523.000;  -34.000;    0.000;557.00000
 703.18;  517.733;  -56.933;    0.000;574.66667
 703.44;  536.933;  -57.600;    0.000;594.53335
 703.71;  488.667;  -60.733;    0.000;549.39999
 703.97;  525.933;  -45.867;    0.000;571.80001
 704.24;  458.267;  -37.933;    0.000;496.20000
 704.50;  465.733;  -78.533;    0.000;544.26667
 704.76;  464.800;  -47.000;    0.000;511.79999
 705.03;  479.600;  -23.400;    0.000;503.00001
 705.29;  419.533;  -56.667;    0.000;476.19999
 705.56;  451.133;  -41.933;    0.000;493.06667
 705.82;  422.533;  -58.200;    0.000;480.73333
 706.09;  420.000;  -40.667;    0.000;460.66667
 706.35;  410.200;  -62.533;    0.000;472.73335
 706.62;  420.533;  -46.667;    0.000;467.19999
 706.88;  429.200;  -50.067;    0.000;479.26668
 707.15;  387.867;  -38.533;    0.000;426.40000
 707.41;  371.133;  -55.600;    0.000;426.73333
 707.67;  391.867;  -58.200;    0.000;450.06667
 707.94;  382.733;  -41.067;    0.000;423.80000
 708.20;  383.800;  -72.667;    0.000;456.46665
 708.47;  354.800;  -53.133;    0.000;407.93332
 708.73;  370.133;  -51.400;    0.000;421.53333
 709.00;  335.800;  -61.867;    0.000;397.66665
 709.26;  377.267;  -45.467;    0.000;422.73333
 709.52;  335.667;  -56.467;    0.000;392.13332
 709.79;  346.933;  -58.467;    0.000;405.39999
 710.05;  333.333;  -70.067;    0.000;403.40001
 710.32;  323.267;  -35.200;    0.000;358.46666
 710.58;  304.733;  -74.333;    0.000;379.06667
 710.84;  310.733;  -55.133;    0.000;365.86667
 711.11;  318.200;  -68.800;    0.000;387.00002
 711.37;  306.000;  -59.533;    0.000;365.53333
 711.64;  298.133;  -56.000;    0.000;354.13333
 711.90;  295.467;  -67.533;    0.000;363.00001
 712.16;  304.800;  -49.267;    0.000;354.06665
 712.43;  299.667;  -50.933;    0.000;350.59999
 712.69;  279.867;  -50.067;    0.000;329.93333
 712.96;  280.400;  -51.800;    0.000;332.19999
 713.22;  245.000;  -63.200;    0.000;308.20000
 713.48;  293.800;  -63.533;    0.000;357.33332
 713.75;  278.333;  -38.133;    0.000;316.46668
 714.01;  258.200;  -67.667;    0.000;325.86668
 714.27;  249.333;  -35.467;    0.000;284.80000
 714.54;  262.667;  -57.333;    0.000;319.99999
 714.80;  248.533;  -70.800;    0.000;319.33334
 715.06;  234.933;  -38.533;    0.000;273.46667
 715.33;  256.200;  -53.600;    0.000;309.80001
 715.59;  226.133;  -53.733;    0.000;279.86666
 715.86;  243.000;  -56.733;    0.000;299.73333
 716.12;  230.867;  -54.933;    0.000;285.80000
 716.38;  229.267;  -57.067;    0.000;286.33333
 716.65;  222.533;  -31.267;    0.000;253.80001
 716.91;  212.667;  -58.800;    0.000;271.46667
 717.17;  235.333;  -36.200;    0.000;271.53333
 717.44;  224.867;  -48.867;    0.000;273.73333
 717.70;  224.667;  -66.933;    0.000;291.60001
 717.96;  219.600;  -48.133;    0.000;267.73334
 718.23;  230.667;  -45.800;    0.000;276.46667
 718.49;  204.267;  -53.467;    0.000;257.73333
 718.75;  236.067;  -55.133;    0.000;291.20000
 719.02;  215.333;  -50.267;    0.000;265.59999
 719.28;  230.933;  -61.000;    0.000;291.93333
 719.54;  191.667;  -65.800;    0.000;257.46667
 719.80;  235.000;  -53.467;    0.000;288.46667
 720.07;  204.600;  -59.800;    0.000;264.40001
 720.33;  202.000;  -62.600;    0.000;264.60000
 720.59;  208.067;  -62.733;    0.000;270.80000
 720.86;  209.667;  -65.933;    0.000;275.60001
 721.12;  196.333;  -55.867;    0.000;252.19999
 721.38;  211.133;  -54.200;    0.000;265.33333
 721.65;  193.133;  -69.667;    0.000;262.80000
 721.91;  215.267;  -32.600;    0.000;247.86666
 722.17;  195.800;  -58.000;    0.000;253.80000
 722.43;  188.667;  -38.733;    0.000;227.40001
 722.70;  203.933;  -70.533;    0.000;274.46667
 722.96;  214.667;  -50.933;    0.000;265.60001
 723.22;  193.800;  -62.267;    0.000;256.06667
 723.48;  179.133;  -67.667;    0.000;246.80000
 723.75;  171.333;  -54.333;    0.000;225.66666
 724.01;  184.000;  -39.933;    0.000;223.93333
 724.27;  183.600;  -56.933;    0.000;240.53334
 724.54;  224.933;  -45.867;    0.000;270.80000
 724.80;  171.067;  -68.200;    0.000;239.26666
 725.06;  190.200;  -66.267;    0.000;256.46667
 725.32;  188.667;  -60.400;    0.000;249.06667
 725.59;  175.333;  -68.467;    0.000;243.80000
 725.85;  175.800;  -67.067;    0.000;242.86667
 726.11;  196.267;  -63.133;    0.000;259.40000
 726.37;  200.133;  -52.333;    0.000;252.46666
 726.64;  209.133;  -35.000;    0.000;244.13333
 726.90;  181.667;  -57.400;    0.000;239.06667
 727.16;  169.933;  -63.400;    0.000;233.33334
 727.42;  179.600;  -73.467;    0.000;253.06667
 727.68;  181.800;  -83.733;    0.000;265.53333
 727.95;  172.667;  -76.867;    0.000;249.53334
 728.21;  203.200;  -50.200;    0.000;253.40000
 728.47;  167.600;  -52.600;    0.000;220.20000
 728.73;  182.533;  -20.467;    0.000;203.00001
 729.00;  176.867;  -45.000;    0.000;221.86667
 729.26;  202.333;  -46.400;    0.000;248.73333
 729.52;  167.067;  -76.467;    0.000;243.53333
 729.78;  175.733;  -80.933;    0.000;256.66667
 730.04;  175.000;  -49.000;    0.000;224.00000
 730.31;  175.000;  -60.800;    0.000;235.80000
 730.57;  147.067;  -68.133;    0.000;215.20000
 730.83;  172.533;  -71.267;    0.000;243.80001
 731.09;  188.933;  -51.733;    0.000;240.66667
 731.35;  161.267;  -61.933;    0.000;223.20000
 731.62;  167.067;  -74.267;    0.000;241.33334
 731.88;  178.733;  -64.133;    0.000;242.86667
 732.14;  156.400;  -70.533;    0.000;226.93333
 732.40;  166.467;  -56.533;    0.000;222.99999
 732.66;  148.200;  -58.267;    0.000;206.46666
 732.92;  170.933;  -53.133;    0.000;224.06667
 733.19;  143.000;  -58.467;    0.000;201.46667
 733.45;  176.733;  -57.200;    0.000;233.93334
 733.71;  166.600;  -70.667;    0.000;237.26667
 733.97;  205.533;  -33.867;    0.000;239.40001
 734.23;  145.667;  -62.600;    0.000;208.26667
 734.49;  148.733;  -77.800;    0.000;226.53334
 734.76;  154.333;  -70.667;    0.000;224.99999
 735.02;  153.467;  -78.800;    0.000;232.26666
 735.28;  157.600;  -48.400;    0.000;206.00001
 735.54;  159.733;  -57.867;    0.000;217.60000
 735.80;  134.667;  -54.200;    0.000;188.86667
 736.06;  153.733;  -31.733;    0.000;185.46667
 736.32;  136.267;  -73.200;    0.000;209.46666
 736.59;  153.200;  -63.933;    0.000;217.13333
 736.85;  151.933;  -61.067;    0.000;213.00000
 737.11;  142.133;  -62.533;    0.000;204.66666
 737.37;  129.733;  -63.400;    0.000;193.13334
 737.63;  160.400;  -73.667;    0.000;234.06666
 737.89;  129.267;  -50.733;    0.000;180.00000
 738.15;  149.333;  -45.533;    0.000;194.86666
 738.41;  122.533;  -66.000;    0.000;188.53333
 738.67;  142.467;  -60.533;    0.000;202.99999
 738.94;  114.267;  -71.133;    0.000;185.40000
 739.20;  134.467;  -52.867;    0.000;187.33332
 739.46;  141.667;  -52.067;    0.000;193.73334
 739.72;  116.600;  -60.133;    0.000;176.73333
 739.98;  111.600;  -55.933;    0.000;167.53333
 740.24;  135.267;  -63.867;    0.000;199.13333
 740.50;  112.133;  -62.133;    0.000;174.26667
 740.76;  107.333;  -58.400;    0.000;165.73334
 741.02;  118.067;  -57.667;    0.000;175.73333
 741.28;  118.267;  -65.667;    0.000;183.93333
 741.54;  106.667;  -48.733;    0.000;155.40000
 741.81;  143.667;  -46.200;    0.000;189.86667
 742.07;  110.533;  -58.133;    0.000;168.66667
 742.33;  115.800;  -46.067;    0.000;161.86667
 742.59;   91.267;  -50.667;    0.000;141.93334
 742.85;  100.600;  -48.600;    0.000;149.20000
 743.11;   97.600;  -88.667;    0.000;186.26666
 743.37;  100.667;  -60.000;    0.000;160.66666
 743.63;   86.867;  -64.733;    0.000;151.60000
 743.89;  114.867;  -64.600;    0.000;179.46667
 744.15;   97.867;  -51.400;    0.000;149.26667
 744.41;   93.267;  -70.933;    0.000;164.20000
 744.67;  100.133;  -56.000;    0.000;156.13333
 744.93;   70.533;  -47.333;    0.000;117.86666
 745.19;   73.333;  -38.867;    0.000;112.20000
 745.45;   94.133;  -42.000;    0.000;136.13333
 745.71;   99.667;  -71.067;    0.000;170.73333
 745.97;  108.200;  -42.933;    0.000;151.13333
 746.23;   68.600;  -75.733;    0.000;144.33333
 746.49;   63.933;  -81.333;    0.000;145.26667
 746.75;   76.133;  -49.400;    0.000;125.53333
 747.02;   88.333;  -60.400;    0.000;148.73334
 747.28;   82.667;  -66.067;    0.000;148.73333
 747.54;   90.067;  -69.533;    0.000;159.60000
 747.80;   61.600;  -69.267;    0.000;130.86667
 748.06;   66.133;  -59.400;    0.000;125.53333
 748.32;   70.933;  -79.533;    0.000;150.46667
 748.58;   81.067;  -50.533;    0.000;131.60000
 748.84;   64.067;  -68.333;    0.000;132.40000
 749.10;  184.933;   40.067;    0.000;144.86667
 749.36;   88.667;  -54.800;    0.000;143.46666
 749.62;   88.133;  -76.400;    0.000;164.53333
 749.88;   67.733;  -60.200;    0.000;127.93333
 750.14;   71.800;  -52.933;    0.000;124.73334
 750.40;   62.733;  -66.867;    0.000;129.60000
 750.66;   87.400;  -42.267;    0.000;129.66667
 750.91;   65.800;  -65.000;    0.000;130.80000
 751.17;   85.133;  -47.800;    0.000;132.93333
 751.43;   42.733;  -63.200;    0.000;105.93333
 751.69;   72.933;  -49.200;    0.000;122.13334
 751.95;   51.267;  -55.067;    0.000;106.33333
 752.21;   54.867;  -60.867;    0.000;115.73333
 752.47;   58.600;  -65.267;    0.000;123.86667
 752.73;   44.067;  -59.400;    0.000;103.46667
 752.99;   60.600;  -65.400;    0.000;126.00000
 753.25;   49.200;  -73.400;    0.000;122.60000
 753.51;   42.200;  -59.533;    0.000;101.73333
 753.77;   29.933;  -50.333;    0.000;80.26666
 754.03;   47.133;  -60.267;    0.000;107.40000
 754.29;   74.067;  -66.800;    0.000;140.86667
 754.55;   31.400;  -50.267;    0.000;81.66667
 754.81;   45.800;  -63.000;    0.000;108.80000
 755.07;   23.067;  -47.200;    0.000;70.26667
 755.33;   49.867;  -67.200;    0.000;117.06666
 755.59;   43.600;  -77.200;    0.000;120.80000
 755.85;   36.000;  -57.800;    0.000;93.80000
 756.10;   39.533;  -52.867;    0.000;92.40000
 756.36;   41.067;  -75.333;    0.000;116.40000
 756.62;   33.733;  -74.600;    0.000;108.33333
 756.88;   44.333;  -34.600;    0.000;78.93333
 757.14;   17.733;  -54.800;    0.000;72.53333
 757.40;   53.867;  -46.000;    0.000;99.86666
 757.66;   46.933;  -63.133;    0.000;110.06667
 757.92;   35.800;  -58.133;    0.000;93.93333
 758.18;   19.533;  -64.200;    0.000;83.73333
 758.44;   38.067;  -61.867;    0.000;99.93333
 758.70;   27.600;  -54.267;    0.000;81.86667
 758.95;   23.600;  -64.600;    0.000;88.20000
 759.21;  -10.400;  -65.467;    0.000;55.06667
 759.47;   61.933;  -47.933;    0.000;109.86667
 759.73;   20.600;  -52.200;    0.000;72.80000
 759.99;   27.000;  -67.200;    0.000;94.20000
 760.25;   16.667;  -85.533;    0.000;102.20000
 760.51;   30.333;  -56.267;    0.000;86.60000
 760.77;   -0.067;  -59.467;    0.000;59.40000
 761.02;   33.867;  -65.533;    0.000;99.40000
 761.28;   -4.467;  -75.000;    0.000;70.53333
 761.54;   17.267;  -67.067;    0.000;84.33333
 761.80;   -8.067;  -59.933;    0.000;51.86667
 762.06;   19.533;  -33.267;    0.000;52.80000
 762.32;   -1.600;  -89.467;    0.000;87.86667
 762.58;   13.267;  -63.533;    0.000;76.80000
 762.83;   31.067;  -54.533;    0.000;85.60000
 763.09;   25.133;  -56.533;    0.000;81.66667
 763.35;   10.200;  -54.800;    0.000;65.00000
 763.61;   35.733;  -50.467;    0.000;86.20000
 763.87;    9.400;  -61.667;    0.000;71.06667
 764.13;   12.133;  -69.067;    0.000;81.20000
 764.38;    3.533;  -65.867;    0.000;69.40000
 764.64;   10.267;  -72.200;    0.000;82.46666
 764.90;    5.267;  -88.533;    0.000;93.80000
 765.16;   19.600;  -62.133;    0.000;81.73334
 765.42;    7.533;  -46.000;    0.000;53.53333
 765.68;   -0.800;  -65.800;    0.000;65.00000
 765.93;   -5.400;  -66.800;    0.000;61.40000
 766.19;   25.800;  -62.400;    0.000;88.20000
 766.45;  -27.733;  -74.533;    0.000;46.80000
 766.71;    3.533;  -51.667;    0.000;55.20000
 766.97;   -2.000;  -63.400;    0.000;61.40000
 767.22;    4.333;  -78.733;    0.000;83.06666
 767.48;  -13.933;  -63.733;    0.000;49.80000
 767.74;    4.067;  -74.067;    0.000;78.13333
 768.00;  -11.667;  -57.333;    0.000;45.66667
 768.26;   17.667;  -68.067;    0.000;85.73333
 768.51;   -3.000;  -64.333;    0.000;61.33334
 768.77;   22.667;  -49.533;    0.000;72.20000
 769.03;   -0.667;  -83.267;    0.000;82.60000
 769.29;   -5.133;  -65.467;    0.000;60.33333
 769.54;   -8.400;  -74.467;    0.000;66.06667
 769.80;    2.533;  -68.867;    0.000;71.40000
 770.06;  -14.200;  -57.933;    0.000;43.73333
 770.32;  -11.200;  -61.267;    0.000;50.06667
 770.57;   -2.200;  -60.933;    0.000;58.73333
 770.83;    7.200;  -63.000;    0.000;70.20000
 771.09;   -7.400;  -81.133;    0.000;73.73333
 771.35;   -7.067;  -61.333;    0.000;54.26667
 771.61;  -19.933;  -83.200;    0.000;63.26666
 771.86;   17.533;  -65.400;    0.000;82.93333
 772.12;   -8.533;  -74.067;    0.000;65.53333
 772.38;   -9.533;  -61.333;    0.000;51.80000
 772.63;  -24.333;  -78.867;    0.000;54.53333
 772.89;    5.067;  -62.933;    0.000;68.00000
 773.15;  -14.800;  -81.667;    0.000;66.86666
 773.41;    5.733;  -64.867;    0.000;70.60000
 773.66;  -16.800;  -80.733;    0.000;63.93333
 773.92;  -18.067;  -68.000;    0.000;49.93333
 774.18;    2.800;  -76.400;    0.000;79.20000
 774.44;  -16.533;  -71.467;    0.000;54.93333
 774.69;   -7.267;  -74.933;    0.000;67.66667
 774.95;   18.200;  -64.933;    0.000;83.13334
 775.21;   -1.733;  -53.200;    0.000;51.46667
 775.46;  -21.800;  -74.600;    0.000;52.80000
 775.72;  -22.000;  -72.733;    0.000;50.73333
 775.98;    9.133;  -45.933;    0.000;55.06667
 776.24;  -17.133;  -90.733;    0.000;73.60000
 776.49;    1.867;  -83.400;    0.000;85.26667
 776.75;   -5.000;  -61.200;    0.000;56.20000
 777.01;   -3.733;  -78.733;    0.000;75.00000
 777.26;  -23.533;  -65.800;    0.000;42.26667
 777.52;   -7.133;  -63.133;    0.000;56.00000
 777.78;  -23.867;  -53.933;    0.000;30.06667
 778.03;    9.000;  -60.200;    0.000;69.20000
 778.29;  -26.267;  -71.733;    0.000;45.46666
 778.55;  -13.133;  -67.733;    0.000;54.60000
 778.80;  -12.600;  -77.000;    0.000;64.40000
 779.06;  -27.333;  -71.400;    0.000;44.06667
 779.32;  -25.733;  -68.067;    0.000;42.33333
 779.57;  -27.333;  -83.600;    0.000;56.26666
 779.83;  -28.800;  -69.533;    0.000;40.73333
 780.09;  -16.867;  -68.267;    0.000;51.40000
 780.34;  -25.067;  -65.200;    0.000;40.13333
 780.60;  -11.733;  -37.000;    0.000;25.26667
 780.86;   -4.800;  -63.200;    0.000;58.40000
 781.11;  -22.600;  -62.667;    0.000;40.06667
 781.37;  -19.133;  -65.133;    0.000;46.00000
 781.63;  -17.067;  -57.733;    0.000;40.66667
 781.88;  -28.800;  -61.333;    0.000;32.53333
 782.14;   -8.467;  -46.600;    0.000;38.13333
 782.39;  -36.133;  -60.067;    0.000;23.93333
 782.65;  -10.400;  -53.667;    0.000;43.26667
 782.91;  -28.067;  -52.267;    0.000;24.20000
 783.16;   -3.933;  -68.800;    0.000;64.86667
 783.42;  -34.533;  -69.600;    0.000;35.06667
 783.67;  -16.733;  -68.467;    0.000;51.73333
 783.93;  -44.067;  -86.867;    0.000;42.80000
 784.19;  -38.800;  -59.600;    0.000;20.80000
 784.44;  -13.733;  -56.933;    0.000;43.20000
 784.70;    1.667;  -64.933;    0.000;66.60000
 784.96;  -35.133;  -66.867;    0.000;31.73333
 785.21;  -25.333;  -82.800;    0.000;57.46667
 785.47;   -2.533;  -64.800;    0.000;62.26667
 785.72;  -27.733;  -63.733;    0.000;36.00000
 785.98;  -42.800;  -62.400;    0.000;19.60000
 786.23;  -27.667;  -69.267;    0.000;41.60000
 786.49;  -53.533;  -81.600;    0.000;28.06667
 786.75;  -29.600;  -66.333;    0.000;36.73334
 787.00;  -56.067;  -48.533;    0.000;-7.53333
 787.26;  -31.800;  -73.800;    0.000;42.00000
 787.51;  -55.667;  -71.333;    0.000;15.66667
 787.77;  -14.867;  -50.067;    0.000;35.20000
 788.02;  -16.533;  -56.600;    0.000;40.06667
 788.28;  -28.333;  -69.733;    0.000;41.40000
 788.54;  -33.600;  -69.267;    0.000;35.66667
 788.79;   -8.400;  -42.400;    0.000;34.00000
 789.05;  -39.467;  -84.600;    0.000;45.13333
 789.30;  -16.200;  -57.467;    0.000;41.26667
 789.56;  -36.267;  -85.133;    0.000;48.86666
 789.81;  -29.800;  -69.400;    0.000;39.60000
 790.07;  -55.267;  -63.400;    0.000; 8.13334
 790.32;  -43.133; -103.600;    0.000;60.46666
 790.58;  -36.200;  -69.133;    0.000;32.93333
 790.83;  -24.333;  -61.667;    0.000;37.33333
 791.09;  -50.733;  -83.333;    0.000;32.60000
 791.35;  -21.867;  -82.400;    0.000;60.53333
 791.60;  -24.400;  -63.867;    0.000;39.46667
 791.86;  -22.533;  -56.133;    0.000;33.60000
 792.11;  -35.267;  -50.400;    0.000;15.13334
 792.37;  -24.467;  -62.133;    0.000;37.66667
 792.62;  -27.600;  -63.867;    0.000;36.26666
 792.88;  -30.733;  -65.600;    0.000;34.86666
 793.13;  -36.200;  -80.333;    0.000;44.13334
 793.39;  -48.067;  -62.533;    0.000;14.46667
 793.64;  -30.600;  -81.467;    0.000;50.86667
 793.90;  -39.800;  -72.067;    0.000;32.26667
 794.15;  -27.133;  -72.133;    0.000;45.00000
 794.41;  -21.133;  -68.667;    0.000;47.53333
 794.66;  -23.533;  -76.733;    0.000;53.20000
 794.92;  -43.200;  -51.867;    0.000; 8.66666
 795.17;  -52.000;  -73.400;    0.000;21.40000
 795.43;  -14.933;  -77.667;    0.000;62.73333
 795.68;  -33.467;  -64.200;    0.000;30.73333
 795.94;  -36.267;  -68.400;    0.000;32.13334
 796.19;  -42.267;  -69.200;    0.000;26.93333
 796.44;  -37.933;  -60.600;    0.000;22.66666
 796.70;  -34.133;  -56.667;    0.000;22.53333
 796.95;  -34.800;  -67.467;    0.000;32.66667
 797.21;  -32.067;  -76.867;    0.000;44.80000
 797.46;  -27.867;  -64.733;    0.000;36.86666
 797.72;  -34.333;  -68.533;    0.000;34.20000
 797.97;  -42.267;  -71.933;    0.000;29.66667
 798.23;  -35.067;  -68.333;    0.000;33.26667
 798.48;  -30.333;  -74.600;    0.000;44.26666
 798.74;  -35.867;  -88.200;    0.000;52.33333
 798.99;  -49.067;  -81.733;    0.000;32.66666
 799.24;  -53.333;  -77.733;    0.000;24.40000
 799.50;  -38.067;  -74.600;    0.000;36.53333
 799.75;  -47.333;  -66.000;    0.000;18.66667
 800.01;  -32.600;  -74.333;    0.000;41.73334
 800.26;  -54.667;  -78.000;    0.000;23.33333
 800.52;  -36.400;  -85.667;    0.000;49.26666
 800.77;  -51.933;  -75.933;    0.000;24.00000
 801.02;  -52.133;  -83.000;    0.000;30.86666
 801.28;  -52.267; -101.667;    0.000;49.40000
 801.53;  -35.933;  -58.800;    0.000;22.86666
 801.79;  -52.133;  -69.533;    0.000;17.40000
 802.04;  -32.533;  -64.867;    0.000;32.33334
 802.29;  -30.933;  -84.667;    0.000;53.73333
 802.55;  -28.200;  -71.133;    0.000;42.93333
 802.80;  -31.067;  -61.600;    0.000;30.53333
 803.06;  -32.067;  -60.267;    0.000;28.20000
 803.31;  -33.933;  -78.267;    0.000;44.33334
 803.56;  -33.200;  -57.400;    0.000;24.20000
 803.82;  -50.933;  -80.667;    0.000;29.73333
 804.07;  -33.533;  -55.067;    0.000;21.53333
 804.32;  -74.133;  -68.667;    0.000;-5.46667
 804.58;  -32.867;  -89.067;    0.000;56.20000
 804.83;  -38.733;  -89.400;    0.000;50.66667
 805.09;  -18.133;  -64.467;    0.000;46.33333
 805.34;  -46.400;  -66.933;    0.000;20.53333
 805.59;  -36.267;  -56.267;    0.000;20.00000
 805.85;  -53.667;  -63.667;    0.000;10.00000
 806.10;  -56.600;  -57.067;    0.000; 0.46667
 806.35;  -58.000;  -62.933;    0.000; 4.93333
 806.61;  -37.933;  -76.933;    0.000;39.00000
 806.86;  -47.467;  -92.800;    0.000;45.33334
 807.11;  -31.667;  -68.933;    0.000;37.26667
 807.37;  -18.667;  -47.867;    0.000;29.20000
 807.62;  -32.200;  -82.333;    0.000;50.13334
 807.87;  -37.800;  -59.600;    0.000;21.80000
 808.13;  -46.800;  -69.400;    0.000;22.60000
 808.38;  -56.000;  -70.200;    0.000;14.20000
 808.63;  -21.867;  -78.867;    0.000;57.00000
 808.89;  -53.867;  -77.533;    0.000;23.66667
 809.14;  -29.267;  -78.000;    0.000;48.73333
 809.39;  -53.667;  -71.600;    0.000;17.93333
 809.65;  -36.867;  -59.800;    0.000;22.93333
 809.90;  -47.600;  -57.000;    0.000; 9.40000
 810.15;  -32.000;  -86.600;    0.000;54.60000
 810.41;  -53.200;  -78.467;    0.000;25.26667
 810.66;  -35.400;  -68.533;    0.000;33.13333
 810.91;  -37.400;  -62.933;    0.000;25.53333
 811.16;  -37.733;  -82.533;    0.000;44.80000
 811.42;  -58.333;  -70.533;    0.000;12.20000
 811.67;  -45.067;  -66.733;    0.000;21.66666
 811.92;  -84.400;  -86.133;    0.000; 1.73333
 812.18;  -40.067;  -67.067;    0.000;27.00000
 812.43;  -57.800;  -87.867;    0.000;30.06667
 812.68;  -44.400;  -80.467;    0.000;36.06667
 812.93;  -47.667;  -75.067;    0.000;27.40000
 813.19;  -15.600;  -24.667;    0.000; 9.06667
 813.44;  -62.933;  -87.467;    0.000;24.53333
 813.69;  -26.200;  -67.867;    0.000;41.66667
 813.95;  -42.467;  -72.800;    0.000;30.33334
 814.20;  -39.333;  -64.267;    0.000;24.93334
 814.45;  -52.267;  -88.133;    0.000;35.86666
 814.70;  -47.867;  -73.733;    0.000;25.86666
 814.96;  -64.467;  -85.400;    0.000;20.93333
 815.21;  -61.333;  -80.733;    0.000;19.40000
 815.46;  -52.333;  -80.333;    0.000;28.00000
 815.71;  -46.800;  -58.667;    0.000;11.86667
 815.96;  -50.333;  -64.000;    0.000;13.66667
 816.22;  -62.533;  -81.467;    0.000;18.93333
 816.47;  -59.267;  -70.733;    0.000;11.46666
 816.72;  -44.067;  -81.733;    0.000;37.66666
 816.97;  -42.267;  -61.333;    0.000;19.06667
 817.23;  -35.200;  -71.600;    0.000;36.40000
 817.48;  -56.533;  -72.533;    0.000;16.00000
 817.73;  -29.533;  -74.467;    0.000;44.93333
 817.98;  -45.133;  -69.667;    0.000;24.53333
 818.23;  -63.667;  -54.667;    0.000;-9.00000
 818.49;  -50.533;  -83.600;    0.000;33.06667
 818.74;  -35.067;  -62.733;    0.000;27.66667
 818.99;  -67.067;  -89.667;    0.000;22.60000
 819.24;  -30.600;  -62.067;    0.000;31.46667
 819.50;  -62.200;  -71.600;    0.000; 9.40000
 819.75;  -41.000;  -65.667;    0.000;24.66666
 820.00;  -27.400;  -59.067;    0.000;31.66667
 820.25;  -49.867;  -70.467;    0.000;20.60000
 820.50;  -80.200;  -83.933;    0.000; 3.73334
 820.75;  -39.000;  -48.400;    0.000; 9.40000
 821.01;  -53.667;  -73.533;    0.000;19.86666
 821.26;  -47.867;  -70.133;    0.000;22.26667
 821.51;  -70.867;  -76.200;    0.000; 5.33333
 821.76;  -45.333;  -92.000;    0.000;46.66667
 822.01;  -42.600;  -63.133;    0.000;20.53334
 822.26;  -52.467;  -64.600;    0.000;12.13333
 822.52;  -45.467;  -70.400;    0.000;24.93333
 822.77;  -41.600;  -69.733;    0.000;28.13333
 823.02;  -51.133;  -64.267;    0.000;13.13334
 823.27;  -51.867;  -72.400;    0.000;20.53334
 823.52;  -68.200;  -87.267;    0.000;19.06667
 823.77;  -60.667;  -66.067;    0.000; 5.40000
 824.03;  -57.800;  -56.733;    0.000;-1.06667
 824.28;  -49.467;  -74.600;    0.000;25.13333
 824.53;  -53.133;  -67.933;    0.000;14.80000
 824.78;  -54.533;  -69.600;    0.000;15.06667
 825.03;  -48.733;  -83.533;    0.000;34.80000
 825.28;  -42.933;  -68.467;    0.000;25.53333
 825.53;  -64.933;  -68.867;    0.000; 3.93333
 825.78;  -46.267;  -77.333;    0.000;31.06667
 826.04;  -53.867;  -91.467;    0.000;37.60000
 826.29;  -52.467;  -86.733;    0.000;34.26666
 826.54;  -54.600;  -71.600;    0.000;17.00000
 826.79;  -26.000;  -63.733;    0.000;37.73333
 827.04;  -65.333;  -84.333;    0.000;19.00000
 827.29;  -36.667;  -56.933;    0.000;20.26667
 827.54;  -66.333;  -52.867;    0.000;-13.46667
 827.79;  -43.800;  -70.333;    0.000;26.53334
 828.04;  -34.133;  -62.933;    0.000;28.80000
 828.29;  -47.067;  -69.600;    0.000;22.53333
 828.55;  -50.800;  -87.533;    0.000;36.73333
 828.80;  -33.267;  -68.333;    0.000;35.06667
 829.05;  -67.800;  -71.667;    0.000; 3.86666
 829.30;  -54.933;  -83.333;    0.000;28.40000
 829.55;  -80.600;  -75.933;    0.000;-4.66666
 829.80;  -37.733;  -64.200;    0.000;26.46666
 830.05;  -57.533;  -76.400;    0.000;18.86667
 830.30;  -49.467;  -73.067;    0.000;23.60000
 830.55;  -53.667;  -69.733;    0.000;16.06666
 830.80;  -42.133;  -86.867;    0.000;44.73333
 831.05;  -60.267;  -75.267;    0.000;15.00000
 831.30;  -31.200;  -59.467;    0.000;28.26667
 831.55;  -56.667;  -70.867;    0.000;14.20000
 831.80;  -52.133;  -60.733;    0.000; 8.60000
 832.05;  -37.400;  -69.333;    0.000;31.93333
 832.30;  -15.533;  -57.267;    0.000;41.73333
 832.56;  -56.600; -102.267;    0.000;45.66667
 832.81;  -58.000;  -71.533;    0.000;13.53333
 833.06;  -49.800;  -53.533;    0.000; 3.73333
 833.31;  -45.200; -111.533;    0.000;66.33333
 833.56;  -54.000;  -66.267;    0.000;12.26667
 833.81;  -32.800;  -89.600;    0.000;56.80000
 834.06;  -46.600;  -59.067;    0.000;12.46667
 834.31;  -49.867;  -80.667;    0.000;30.80000
 834.56;  -40.200;  -78.333;    0.000;38.13334
 834.81;  -63.933;  -62.800;    0.000;-1.13334
 835.06;  -57.200;  -76.800;    0.000;19.60000
 835.31;  -42.267;  -70.200;    0.000;27.93333
 835.56;  -63.800;  -61.333;    0.000;-2.46667
 835.81;  -35.067;  -74.400;    0.000;39.33334
 836.06;  -51.267;  -70.733;    0.000;19.46666
 836.31;  -58.667;  -75.733;    0.000;17.06666
 836.56;  -78.000;  -61.533;    0.000;-16.46667
 836.81;  -51.733;  -85.533;    0.000;33.80000
 837.06;  -46.533;  -67.867;    0.000;21.33334
 837.31;  -42.733;  -89.933;    0.000;47.20000
 837.56;  -72.600;  -90.000;    0.000;17.40000
 837.81;  -58.267;  -79.533;    0.000;21.26667
 838.06;  -62.867;  -71.533;    0.000; 8.66667
 838.31;  -53.467;  -78.800;    0.000;25.33334
 838.56;  -86.133;  -87.600;    0.000; 1.46667
 838.80;  -30.000;  -66.667;    0.000;36.66666
 839.05;  -59.733;  -74.467;    0.000;14.73333
 839.30;  -51.333;  -77.867;    0.000;26.53334
 839.55;  -70.733;  -90.333;    0.000;19.60001
 839.80;  -45.667;  -77.133;    0.000;31.46666
 840.05;  -67.000;  -59.267;    0.000;-7.73333
 840.30;  -21.000;  -67.933;    0.000;46.93333
 840.55;  -59.333;  -76.133;    0.000;16.80000
 840.80;  -58.533;  -58.333;    0.000;-0.20000
 841.05;  -53.867;  -72.533;    0.000;18.66667
 841.30;  -37.133;  -85.533;    0.000;48.40000
 841.55;  -66.333;  -85.200;    0.000;18.86666
 841.80;  -44.533;  -68.733;    0.000;24.20000
 842.05;  -73.333;  -86.733;    0.000;13.39999
 842.30;  -58.400;  -84.200;    0.000;25.80000
 842.55;  -79.467;  -53.200;    0.000;-26.26667
 842.79;  -69.200;  -88.600;    0.000;19.40000
 843.04;  -62.600;  -59.667;    0.000;-2.93333
 843.29;  -69.267;  -63.867;    0.000;-5.40001
 843.54;  -45.200;  -70.400;    0.000;25.20000
 843.79;  -59.467;  -78.200;    0.000;18.73333
 844.04;  -53.067;  -67.133;    0.000;14.06667
 844.29;  -47.200;  -61.333;    0.000;14.13333
 844.54;  -56.400;  -72.067;    0.000;15.66666
 844.79;  -64.067;  -76.467;    0.000;12.40000
 845.04;  -57.400;  -74.200;    0.000;16.80000
 845.28;  -48.933;  -86.867;    0.000;37.93333
 845.53;  -73.400;  -81.933;    0.000; 8.53333
 845.78;  -33.933;  -61.400;    0.000;27.46667
 846.03;  -70.867;  -65.400;    0.000;-5.46667
 846.28;  -76.267;  -75.400;    0.000;-0.86667
 846.53;  -63.533;  -60.333;    0.000;-3.20000
 846.78;  -57.200;  -72.400;    0.000;15.20000
 847.02;  -52.067;  -75.400;    0.000;23.33334
 847.27;  -40.733;  -81.467;    0.000;40.73333
 847.52;  -58.733;  -89.867;    0.000;31.13334
 847.77;  -68.667;  -76.533;    0.000; 7.86667
 848.02;  -78.400;  -92.067;    0.000;13.66666
 848.27;  -52.600;  -69.133;    0.000;16.53333
 848.52;  -60.733;  -87.733;    0.000;27.00000
 848.76;  -45.067;  -70.733;    0.000;25.66666
 849.01;  -70.800;  -71.533;    0.000; 0.73333
 849.26;  -66.267;  -81.667;    0.000;15.39999
 849.51;  -52.867;  -78.867;    0.000;26.00000
 849.76;  -53.933;  -80.067;    0.000;26.13333
 850.01;  -66.667;  -86.267;    0.000;19.60001
 850.25;  -38.133;  -74.067;    0.000;35.93333
 850.50;  -48.867;  -73.533;    0.000;24.66667
 850.75;  -42.467;  -71.400;    0.000;28.93333
 851.00;  -66.267;  -85.600;    0.000;19.33333
 851.25;  -56.467;  -72.333;    0.000;15.86667
 851.49;  -73.800;  -75.200;    0.000; 1.39999
 851.74;  -61.733;  -65.933;    0.000; 4.20000
 851.99;  -59.600;  -88.667;    0.000;29.06667
 852.24;  -64.533;  -57.333;    0.000;-7.20000
 852.49;  -63.133;  -90.000;    0.000;26.86666
 852.73;  -67.533;  -85.333;    0.000;17.80000
 852.98;  -67.400;  -84.133;    0.000;16.73333
 853.23;  -68.933;  -70.533;    0.000; 1.60000
 853.48;  -63.267;  -68.067;    0.000; 4.80000
 853.73;  -54.333;  -81.467;    0.000;27.13334
 853.97;  -72.467;  -71.733;    0.000;-0.73334
 854.22;  -54.200;  -76.867;    0.000;22.66667
 854.47;  -82.200;  -81.467;    0.000;-0.73333
 854.72;  -48.533;  -51.200;    0.000; 2.66667
 854.96;  -72.867;  -77.600;    0.000; 4.73333
 855.21;  -49.200;  -41.133;    0.000;-8.06667
 855.46;  -63.733;  -43.267;    0.000;-20.46667
 855.71;  -48.933;  -74.067;    0.000;25.13333
 855.95;  -83.600;  -68.800;    0.000;-14.80000
 856.20;  -53.733;  -74.267;    0.000;20.53334
 856.45;  -72.533;  -75.800;    0.000; 3.26667
 856.70;  -54.733;  -70.200;    0.000;15.46666
 856.94;  -66.133;  -84.733;    0.000;18.60000
 857.19;  -69.400;  -60.533;    0.000;-8.86667
 857.44;  -54.200;  -81.667;    0.000;27.46666
 857.69;  -64.533;  -57.800;    0.000;-6.73333
 857.93;  -71.533;  -75.133;    0.000; 3.60000
 858.18;  -50.800;  -61.000;    0.000;10.20000
 858.43;  -66.733;  -87.067;    0.000;20.33334
 858.67;  -47.333;  -57.133;    0.000; 9.80000
 858.92;  -50.400;  -69.667;    0.000;19.26666
 859.17;  -26.600;  -38.067;    0.000;11.46667
 859.42;  -75.000;  -86.667;    0.000;11.66666
 859.66;  -44.067;  -94.467;    0.000;50.40000
 859.91;  -60.933;  -87.200;    0.000;26.26666
 860.16;  -55.733;  -85.800;    0.000;30.06667
 860.40;  -72.133;  -62.867;    0.000;-9.26667
 860.65;  -60.400;  -78.800;    0.000;18.40000
 860.90;  -68.933;  -75.267;    0.000; 6.33334
 861.14;  -55.600;  -71.733;    0.000;16.13333
 861.39;  -84.133;  -79.933;    0.000;-4.20000
 861.64;  -48.733;  -79.067;    0.000;30.33333
 861.88;  -87.600;  -71.200;    0.000;-16.40000
 862.13;  -65.200;  -64.000;    0.000;-1.20000
 862.38;  -83.067;  -97.267;    0.000;14.20000
 862.62;  -47.067;  -82.400;    0.000;35.33334
 862.87;  -78.267;  -74.133;    0.000;-4.13334
 863.12;  -51.533;  -60.467;    0.000; 8.93333
 863.36;  -65.333;  -95.667;    0.000;30.33333
 863.61;  -48.267;  -74.333;    0.000;26.06667
 863.86;  -54.733;  -88.600;    0.000;33.86666
 864.10;  -57.067;  -80.733;    0.000;23.66666
 864.35;  -57.733;  -83.067;    0.000;25.33333
 864.60;  -59.133;  -73.067;    0.000;13.93333
 864.84;  -71.800;  -63.667;    0.000;-8.13334
 865.09;  -58.533;  -83.133;    0.000;24.60000
 865.33;  -91.000;  -63.133;    0.000;-27.86666
 865.58;  -57.867;  -73.467;    0.000;15.60000
 865.83;  -84.600;  -67.333;    0.000;-17.26666
 866.07;  -78.333;  -83.133;    0.000; 4.80000
 866.32;  -11.200;  -46.800;    0.000;35.60000
 866.57;  -51.400;  -50.000;    0.000;-1.40000
 866.81;  -54.400;  -63.133;    0.000; 8.73333
 867.06;  -45.733;  -92.933;    0.000;47.20000
 867.30;  -85.333; -100.800;    0.000;15.46667
 867.55;  -44.733;  -64.267;    0.000;19.53334
 867.80;  -69.267;  -80.067;    0.000;10.80000
 868.04;  -55.667;  -71.933;    0.000;16.26667
 868.29;  -76.533;  -74.400;    0.000;-2.13333
 868.53;  -54.533;  -89.933;    0.000;35.40000
 868.78;  -72.667;  -63.267;    0.000;-9.40000
 869.03;  -59.533;  -58.933;    0.000;-0.60000
 869.27;  -66.533;  -77.333;    0.000;10.80000
 869.52;  -67.267;  -63.800;    0.000;-3.46667
 869.76;  -67.200;  -69.533;    0.000; 2.33334
 870.01;  -39.267;  -65.733;    0.000;26.46666
 870.25;  -61.000;  -58.133;    0.000;-2.86666
 870.50;  -71.133;  -69.067;    0.000;-2.06667
 870.75;  -66.800;  -86.600;    0.000;19.80000
 870.99;  -45.733;  -66.133;    0.000;20.40000
 871.24;  -79.000;  -61.267;    0.000;-17.73333
 871.48;  -67.000;  -73.533;    0.000; 6.53333
 871.73;  -52.667;  -60.133;    0.000; 7.46667
 871.97;  -68.600;  -95.400;    0.000;26.80000
 872.22;  -62.733;  -61.200;    0.000;-1.53333
 872.46;  -56.333;  -75.933;    0.000;19.60000
 872.71;  -76.733;  -91.600;    0.000;14.86667
 872.95;  -77.867;  -66.800;    0.000;-11.06667
 873.20;  -68.333;  -71.400;    0.000; 3.06667
 873.44;  -54.533;  -48.267;    0.000;-6.26667
 873.69;  -89.400;  -72.000;    0.000;-17.40000
 873.94;  -50.000;  -80.600;    0.000;30.60000
 874.18;  -69.933;  -71.867;    0.000; 1.93333
 874.43;  -46.800;  -52.733;    0.000; 5.93333
 874.67;  -41.733;  -70.333;    0.000;28.60000
 874.92;  -48.267;  -58.200;    0.000; 9.93333
 875.16;  -60.067;  -77.933;    0.000;17.86667
 875.41;  -46.533;  -67.400;    0.000;20.86667
 875.65;  -66.800;  -62.867;    0.000;-3.93334
 875.90;  -59.200;  -51.067;    0.000;-8.13334
 876.14;  -71.000;  -94.333;    0.000;23.33334
 876.39;  -40.133;  -78.867;    0.000;38.73333
 876.63;  -72.800;  -60.867;    0.000;-11.93334
 876.88;  -44.667;  -54.467;    0.000; 9.80000
 877.12;  -57.467;  -64.933;    0.000; 7.46667
 877.36;  -58.600;  -68.333;    0.000; 9.73334
 877.61;  -76.267;  -81.000;    0.000; 4.73333
 877.85;  -57.200;  -50.933;    0.000;-6.26667
 878.10;  -76.667;  -65.400;    0.000;-11.26666
 878.34;  -25.733;  -51.133;    0.000;25.40000
 878.59;  -75.200;  -72.400;    0.000;-2.80000
 878.83;  -60.667;  -71.400;    0.000;10.73333
 879.08;  -67.133;  -68.267;    0.000; 1.13334
 879.32;  -66.667;  -73.800;    0.000; 7.13334
 879.57;  -27.400;  -63.333;    0.000;35.93333
 879.81;  -55.867;  -62.267;    0.000; 6.40000
 880.05;  -36.533;  -43.733;    0.000; 7.20000
 880.30;  -35.467;  -63.733;    0.000;28.26667
 880.54;  -56.733;  -67.067;    0.000;10.33333
 880.79;  -42.333;  -80.867;    0.000;38.53334
 881.03;  -61.867;  -50.667;    0.000;-11.20000
 881.28;  -53.067;  -65.067;    0.000;12.00000
 881.52;  -49.400;  -70.267;    0.000;20.86667
 881.76;  -51.800;  -58.333;    0.000; 6.53333
 882.01;  -61.467;  -68.600;    0.000; 7.13333
 882.25;  -56.267;  -60.467;    0.000; 4.20000
 882.50;  -49.467;  -83.800;    0.000;34.33334
 882.74;  -32.800;  -74.200;    0.000;41.40000
 882.98;  -64.533;  -63.067;    0.000;-1.46667
 883.23;  -55.533;  -51.800;    0.000;-3.73333
 883.47;  -55.667;  -83.067;    0.000;27.40000
 883.72;  -46.200;  -49.800;    0.000; 3.60000
 883.96;  -47.467;  -82.000;    0.000;34.53333
 884.20;  -62.600;  -58.733;    0.000;-3.86666
 884.45;  -83.933;  -49.933;    0.000;-34.00000
 884.69;  -26.867;  -55.733;    0.000;28.86667
 884.94;  -41.933;  -39.267;    0.000;-2.66667
 885.18;  -49.333;  -80.733;    0.000;31.40000
 885.42;  -64.800;  -70.333;    0.000; 5.53333
 885.67;  -40.933;  -76.467;    0.000;35.53333
 885.91;  -67.800;  -86.933;    0.000;19.13333
 886.15;  -39.867;  -58.533;    0.000;18.66667
 886.40;  -55.200;  -43.733;    0.000;-11.46667
 886.64;  -40.000;  -75.133;    0.000;35.13333
 886.88;  -66.267;  -73.800;    0.000; 7.53333
 887.13;  -54.000;  -38.000;    0.000;-16.00000
 887.37;  -46.400;  -62.200;    0.000;15.80000
 887.62;  -26.267;  -59.600;    0.000;33.33333
 887.86;  -55.400;  -69.067;    0.000;13.66666
 888.10;  -43.400;  -49.933;    0.000; 6.53333
 888.35;  -59.067;  -47.400;    0.000;-11.66666
 888.59;  -33.467;  -45.133;    0.000;11.66667
 888.83;  -48.200;  -50.867;    0.000; 2.66666
 889.07;  -51.200;  -48.400;    0.000;-2.80000
 889.32;  -50.733;  -79.267;    0.000;28.53334
 889.56;  -28.067;  -60.933;    0.000;32.86667
 889.80;  -41.200;  -58.933;    0.000;17.73333
 890.05;  -31.867;  -58.600;    0.000;26.73333
 890.29;  -64.400;  -53.867;    0.000;-10.53334
 890.53;  -45.067;  -65.267;    0.000;20.20000
 890.78;  -39.133;  -63.667;    0.000;24.53333
 891.02;  -32.133;  -57.667;    0.000;25.53333
 891.26;  -69.400;  -77.400;    0.000; 8.00000
 891.51;  -32.733;  -58.267;    0.000;25.53333
 891.75;  -31.200;  -39.000;    0.000; 7.80000
 891.99;  -40.400;  -59.200;    0.000;18.80000
 892.23;  -54.933;  -64.467;    0.000; 9.53333
 892.48;  -33.533;  -37.800;    0.000; 4.26667
 892.72;  -41.867;  -51.467;    0.000; 9.60000
 892.96;  -10.333;  -30.000;    0.000;19.66667
 893.20;  -59.000;  -45.867;    0.000;-13.13334
 893.45;  -49.067;  -49.400;    0.000; 0.33334
 893.69;  -43.733;  -49.400;    0.000; 5.66667
 893.93;  -19.467;  -34.400;    0.000;14.93333
 894.17;  -26.533;  -40.400;    0.000;13.86667
 894.42;  -18.867;  -47.600;    0.000;28.73333
 894.66;  -38.733;  -43.067;    0.000; 4.33333
 894.90;  -36.333;  -56.267;    0.000;19.93333
 895.14;  -33.600;  -27.200;    0.000;-6.40000
 895.39;  -35.333;  -47.267;    0.000;11.93333
 895.63;  -28.600;  -31.600;    0.000; 3.00000
 895.87;  -21.400;  -22.000;    0.000; 0.60000
 896.11;  -21.933;  -50.533;    0.000;28.60000
 896.36;  -13.133;  -47.333;    0.000;34.20000
 896.60;  -33.400;  -46.933;    0.000;13.53333
 896.84;  -16.467;  -11.200;    0.000;-5.26667
 897.08;  -21.067;  -20.133;    0.000;-0.93333
 897.32;  -17.200;  -21.733;    0.000; 4.53333
 897.57;  -41.133;  -10.467;    0.000;-30.66667
 897.81;  -22.133;  -28.467;    0.000; 6.33333
 898.05;  -30.400;  -29.467;    0.000;-0.93333
 898.29;  -14.533;    1.067;    0.000;-15.60000
 898.53;  -32.533;  -28.600;    0.000;-3.93333
 898.78;  -20.600;   -6.667;    0.000;-13.93333
 899.02;   -7.800;  -13.933;    0.000; 6.13333
 899.26;   23.067;    3.933;    0.000;19.13333
 899.50;   18.133;   28.600;    0.000;-10.46667
 899.74;   -8.933;    1.067;    0.000;-10.00000
 899.99;   15.000;   -0.133;    0.000;15.13333
 900.23;   25.333;    9.000;    0.000;16.33333
 900.47;   -5.933;   29.733;    0.000;-35.66667
 900.71;   19.200;   20.800;    0.000;-1.60000
 900.95;   33.867;   40.533;    0.000;-6.66667
 901.19;   57.600;   60.733;    0.000;-3.13334
 901.44;   36.333;   33.933;    0.000; 2.40000
 901.68;   79.000;   70.600;    0.000; 8.40000
 901.92;   79.733;  100.133;    0.000;-20.40000
 902.16;   91.267;  102.200;    0.000;-10.93333
 902.40;  106.333;  106.800;    0.000;-0.46667
 902.64;  143.067;  130.600;    0.000;12.46666
 902.88;  154.933;  171.533;    0.000;-16.60001
 903.13;  207.000;  185.200;    0.000;21.80000

